PK2650 Power Data
Z Position (mm)	100.000	W Position (deg)	288.00
Preform ID	Diameter (mm)	Time Stamp	Start Time	Operator	Serial Number
Test 1	25	03-Nov-22 18:05:01	03-Nov-22 18:06:23	[no user]	266007708
Radius (mm)	Power
-26.250	82973.0
-26.245	82976.0
-26.240	82978.0
-26.235	82976.0
-26.230	82975.0
-26.225	82976.0
-26.220	82972.0
-26.215	82973.0
-26.210	82990.0
-26.205	82987.0
-26.200	82972.0
-26.195	82959.1
-26.190	82966.1
-26.185	82989.0
-26.180	82998.0
-26.175	83005.0
-26.170	83006.0
-26.165	83006.0
-26.160	82992.0
-26.155	82995.0
-26.150	82994.0
-26.145	82993.0
-26.140	83004.0
-26.135	82999.0
-26.130	82971.0
-26.125	82976.0
-26.120	83010.0
-26.115	83008.0
-26.110	83007.0
-26.105	83011.0
-26.100	83000.0
-26.095	83010.0
-26.090	83006.0
-26.085	83008.0
-26.080	83007.0
-26.075	83026.0
-26.070	83026.0
-26.065	83002.0
-26.060	82997.0
-26.055	83023.0
-26.050	83023.0
-26.045	83029.0
-26.040	83032.0
-26.035	83023.0
-26.030	83011.0
-26.025	83018.0
-26.020	83013.0
-26.015	83015.0
-26.010	83020.0
-26.005	83026.0
-26.000	82990.0
-25.995	82983.0
-25.990	83010.0
-25.985	83027.0
-25.980	83019.0
-25.975	83025.0
-25.970	83030.0
-25.965	83023.0
-25.960	83020.0
-25.955	83022.0
-25.950	83026.0
-25.945	83029.0
-25.940	83035.0
-25.935	83027.0
-25.930	83009.0
-25.925	83006.0
-25.920	83034.0
-25.915	83051.0
-25.910	83044.0
-25.905	83049.0
-25.900	83040.0
-25.895	83042.0
-25.890	83031.0
-25.885	83035.0
-25.880	83030.0
-25.875	83040.0
-25.870	83022.0
-25.865	83011.0
-25.860	83005.0
-25.855	83038.0
-25.850	83035.0
-25.845	83039.0
-25.840	83032.0
-25.835	83033.0
-25.830	83026.0
-25.825	83035.0
-25.820	83032.0
-25.815	83037.0
-25.810	83043.0
-25.805	83047.0
-25.800	83029.0
-25.795	83019.0
-25.790	83030.0
-25.785	83054.0
-25.780	83045.0
-25.775	83056.0
-25.770	83058.0
-25.765	83044.0
-25.760	83035.0
-25.755	83036.0
-25.750	83030.0
-25.745	83038.0
-25.740	83043.0
-25.735	83029.0
-25.730	83004.0
-25.725	83014.0
-25.720	83043.0
-25.715	83042.0
-25.710	83044.0
-25.705	83040.0
-25.700	83033.0
-25.695	83030.0
-25.690	83034.0
-25.685	83035.0
-25.680	83038.0
-25.675	83051.0
-25.670	83040.0
-25.665	83022.0
-25.660	83004.0
-25.655	83039.0
-25.650	83054.0
-25.645	83053.0
-25.640	83047.0
-25.635	83055.0
-25.630	83032.0
-25.625	83035.0
-25.620	83029.0
-25.615	83037.0
-25.610	83044.0
-25.605	83045.0
-25.600	83007.0
-25.595	83005.0
-25.590	83019.0
-25.585	83047.0
-25.580	83040.0
-25.575	83046.0
-25.570	83037.0
-25.565	83036.0
-25.560	83023.0
-25.555	83026.0
-25.550	83028.0
-25.545	83037.0
-25.540	83042.0
-25.535	83028.0
-25.530	83012.0
-25.525	83008.0
-25.520	83047.0
-25.515	83048.0
-25.510	83051.0
-25.505	83049.0
-25.500	83042.0
-25.495	83040.0
-25.490	83040.0
-25.485	83036.0
-25.480	83029.0
-25.475	83043.0
-25.470	83030.0
-25.465	83005.0
-25.460	83011.0
-25.455	83046.0
-25.450	83035.0
-25.445	83032.0
-25.440	83033.0
-25.435	83037.0
-25.430	83024.0
-25.425	83029.0
-25.420	83022.0
-25.415	83034.0
-25.410	83041.0
-25.405	83047.0
-25.400	83022.0
-25.395	83014.0
-25.390	83025.0
-25.385	83045.0
-25.380	83046.0
-25.375	83050.0
-25.370	83045.0
-25.365	83041.0
-25.360	83027.0
-25.355	83037.0
-25.350	83032.0
-25.345	83035.0
-25.340	83034.0
-25.335	83021.0
-25.330	83003.0
-25.325	83006.0
-25.320	83032.0
-25.315	83041.0
-25.310	83037.0
-25.305	83030.0
-25.300	83035.0
-25.295	83029.0
-25.290	83021.0
-25.285	83026.0
-25.280	83033.0
-25.275	83037.0
-25.270	83035.0
-25.265	83013.0
-25.260	83004.0
-25.255	83037.0
-25.250	83042.0
-25.245	83047.0
-25.240	83037.0
-25.235	83043.0
-25.230	83035.0
-25.225	83031.0
-25.220	83032.0
-25.215	83035.0
-25.210	83031.0
-25.205	83037.0
-25.200	83005.0
-25.195	82986.0
-25.190	83017.0
-25.185	83038.0
-25.180	83033.0
-25.175	83027.0
-25.170	83026.0
-25.165	83030.0
-25.160	83021.0
-25.155	83028.0
-25.150	83023.0
-25.145	83042.0
-25.140	83033.0
-25.135	83019.0
-25.130	83001.0
-25.125	83003.0
-25.120	83029.0
-25.115	83033.0
-25.110	83034.0
-25.105	83027.0
-25.100	83025.0
-25.095	83028.0
-25.090	83026.0
-25.085	83026.0
-25.080	83030.0
-25.075	83027.0
-25.070	83013.0
-25.065	82997.0
-25.060	82995.0
-25.055	83033.0
-25.050	83033.0
-25.045	83034.0
-25.040	83021.0
-25.035	83023.0
-25.030	83013.0
-25.025	83016.0
-25.020	83022.0
-25.015	83030.0
-25.010	83027.0
-25.005	83035.0
-25.000	83007.0
-24.995	82991.0
-24.990	83023.0
-24.985	83032.0
-24.980	83036.0
-24.975	83034.0
-24.970	83032.0
-24.965	83033.0
-24.960	83025.0
-24.955	83024.0
-24.950	83027.0
-24.945	83026.0
-24.940	83023.0
-24.935	83005.0
-24.930	82985.0
-24.925	83007.0
-24.920	83023.0
-24.915	83017.0
-24.910	83016.0
-24.905	83008.0
-24.900	83003.0
-24.895	83011.0
-24.890	83007.0
-24.885	83009.0
-24.880	83007.0
-24.875	83018.0
-24.870	83006.0
-24.865	82993.0
-24.860	82983.0
-24.855	83025.0
-24.850	83023.0
-24.845	83023.0
-24.840	83011.0
-24.835	83024.0
-24.830	83015.0
-24.825	83010.0
-24.820	83007.0
-24.815	83006.0
-24.810	83011.0
-24.805	83008.0
-24.800	82980.0
-24.795	82980.0
-24.790	82998.0
-24.785	83014.0
-24.780	83004.0
-24.775	83011.0
-24.770	82997.0
-24.765	82997.0
-24.760	82996.0
-24.755	82995.0
-24.750	82988.0
-24.745	82996.0
-24.740	83008.0
-24.735	82984.0
-24.730	82970.1
-24.725	82989.0
-24.720	82997.0
-24.715	83005.0
-24.710	83007.0
-24.705	83002.0
-24.700	82993.0
-24.695	83000.0
-24.690	82993.0
-24.685	83003.0
-24.680	82987.0
-24.675	82990.0
-24.670	82974.0
-24.665	82953.1
-24.660	82962.1
-24.655	83002.0
-24.650	82994.0
-24.645	82990.0
-24.640	82982.0
-24.635	82976.0
-24.630	82978.0
-24.625	82984.0
-24.620	82977.0
-24.615	82980.0
-24.610	82981.0
-24.605	82981.0
-24.600	82962.1
-24.595	82953.1
-24.590	82975.0
-24.585	82987.0
-24.580	82979.0
-24.575	82984.0
-24.570	82976.0
-24.565	82978.0
-24.560	82982.0
-24.555	82978.0
-24.550	82979.0
-24.545	82977.0
-24.540	82976.0
-24.535	82950.1
-24.530	82940.1
-24.525	82955.1
-24.520	82978.0
-24.515	82975.0
-24.510	82971.0
-24.505	82972.1
-24.500	82962.1
-24.495	82968.1
-24.490	82971.1
-24.485	82973.0
-24.480	82972.0
-24.475	82976.0
-24.470	82962.1
-24.465	82949.1
-24.460	82942.1
-24.455	82977.0
-24.450	82983.0
-24.445	82982.0
-24.440	82971.1
-24.435	82971.1
-24.430	82969.0
-24.425	82968.1
-24.420	82963.1
-24.415	82974.0
-24.410	82972.1
-24.405	82960.1
-24.400	82938.1
-24.395	82932.1
-24.390	82959.1
-24.385	82971.0
-24.380	82960.1
-24.375	82957.1
-24.370	82955.1
-24.365	82952.1
-24.360	82957.1
-24.355	82955.1
-24.350	82959.1
-24.345	82966.1
-24.340	82958.1
-24.335	82952.1
-24.330	82925.1
-24.325	82939.1
-24.320	82968.0
-24.315	82971.0
-24.310	82965.1
-24.305	82968.1
-24.300	82961.1
-24.295	82956.1
-24.290	82955.1
-24.285	82963.1
-24.280	82953.1
-24.275	82967.1
-24.270	82935.1
-24.265	82922.1
-24.260	82929.1
-24.255	82972.0
-24.250	82957.1
-24.245	82961.1
-24.240	82962.1
-24.235	82956.1
-24.230	82942.1
-24.225	82950.1
-24.220	82950.1
-24.215	82960.1
-24.210	82964.1
-24.205	82968.1
-24.200	82941.1
-24.195	82924.1
-24.190	82953.1
-24.185	82970.1
-24.180	82968.1
-24.175	82970.1
-24.170	82964.1
-24.165	82959.1
-24.160	82952.1
-24.155	82952.1
-24.150	82952.1
-24.145	82958.1
-24.140	82950.1
-24.135	82929.1
-24.130	82911.1
-24.125	82941.1
-24.120	82960.1
-24.115	82958.1
-24.110	82957.1
-24.105	82946.1
-24.100	82939.1
-24.095	82946.1
-24.090	82949.1
-24.085	82947.1
-24.080	82947.1
-24.075	82964.1
-24.070	82956.1
-24.065	82942.1
-24.060	82934.1
-24.055	82972.1
-24.050	82971.1
-24.045	82974.0
-24.040	82966.1
-24.035	82959.1
-24.030	82957.1
-24.025	82961.1
-24.020	82956.1
-24.015	82957.1
-24.010	82951.1
-24.005	82940.1
-24.000	82928.1
-23.995	82927.1
-23.990	82961.1
-23.985	82956.1
-23.980	82953.1
-23.975	82946.1
-23.970	82954.1
-23.965	82950.1
-23.960	82959.1
-23.955	82948.1
-23.950	82947.1
-23.945	82961.1
-23.940	82961.1
-23.935	82943.1
-23.930	82924.1
-23.925	82942.1
-23.920	82959.1
-23.915	82961.1
-23.910	82964.1
-23.905	82963.1
-23.900	82963.1
-23.895	82959.1
-23.890	82959.1
-23.885	82962.1
-23.880	82958.1
-23.875	82956.1
-23.870	82938.1
-23.865	82927.1
-23.860	82936.1
-23.855	82965.1
-23.850	82965.1
-23.845	82961.1
-23.840	82951.1
-23.835	82961.1
-23.830	82959.1
-23.825	82959.1
-23.820	82960.1
-23.815	82967.1
-23.810	82974.1
-23.805	82971.0
-23.800	82948.1
-23.795	82940.1
-23.790	82969.0
-23.785	82977.0
-23.780	82979.0
-23.775	82986.0
-23.770	82975.0
-23.765	82973.0
-23.760	82978.0
-23.755	82973.1
-23.750	82972.0
-23.745	82975.0
-23.740	82972.0
-23.735	82954.1
-23.730	82940.1
-23.725	82963.1
-23.720	82978.0
-23.715	82980.0
-23.710	82976.0
-23.705	82971.0
-23.700	82977.0
-23.695	82971.1
-23.690	82968.1
-23.685	82966.1
-23.680	82968.1
-23.675	82978.0
-23.670	82956.1
-23.665	82956.1
-23.660	82954.1
-23.655	82996.0
-23.650	82982.0
-23.645	82993.0
-23.640	82984.0
-23.635	82978.0
-23.630	82975.0
-23.625	82983.0
-23.620	82968.1
-23.615	82978.0
-23.610	82984.0
-23.605	82966.1
-23.600	82943.1
-23.595	82952.1
-23.590	82972.0
-23.585	82982.0
-23.580	82984.0
-23.575	82984.0
-23.570	82977.0
-23.565	82965.1
-23.560	82969.1
-23.555	82970.0
-23.550	82973.0
-23.545	82984.0
-23.540	82989.0
-23.535	82971.0
-23.530	82946.1
-23.525	82969.0
-23.520	82991.0
-23.515	82995.0
-23.510	82996.0
-23.505	82991.0
-23.500	82993.0
-23.495	82982.0
-23.490	82976.0
-23.485	82978.0
-23.480	82991.0
-23.475	82993.0
-23.470	82970.0
-23.465	82961.1
-23.460	82969.0
-23.455	82995.0
-23.450	82996.0
-23.445	82987.0
-23.440	82981.0
-23.435	82988.0
-23.430	82979.0
-23.425	82982.0
-23.420	82985.0
-23.415	82995.0
-23.410	83001.0
-23.405	82996.0
-23.400	82976.0
-23.395	82962.0
-23.390	82991.0
-23.385	83007.0
-23.380	83000.0
-23.375	83010.0
-23.370	83005.0
-23.365	83002.0
-23.360	82998.0
-23.355	83003.0
-23.350	82995.0
-23.345	83006.0
-23.340	82996.0
-23.335	82983.0
-23.330	82963.1
-23.325	82994.0
-23.320	83008.0
-23.315	83018.0
-23.310	83012.0
-23.305	83001.0
-23.300	83006.0
-23.295	83000.0
-23.290	82999.0
-23.285	83000.0
-23.280	83001.0
-23.275	83022.0
-23.270	83006.0
-23.265	82987.0
-23.260	82978.0
-23.255	83020.0
-23.250	83018.0
-23.245	83021.0
-23.240	83019.0
-23.235	83024.0
-23.230	83019.0
-23.225	83013.0
-23.220	83015.0
-23.215	83014.0
-23.210	83015.0
-23.205	83001.0
-23.200	82981.0
-23.195	82992.0
-23.190	83011.0
-23.185	83027.0
-23.180	83011.0
-23.175	83011.0
-23.170	83007.0
-23.165	83014.0
-23.160	83008.0
-23.155	83010.0
-23.150	83010.0
-23.145	83026.0
-23.140	83025.0
-23.135	83008.0
-23.130	82992.0
-23.125	83020.0
-23.120	83027.0
-23.115	83032.0
-23.110	83024.0
-23.105	83021.0
-23.100	83021.0
-23.095	83017.0
-23.090	83013.0
-23.085	83018.0
-23.080	83020.0
-23.075	83024.0
-23.070	82998.0
-23.065	82987.0
-23.060	82992.0
-23.055	83033.0
-23.050	83021.0
-23.045	83029.0
-23.040	83024.0
-23.035	83024.0
-23.030	83022.0
-23.025	83013.0
-23.020	83018.0
-23.015	83024.0
-23.010	83033.0
-23.005	83026.0
-23.000	83001.0
-22.995	83004.0
-22.990	83036.0
-22.985	83036.0
-22.980	83035.0
-22.975	83041.0
-22.970	83029.0
-22.965	83031.0
-22.960	83024.0
-22.955	83030.0
-22.950	83025.0
-22.945	83035.0
-22.940	83027.0
-22.935	82998.0
-22.930	82986.0
-22.925	83028.0
-22.920	83021.0
-22.915	83037.0
-22.910	83032.0
-22.905	83029.0
-22.900	83018.0
-22.895	83016.0
-22.890	83010.0
-22.885	83025.0
-22.880	83027.0
-22.875	83033.0
-22.870	83011.0
-22.865	83004.0
-22.860	83001.0
-22.855	83038.0
-22.850	83038.0
-22.845	83041.0
-22.840	83028.0
-22.835	83031.0
-22.830	83030.0
-22.825	83026.0
-22.820	83029.0
-22.815	83027.0
-22.810	83025.0
-22.805	83011.0
-22.800	82991.0
-22.795	82993.0
-22.790	83034.0
-22.785	83029.0
-22.780	83027.0
-22.775	83026.0
-22.770	83021.0
-22.765	83020.0
-22.760	83018.0
-22.755	83023.0
-22.750	83024.0
-22.745	83040.0
-22.740	83033.0
-22.735	83009.0
-22.730	82995.0
-22.725	83024.0
-22.720	83036.0
-22.715	83036.0
-22.710	83030.0
-22.705	83033.0
-22.700	83031.0
-22.695	83029.0
-22.690	83017.0
-22.685	83026.0
-22.680	83030.0
-22.675	83035.0
-22.670	82999.0
-22.665	82996.0
-22.660	83000.0
-22.655	83026.0
-22.650	83018.0
-22.645	83021.0
-22.640	83018.0
-22.635	83025.0
-22.630	83013.0
-22.625	83022.0
-22.620	83015.0
-22.615	83030.0
-22.610	83036.0
-22.605	83017.0
-22.600	83001.0
-22.595	83006.0
-22.590	83036.0
-22.585	83042.0
-22.580	83037.0
-22.575	83045.0
-22.570	83033.0
-22.565	83025.0
-22.560	83030.0
-22.555	83026.0
-22.550	83028.0
-22.545	83036.0
-22.540	83026.0
-22.535	82999.0
-22.530	82993.0
-22.525	83018.0
-22.520	83031.0
-22.515	83032.0
-22.510	83013.0
-22.505	83024.0
-22.500	83018.0
-22.495	83017.0
-22.490	83020.0
-22.485	83029.0
-22.480	83029.0
-22.475	83044.0
-22.470	83013.0
-22.465	83004.0
-22.460	83015.0
-22.455	83043.0
-22.450	83042.0
-22.445	83038.0
-22.440	83032.0
-22.435	83035.0
-22.430	83023.0
-22.425	83032.0
-22.420	83029.0
-22.415	83038.0
-22.410	83026.0
-22.405	83012.0
-22.400	82996.0
-22.395	83009.0
-22.390	83031.0
-22.385	83044.0
-22.380	83025.0
-22.375	83021.0
-22.370	83019.0
-22.365	83012.0
-22.360	83019.0
-22.355	83026.0
-22.350	83025.0
-22.345	83032.0
-22.340	83030.0
-22.335	83005.0
-22.330	82997.0
-22.325	83038.0
-22.320	83040.0
-22.315	83038.0
-22.310	83039.0
-22.305	83036.0
-22.300	83029.0
-22.295	83027.0
-22.290	83017.0
-22.285	83033.0
-22.280	83034.0
-22.275	83033.0
-22.270	83007.0
-22.265	82992.0
-22.260	83010.0
-22.255	83035.0
-22.250	83029.0
-22.245	83033.0
-22.240	83020.0
-22.235	83024.0
-22.230	83022.0
-22.225	83019.0
-22.220	83012.0
-22.215	83035.0
-22.210	83033.0
-22.205	83026.0
-22.200	82997.0
-22.195	82995.0
-22.190	83026.0
-22.185	83037.0
-22.180	83039.0
-22.175	83040.0
-22.170	83024.0
-22.165	83029.0
-22.160	83021.0
-22.155	83018.0
-22.150	83022.0
-22.145	83026.0
-22.140	83007.0
-22.135	82997.0
-22.130	82986.0
-22.125	83026.0
-22.120	83027.0
-22.115	83020.0
-22.110	83021.0
-22.105	83021.0
-22.100	83014.0
-22.095	83018.0
-22.090	83019.0
-22.085	83016.0
-22.080	83023.0
-22.075	83021.0
-22.070	83002.0
-22.065	82987.0
-22.060	83000.0
-22.055	83029.0
-22.050	83025.0
-22.045	83032.0
-22.040	83028.0
-22.035	83021.0
-22.030	83016.0
-22.025	83018.0
-22.020	83012.0
-22.015	83014.0
-22.010	83018.0
-22.005	82995.0
-22.000	82982.0
-21.995	82993.0
-21.990	83023.0
-21.985	83025.0
-21.980	83012.0
-21.975	83017.0
-21.970	83002.0
-21.965	83005.0
-21.960	83003.0
-21.955	83006.0
-21.950	83010.0
-21.945	83028.0
-21.940	83008.0
-21.935	82996.0
-21.930	82977.0
-21.925	83014.0
-21.920	83017.0
-21.915	83024.0
-21.910	83019.0
-21.905	83013.0
-21.900	83001.0
-21.895	83012.0
-21.890	83007.0
-21.885	83008.0
-21.880	83006.0
-21.875	83014.0
-21.870	82977.0
-21.865	82970.0
-21.860	82992.0
-21.855	83010.0
-21.850	83001.0
-21.845	83008.0
-21.840	82999.0
-21.835	82995.0
-21.830	82993.0
-21.825	82988.0
-21.820	83000.0
-21.815	83008.0
-21.810	83012.0
-21.805	82995.0
-21.800	82975.0
-21.795	82975.0
-21.790	83011.0
-21.785	83014.0
-21.780	83011.0
-21.775	83018.0
-21.770	83003.0
-21.765	83012.0
-21.760	82996.0
-21.755	83002.0
-21.750	82999.0
-21.745	83001.0
-21.740	82979.0
-21.735	82965.0
-21.730	82967.0
-21.725	82998.0
-21.720	83001.0
-21.715	83000.0
-21.710	82993.0
-21.705	82991.0
-21.700	82983.0
-21.695	82984.0
-21.690	82985.0
-21.685	82997.0
-21.680	82997.0
-21.675	83007.0
-21.670	82988.0
-21.665	82969.0
-21.660	82984.0
-21.655	83008.0
-21.650	82999.0
-21.645	83002.0
-21.640	82999.0
-21.635	82993.0
-21.630	82989.0
-21.625	82990.0
-21.620	82990.0
-21.615	82995.0
-21.610	82991.0
-21.605	82972.0
-21.600	82949.1
-21.595	82964.1
-21.590	82986.0
-21.585	82998.0
-21.580	82987.0
-21.575	82988.0
-21.570	82988.0
-21.565	82977.0
-21.560	82973.0
-21.555	82978.0
-21.550	82988.0
-21.545	82996.0
-21.540	82989.0
-21.535	82960.1
-21.530	82960.1
-21.525	82989.0
-21.520	82994.0
-21.515	82993.0
-21.510	82990.0
-21.505	82991.0
-21.500	82989.0
-21.495	82986.0
-21.490	82985.0
-21.485	82982.0
-21.480	82989.0
-21.475	82981.0
-21.470	82957.1
-21.465	82949.1
-21.460	82971.0
-21.455	82987.0
-21.450	82984.0
-21.445	82982.0
-21.440	82976.0
-21.435	82979.0
-21.430	82973.0
-21.425	82971.1
-21.420	82971.0
-21.415	82989.0
-21.410	82994.0
-21.405	82976.0
-21.400	82950.1
-21.395	82960.1
-21.390	82984.0
-21.385	82987.0
-21.380	82981.0
-21.375	82983.0
-21.370	82971.1
-21.365	82964.1
-21.360	82952.1
-21.355	82942.1
-21.350	82929.1
-21.345	82907.1
-21.340	82845.2
-21.335	82766.3
-21.330	82666.4
-21.325	82573.5
-21.320	82403.7
-21.315	82174.9
-21.310	81862.3
-21.305	81483.7
-21.300	81030.2
-21.295	80570.8
-21.290	80119.3
-21.285	79682.9
-21.280	79216.5
-21.275	78677.2
-21.270	78053.0
-21.265	77418.8
-21.260	76842.6
-21.255	76215.5
-21.250	75451.4
-21.245	74509.4
-21.240	73655.4
-21.235	73299.0
-21.230	73065.4
-21.225	72642.8
-21.220	72943.5
-21.215	73606.0
-21.210	73488.9
-21.205	73704.5
-21.200	74616.8
-21.195	75648.0
-21.190	76494.3
-21.185	76728.1
-21.180	76041.5
-21.175	74761.3
-21.170	74651.2
-21.165	75571.5
-21.160	75748.3
-21.155	75424.4
-21.150	76247.8
-21.145	75954.9
-21.140	74554.8
-21.135	75569.1
-21.130	77242.8
-21.125	77873.3
-21.120	78045.1
-21.115	77868.2
-21.110	77354.5
-21.105	76050.4
-21.100	75287.0
-21.095	76426.1
-21.090	77185.6
-21.085	77294.5
-21.080	77838.0
-21.075	78436.5
-21.070	78235.6
-21.065	77061.4
-21.060	75470.5
-21.055	75501.4
-21.050	77336.1
-21.045	77885.7
-21.040	76002.1
-21.035	74377.2
-21.030	75517.3
-21.025	77750.7
-21.020	78511.1
-21.015	78235.3
-21.010	77733.6
-21.005	77741.6
-21.000	77867.5
-20.995	77619.6
-20.990	77621.6
-20.985	78194.2
-20.980	78722.8
-20.975	78886.6
-20.970	78730.7
-20.965	78576.8
-20.960	78447.9
-20.955	78400.9
-20.950	78372.9
-20.945	78301.9
-20.940	78432.8
-20.935	78881.5
-20.930	79264.2
-20.925	79379.1
-20.920	79251.2
-20.915	78919.4
-20.910	78418.8
-20.905	78159.9
-20.900	78265.9
-20.895	78524.6
-20.890	78792.4
-20.885	78928.3
-20.880	78902.3
-20.875	78930.3
-20.870	79013.2
-20.865	79131.1
-20.860	79197.0
-20.855	79149.1
-20.850	79070.1
-20.845	79016.1
-20.840	78974.2
-20.835	79022.1
-20.830	79106.0
-20.825	79199.0
-20.820	79287.9
-20.815	79288.9
-20.810	79257.9
-20.805	79170.9
-20.800	79071.0
-20.795	79007.0
-20.790	78960.0
-20.785	78861.1
-20.780	78720.2
-20.775	78700.2
-20.770	78779.2
-20.765	78835.1
-20.760	78904.0
-20.755	78998.0
-20.750	79065.9
-20.745	79132.8
-20.740	79117.8
-20.735	79065.9
-20.730	79033.9
-20.725	79089.8
-20.720	79154.8
-20.715	79246.7
-20.710	79301.6
-20.705	79309.6
-20.700	79343.6
-20.695	79415.5
-20.690	79484.5
-20.685	79563.4
-20.680	79607.4
-20.675	79632.4
-20.670	79677.3
-20.665	79695.3
-20.660	79751.2
-20.655	79774.2
-20.650	79797.2
-20.645	79824.2
-20.640	79850.1
-20.635	79863.1
-20.630	79894.1
-20.625	79892.1
-20.620	79878.1
-20.615	79864.1
-20.610	79829.1
-20.605	79796.1
-20.600	79769.1
-20.595	79763.1
-20.590	79770.1
-20.585	79765.1
-20.580	79790.1
-20.575	79833.1
-20.570	79845.1
-20.565	79872.0
-20.560	79902.0
-20.555	79879.0
-20.550	79862.0
-20.545	79878.0
-20.540	79884.0
-20.535	79865.0
-20.530	79840.0
-20.525	79842.0
-20.520	79821.0
-20.515	79833.0
-20.510	79848.0
-20.505	79900.9
-20.500	79974.9
-20.495	80036.8
-20.490	80101.8
-20.485	80154.7
-20.480	80173.7
-20.475	80209.7
-20.470	80234.7
-20.465	80254.6
-20.460	80306.6
-20.455	80326.6
-20.450	80328.6
-20.445	80346.5
-20.440	80351.5
-20.435	80356.5
-20.430	80357.5
-20.425	80359.5
-20.420	80365.5
-20.415	80363.5
-20.410	80337.5
-20.405	80329.5
-20.400	80324.5
-20.395	80359.5
-20.390	80366.5
-20.385	80370.5
-20.380	80333.5
-20.375	80313.5
-20.370	80303.5
-20.365	80309.5
-20.360	80330.5
-20.355	80325.5
-20.350	80323.5
-20.345	80305.5
-20.340	80257.5
-20.335	80224.5
-20.330	80243.5
-20.325	80283.5
-20.320	80258.5
-20.315	80245.5
-20.310	80224.5
-20.305	80217.5
-20.300	80189.5
-20.295	80170.6
-20.290	80136.6
-20.285	80122.6
-20.280	80121.6
-20.275	80120.6
-20.270	80116.6
-20.265	80140.6
-20.260	80214.5
-20.255	80243.5
-20.250	80259.5
-20.245	80304.4
-20.240	80339.4
-20.235	80380.4
-20.230	80403.3
-20.225	80435.3
-20.220	80464.3
-20.215	80503.2
-20.210	80524.2
-20.205	80528.2
-20.200	80529.2
-20.195	80571.2
-20.190	80600.2
-20.185	80614.1
-20.180	80609.1
-20.175	80617.1
-20.170	80605.1
-20.165	80594.1
-20.160	80558.2
-20.155	80558.2
-20.150	80566.2
-20.145	80565.2
-20.140	80512.2
-20.135	80485.2
-20.130	80490.2
-20.125	80533.2
-20.120	80548.2
-20.115	80551.1
-20.110	80534.2
-20.105	80524.2
-20.100	80551.1
-20.095	80570.1
-20.090	80579.1
-20.085	80598.1
-20.080	80611.1
-20.075	80614.1
-20.070	80593.1
-20.065	80587.1
-20.060	80627.1
-20.055	80638.1
-20.050	80645.0
-20.045	80656.0
-20.040	80660.0
-20.035	80673.0
-20.030	80698.0
-20.025	80720.0
-20.020	80739.0
-20.015	80768.9
-20.010	80775.9
-20.005	80777.9
-20.000	80777.9
-19.995	80829.9
-19.990	80850.9
-19.985	80872.8
-19.980	80872.8
-19.975	80867.8
-19.970	80868.8
-19.965	80870.8
-19.960	80861.8
-19.955	80861.8
-19.950	80875.8
-19.945	80886.8
-19.940	80870.8
-19.935	80861.8
-19.930	80859.8
-19.925	80888.8
-19.920	80882.8
-19.915	80881.8
-19.910	80883.8
-19.905	80879.8
-19.900	80885.8
-19.895	80892.8
-19.890	80899.8
-19.885	80905.8
-19.880	80921.8
-19.875	80919.8
-19.870	80891.8
-19.865	80882.8
-19.860	80897.8
-19.855	80890.8
-19.850	80886.8
-19.845	80892.8
-19.840	80875.8
-19.835	80872.8
-19.830	80869.8
-19.825	80851.8
-19.820	80843.8
-19.815	80833.8
-19.810	80808.8
-19.805	80773.8
-19.800	80743.9
-19.795	80772.8
-19.790	80764.8
-19.785	80761.8
-19.780	80749.8
-19.775	80733.8
-19.770	80712.9
-19.765	80708.9
-19.760	80696.9
-19.755	80679.9
-19.750	80652.9
-19.745	80633.9
-19.740	80592.9
-19.735	80594.9
-19.730	80616.9
-19.725	80647.9
-19.720	80628.9
-19.715	80613.9
-19.710	80614.9
-19.705	80632.9
-19.700	80637.9
-19.695	80646.9
-19.690	80657.9
-19.685	80662.9
-19.680	80670.9
-19.675	80661.9
-19.670	80648.9
-19.665	80646.9
-19.660	80664.8
-19.655	80662.8
-19.650	80670.8
-19.645	80665.8
-19.640	80657.8
-19.635	80667.8
-19.630	80672.8
-19.625	80662.8
-19.620	80659.8
-19.615	80663.8
-19.610	80667.8
-19.605	80641.8
-19.600	80625.8
-19.595	80641.8
-19.590	80645.8
-19.585	80633.8
-19.580	80636.8
-19.575	80640.8
-19.570	80653.8
-19.565	80662.8
-19.560	80661.8
-19.555	80652.8
-19.550	80640.8
-19.545	80638.8
-19.540	80616.8
-19.535	80606.8
-19.530	80610.8
-19.525	80630.8
-19.520	80630.8
-19.515	80649.8
-19.510	80652.8
-19.505	80664.8
-19.500	80675.8
-19.495	80687.8
-19.490	80691.8
-19.485	80729.7
-19.480	80761.7
-19.475	80779.7
-19.470	80786.7
-19.465	80803.7
-19.460	80822.7
-19.455	80826.7
-19.450	80824.7
-19.445	80860.6
-19.440	80873.6
-19.435	80878.6
-19.430	80888.6
-19.425	80898.6
-19.420	80902.6
-19.415	80932.6
-19.410	80955.6
-19.405	80952.5
-19.400	80964.5
-19.395	80989.5
-19.390	81015.5
-19.385	81023.5
-19.380	81017.5
-19.375	81007.5
-19.370	81005.5
-19.365	80993.5
-19.360	80980.5
-19.355	80982.5
-19.350	80974.5
-19.345	80965.5
-19.340	80922.6
-19.335	80913.6
-19.330	80920.5
-19.325	80927.5
-19.320	80911.6
-19.315	80901.6
-19.310	80884.6
-19.305	80874.6
-19.300	80875.6
-19.295	80872.6
-19.290	80870.6
-19.285	80878.6
-19.280	80865.6
-19.275	80840.6
-19.270	80802.6
-19.265	80801.6
-19.260	80828.6
-19.255	80852.6
-19.250	80866.6
-19.245	80883.6
-19.240	80864.6
-19.235	80859.6
-19.230	80849.6
-19.225	80884.6
-19.220	80918.5
-19.215	80930.5
-19.210	80931.5
-19.205	80918.5
-19.200	80923.5
-19.195	80982.5
-19.190	81017.4
-19.185	81062.4
-19.180	81072.4
-19.175	81100.4
-19.170	81119.4
-19.165	81134.4
-19.160	81158.3
-19.155	81175.3
-19.150	81191.3
-19.145	81210.3
-19.140	81189.3
-19.135	81199.3
-19.130	81228.3
-19.125	81256.3
-19.120	81261.2
-19.115	81271.2
-19.110	81265.2
-19.105	81255.2
-19.100	81251.2
-19.095	81240.3
-19.090	81228.3
-19.085	81232.3
-19.080	81224.3
-19.075	81201.3
-19.070	81175.3
-19.065	81179.3
-19.060	81193.3
-19.055	81181.3
-19.050	81155.3
-19.045	81150.3
-19.040	81132.3
-19.035	81133.3
-19.030	81116.3
-19.025	81099.3
-19.020	81103.3
-19.015	81114.3
-19.010	81079.4
-19.005	81066.4
-19.000	81050.4
-18.995	81096.3
-18.990	81110.3
-18.985	81132.3
-18.980	81123.3
-18.975	81123.3
-18.970	81104.3
-18.965	81093.3
-18.960	81096.3
-18.955	81112.3
-18.950	81112.3
-18.945	81112.3
-18.940	81079.3
-18.935	81076.3
-18.930	81104.3
-18.925	81128.3
-18.920	81133.3
-18.915	81137.3
-18.910	81129.3
-18.905	81117.3
-18.900	81099.3
-18.895	81089.3
-18.890	81092.3
-18.885	81094.3
-18.880	81097.3
-18.875	81084.3
-18.870	81068.3
-18.865	81070.3
-18.860	81096.3
-18.855	81109.3
-18.850	81120.3
-18.845	81122.3
-18.840	81107.3
-18.835	81102.3
-18.830	81099.3
-18.825	81087.3
-18.820	81087.3
-18.815	81081.3
-18.810	81072.3
-18.805	81056.3
-18.800	81042.3
-18.795	81082.3
-18.790	81060.3
-18.785	81055.3
-18.780	81040.3
-18.775	81050.3
-18.770	81040.3
-18.765	81053.3
-18.760	81057.3
-18.755	81079.3
-18.750	81085.3
-18.745	81083.3
-18.740	81056.3
-18.735	81052.3
-18.730	81066.3
-18.725	81090.3
-18.720	81079.3
-18.715	81082.3
-18.710	81083.3
-18.705	81115.3
-18.700	81139.2
-18.695	81139.2
-18.690	81152.2
-18.685	81177.2
-18.680	81201.2
-18.675	81207.2
-18.670	81208.2
-18.665	81229.2
-18.660	81265.1
-18.655	81276.1
-18.650	81280.1
-18.645	81304.1
-18.640	81304.1
-18.635	81298.1
-18.630	81294.1
-18.625	81303.1
-18.620	81305.1
-18.615	81324.1
-18.610	81333.1
-18.605	81331.1
-18.600	81325.1
-18.595	81361.1
-18.590	81376.0
-18.585	81376.0
-18.580	81371.0
-18.575	81378.0
-18.570	81375.0
-18.565	81384.0
-18.560	81389.0
-18.555	81407.0
-18.550	81406.0
-18.545	81414.0
-18.540	81390.0
-18.535	81384.0
-18.530	81413.0
-18.525	81438.0
-18.520	81432.0
-18.515	81453.0
-18.510	81443.0
-18.505	81453.0
-18.500	81456.0
-18.495	81464.0
-18.490	81465.0
-18.485	81457.0
-18.480	81460.0
-18.475	81447.0
-18.470	81429.0
-18.465	81443.0
-18.460	81476.9
-18.455	81484.9
-18.450	81472.9
-18.445	81474.9
-18.440	81471.0
-18.435	81475.9
-18.430	81466.0
-18.425	81466.0
-18.420	81463.0
-18.415	81474.9
-18.410	81456.0
-18.405	81438.0
-18.400	81441.0
-18.395	81460.0
-18.390	81450.0
-18.385	81456.0
-18.380	81459.9
-18.375	81459.9
-18.370	81453.0
-18.365	81454.0
-18.360	81452.0
-18.355	81467.9
-18.350	81463.9
-18.345	81479.9
-18.340	81454.9
-18.335	81442.0
-18.330	81467.9
-18.325	81496.9
-18.320	81495.9
-18.315	81491.9
-18.310	81480.9
-18.305	81477.9
-18.300	81471.9
-18.295	81481.9
-18.290	81478.9
-18.285	81479.9
-18.280	81476.9
-18.275	81458.9
-18.270	81446.9
-18.265	81455.9
-18.260	81479.9
-18.255	81480.9
-18.250	81467.9
-18.245	81474.9
-18.240	81471.9
-18.235	81479.9
-18.230	81476.9
-18.225	81488.9
-18.220	81499.9
-18.215	81507.9
-18.210	81489.9
-18.205	81470.9
-18.200	81471.9
-18.195	81502.9
-18.190	81499.9
-18.185	81509.9
-18.180	81499.9
-18.175	81508.9
-18.170	81505.9
-18.165	81505.9
-18.160	81508.9
-18.155	81505.9
-18.150	81500.9
-18.145	81493.9
-18.140	81468.9
-18.135	81445.9
-18.130	81454.9
-18.125	81450.9
-18.120	81452.9
-18.115	81453.9
-18.110	81443.9
-18.105	81427.9
-18.100	81430.9
-18.095	81427.9
-18.090	81422.9
-18.085	81416.9
-18.080	81411.9
-18.075	81384.0
-18.070	81358.0
-18.065	81369.0
-18.060	81377.0
-18.055	81378.0
-18.050	81373.0
-18.045	81378.0
-18.040	81370.0
-18.035	81362.0
-18.030	81353.0
-18.025	81344.0
-18.020	81321.0
-18.015	81309.0
-18.010	81272.0
-18.005	81262.0
-18.000	81256.0
-17.995	81284.0
-17.990	81278.0
-17.985	81278.0
-17.980	81271.0
-17.975	81263.0
-17.970	81270.0
-17.965	81265.0
-17.960	81266.0
-17.955	81284.0
-17.950	81300.0
-17.945	81315.0
-17.940	81296.0
-17.935	81299.0
-17.930	81322.0
-17.925	81337.0
-17.920	81342.0
-17.915	81361.0
-17.910	81358.0
-17.905	81372.9
-17.900	81381.9
-17.895	81384.9
-17.890	81386.9
-17.885	81396.9
-17.880	81407.9
-17.875	81385.9
-17.870	81382.9
-17.865	81397.9
-17.860	81435.9
-17.855	81424.9
-17.850	81424.9
-17.845	81435.9
-17.840	81438.9
-17.835	81453.9
-17.830	81441.9
-17.825	81450.9
-17.820	81444.9
-17.815	81461.9
-17.810	81449.9
-17.805	81445.9
-17.800	81437.9
-17.795	81467.9
-17.790	81462.9
-17.785	81472.9
-17.780	81468.9
-17.775	81468.9
-17.770	81461.9
-17.765	81463.9
-17.760	81465.9
-17.755	81471.9
-17.750	81470.9
-17.745	81466.9
-17.740	81452.9
-17.735	81461.9
-17.730	81476.8
-17.725	81491.8
-17.720	81478.8
-17.715	81470.9
-17.710	81472.9
-17.705	81473.8
-17.700	81475.8
-17.695	81490.8
-17.690	81489.8
-17.685	81512.8
-17.680	81529.8
-17.675	81505.8
-17.670	81492.8
-17.665	81503.8
-17.660	81535.8
-17.655	81542.8
-17.650	81539.8
-17.645	81543.8
-17.640	81550.8
-17.635	81560.8
-17.630	81556.8
-17.625	81559.8
-17.620	81551.8
-17.615	81559.8
-17.610	81532.8
-17.605	81526.8
-17.600	81533.8
-17.595	81568.8
-17.590	81563.8
-17.585	81575.8
-17.580	81577.8
-17.575	81571.8
-17.570	81559.8
-17.565	81573.8
-17.560	81558.8
-17.555	81562.8
-17.550	81566.8
-17.545	81577.7
-17.540	81546.8
-17.535	81542.8
-17.530	81553.8
-17.525	81550.8
-17.520	81545.8
-17.515	81544.8
-17.510	81552.8
-17.505	81551.8
-17.500	81531.8
-17.495	81525.8
-17.490	81528.8
-17.485	81540.8
-17.480	81543.8
-17.475	81522.8
-17.470	81495.8
-17.465	81522.8
-17.460	81540.8
-17.455	81553.8
-17.450	81532.8
-17.445	81540.8
-17.440	81544.8
-17.435	81542.8
-17.430	81544.8
-17.425	81560.7
-17.420	81556.7
-17.415	81550.8
-17.410	81546.8
-17.405	81537.8
-17.400	81537.8
-17.395	81577.7
-17.390	81574.7
-17.385	81570.7
-17.380	81586.7
-17.375	81603.7
-17.370	81599.7
-17.365	81601.7
-17.360	81608.7
-17.355	81602.7
-17.350	81604.7
-17.345	81587.7
-17.340	81577.7
-17.335	81582.7
-17.330	81616.7
-17.325	81612.7
-17.320	81598.7
-17.315	81598.7
-17.310	81601.7
-17.305	81604.7
-17.300	81614.7
-17.295	81615.7
-17.290	81608.7
-17.285	81630.7
-17.280	81633.7
-17.275	81612.7
-17.270	81606.7
-17.265	81639.7
-17.260	81651.7
-17.255	81660.7
-17.250	81664.7
-17.245	81665.7
-17.240	81668.6
-17.235	81664.7
-17.230	81674.6
-17.225	81680.6
-17.220	81675.6
-17.215	81676.6
-17.210	81659.7
-17.205	81661.7
-17.200	81655.7
-17.195	81695.6
-17.190	81690.6
-17.185	81704.6
-17.180	81703.6
-17.175	81700.6
-17.170	81690.6
-17.165	81694.6
-17.160	81684.6
-17.155	81697.6
-17.150	81697.6
-17.145	81688.6
-17.140	81679.6
-17.135	81672.6
-17.130	81701.6
-17.125	81717.6
-17.120	81709.6
-17.115	81725.6
-17.110	81703.6
-17.105	81697.6
-17.100	81675.6
-17.095	81676.6
-17.090	81666.6
-17.085	81667.6
-17.080	81656.6
-17.075	81634.7
-17.070	81620.7
-17.065	81642.6
-17.060	81654.6
-17.055	81657.6
-17.050	81666.6
-17.045	81665.6
-17.040	81662.6
-17.035	81654.6
-17.030	81654.6
-17.025	81659.6
-17.020	81677.6
-17.015	81689.6
-17.010	81669.6
-17.005	81664.6
-17.000	81666.6
-16.995	81708.6
-16.990	81698.6
-16.985	81708.6
-16.980	81709.6
-16.975	81703.6
-16.970	81690.6
-16.965	81691.6
-16.960	81701.6
-16.955	81704.6
-16.950	81724.6
-16.945	81699.6
-16.940	81690.6
-16.935	81692.6
-16.930	81722.6
-16.925	81726.6
-16.920	81711.6
-16.915	81715.6
-16.910	81702.6
-16.905	81711.6
-16.900	81702.6
-16.895	81716.6
-16.890	81716.6
-16.885	81722.6
-16.880	81715.6
-16.875	81697.6
-16.870	81671.6
-16.865	81694.6
-16.860	81717.6
-16.855	81717.6
-16.850	81709.6
-16.845	81711.6
-16.840	81706.6
-16.835	81704.6
-16.830	81699.6
-16.825	81704.6
-16.820	81697.6
-16.815	81703.6
-16.810	81680.6
-16.805	81669.6
-16.800	81664.6
-16.795	81696.6
-16.790	81685.6
-16.785	81696.6
-16.780	81683.6
-16.775	81677.6
-16.770	81662.6
-16.765	81660.6
-16.760	81650.6
-16.755	81656.6
-16.750	81657.6
-16.745	81641.6
-16.740	81607.7
-16.735	81594.7
-16.730	81620.6
-16.725	81620.6
-16.720	81612.6
-16.715	81623.6
-16.710	81612.6
-16.705	81623.6
-16.700	81618.6
-16.695	81619.6
-16.690	81606.6
-16.685	81609.6
-16.680	81607.6
-16.675	81584.7
-16.670	81569.7
-16.665	81589.7
-16.660	81611.6
-16.655	81614.6
-16.650	81611.6
-16.645	81607.6
-16.640	81604.6
-16.635	81602.6
-16.630	81587.7
-16.625	81601.6
-16.620	81605.6
-16.615	81604.6
-16.610	81582.7
-16.605	81577.7
-16.600	81581.7
-16.595	81611.6
-16.590	81621.6
-16.585	81620.6
-16.580	81633.6
-16.575	81625.6
-16.570	81603.6
-16.565	81604.6
-16.560	81597.6
-16.555	81592.6
-16.550	81591.6
-16.545	81575.7
-16.540	81549.7
-16.535	81560.7
-16.530	81585.6
-16.525	81588.6
-16.520	81582.6
-16.515	81584.6
-16.510	81572.7
-16.505	81564.7
-16.500	81552.7
-16.495	81558.7
-16.490	81559.7
-16.485	81577.6
-16.480	81578.6
-16.475	81563.7
-16.470	81546.7
-16.465	81564.7
-16.460	81571.6
-16.455	81577.6
-16.450	81568.6
-16.445	81571.6
-16.440	81577.6
-16.435	81571.7
-16.430	81562.7
-16.425	81571.6
-16.420	81552.7
-16.415	81558.7
-16.410	81538.7
-16.405	81517.7
-16.400	81533.7
-16.395	81565.6
-16.390	81572.6
-16.385	81577.6
-16.380	81574.6
-16.375	81583.6
-16.370	81587.6
-16.365	81597.6
-16.360	81597.6
-16.355	81601.6
-16.350	81600.6
-16.345	81596.6
-16.340	81575.6
-16.335	81575.6
-16.330	81622.6
-16.325	81631.6
-16.320	81622.6
-16.315	81623.6
-16.310	81621.6
-16.305	81628.6
-16.300	81621.6
-16.295	81631.6
-16.290	81628.6
-16.285	81633.6
-16.280	81625.6
-16.275	81599.6
-16.270	81596.6
-16.265	81625.6
-16.260	81643.6
-16.255	81642.6
-16.250	81643.6
-16.245	81650.6
-16.240	81650.6
-16.235	81657.6
-16.230	81654.6
-16.225	81656.6
-16.220	81660.6
-16.215	81655.6
-16.210	81644.6
-16.205	81630.6
-16.200	81624.6
-16.195	81655.6
-16.190	81652.6
-16.185	81653.6
-16.180	81650.6
-16.175	81656.6
-16.170	81656.6
-16.165	81657.6
-16.160	81647.6
-16.155	81653.6
-16.150	81645.6
-16.145	81633.6
-16.140	81598.6
-16.135	81597.6
-16.130	81615.6
-16.125	81613.6
-16.120	81610.6
-16.115	81610.6
-16.110	81609.6
-16.105	81607.6
-16.100	81594.6
-16.095	81600.6
-16.090	81593.6
-16.085	81605.6
-16.080	81589.6
-16.075	81568.6
-16.070	81537.6
-16.065	81563.6
-16.060	81563.6
-16.055	81557.6
-16.050	81553.6
-16.045	81546.6
-16.040	81541.6
-16.035	81524.7
-16.030	81518.7
-16.025	81521.7
-16.020	81507.7
-16.015	81498.7
-16.010	81468.7
-16.005	81445.7
-16.000	81447.7
-15.995	81472.7
-15.990	81466.7
-15.985	81473.7
-15.980	81480.7
-15.975	81473.7
-15.970	81468.7
-15.965	81472.7
-15.960	81470.7
-15.955	81480.7
-15.950	81484.7
-15.945	81479.7
-15.940	81468.7
-15.935	81456.7
-15.930	81491.7
-15.925	81496.7
-15.920	81494.7
-15.915	81494.7
-15.910	81494.7
-15.905	81503.7
-15.900	81490.7
-15.895	81500.7
-15.890	81498.7
-15.885	81514.7
-15.880	81516.7
-15.875	81498.7
-15.870	81493.7
-15.865	81525.6
-15.860	81526.6
-15.855	81526.6
-15.850	81539.6
-15.845	81548.6
-15.840	81550.6
-15.835	81557.6
-15.830	81553.6
-15.825	81570.6
-15.820	81577.6
-15.815	81586.6
-15.810	81563.6
-15.805	81570.6
-15.800	81580.6
-15.795	81618.6
-15.790	81613.6
-15.785	81617.6
-15.780	81618.6
-15.775	81620.6
-15.770	81626.6
-15.765	81632.6
-15.760	81643.5
-15.755	81648.5
-15.750	81653.5
-15.745	81635.6
-15.740	81624.6
-15.735	81637.5
-15.730	81668.5
-15.725	81677.5
-15.720	81671.5
-15.715	81684.5
-15.710	81667.5
-15.705	81672.5
-15.700	81679.5
-15.695	81674.5
-15.690	81665.5
-15.685	81671.5
-15.680	81653.5
-15.675	81622.6
-15.670	81586.6
-15.665	81606.6
-15.660	81585.6
-15.655	81560.6
-15.650	81512.6
-15.645	81466.7
-15.640	81400.7
-15.635	81350.7
-15.630	81277.8
-15.625	81223.8
-15.620	81151.9
-15.615	81088.9
-15.610	80999.0
-15.605	80917.1
-15.600	80831.1
-15.595	80758.2
-15.590	80637.3
-15.585	80510.4
-15.580	80398.5
-15.575	80284.5
-15.570	80131.7
-15.565	79957.8
-15.560	79809.9
-15.555	79712.0
-15.550	79654.0
-15.545	79656.0
-15.540	79721.0
-15.535	79866.9
-15.530	80002.8
-15.525	80050.7
-15.520	80092.7
-15.515	80172.6
-15.510	80249.6
-15.505	80335.5
-15.500	80468.4
-15.495	80650.3
-15.490	80800.2
-15.485	80920.1
-15.480	81016.0
-15.475	81085.0
-15.470	81146.9
-15.465	81251.8
-15.460	81301.8
-15.455	81355.7
-15.450	81392.7
-15.445	81433.7
-15.440	81478.7
-15.435	81509.6
-15.430	81530.6
-15.425	81561.6
-15.420	81578.6
-15.415	81612.5
-15.410	81585.6
-15.405	81568.6
-15.400	81589.6
-15.395	81621.5
-15.390	81614.5
-15.385	81622.5
-15.380	81620.5
-15.375	81615.5
-15.370	81620.5
-15.365	81621.5
-15.360	81628.5
-15.355	81642.5
-15.350	81641.5
-15.345	81608.5
-15.340	81603.5
-15.335	81615.5
-15.330	81632.5
-15.325	81644.5
-15.320	81637.5
-15.315	81637.5
-15.310	81626.5
-15.305	81635.5
-15.300	81633.5
-15.295	81641.5
-15.290	81643.5
-15.285	81659.5
-15.280	81653.5
-15.275	81636.5
-15.270	81638.5
-15.265	81674.5
-15.260	81669.5
-15.255	81671.5
-15.250	81663.5
-15.245	81659.5
-15.240	81658.5
-15.235	81666.5
-15.230	81653.5
-15.225	81656.5
-15.220	81650.5
-15.215	81655.5
-15.210	81625.5
-15.205	81623.5
-15.200	81641.5
-15.195	81653.5
-15.190	81656.5
-15.185	81642.5
-15.180	81632.5
-15.175	81626.5
-15.170	81611.5
-15.165	81612.5
-15.160	81601.5
-15.155	81598.5
-15.150	81599.5
-15.145	81580.6
-15.140	81549.6
-15.135	81571.6
-15.130	81585.5
-15.125	81586.5
-15.120	81575.6
-15.115	81563.6
-15.110	81542.6
-15.105	81527.6
-15.100	81514.6
-15.095	81495.6
-15.090	81469.6
-15.085	81464.6
-15.080	81438.7
-15.075	81404.7
-15.070	81411.7
-15.065	81427.7
-15.060	81405.7
-15.055	81394.7
-15.050	81364.7
-15.045	81343.7
-15.040	81331.7
-15.035	81325.7
-15.030	81318.7
-15.025	81317.7
-15.020	81323.7
-15.015	81314.7
-15.010	81300.8
-15.005	81295.8
-15.000	81303.7
-14.995	81324.7
-14.990	81326.7
-14.985	81321.7
-14.980	81330.7
-14.975	81327.7
-14.970	81326.7
-14.965	81320.7
-14.960	81310.7
-14.955	81315.7
-14.950	81301.7
-14.945	81287.8
-14.940	81284.8
-14.935	81291.8
-14.930	81324.7
-14.925	81329.7
-14.920	81315.7
-14.915	81322.7
-14.910	81325.7
-14.905	81337.7
-14.900	81349.7
-14.895	81359.7
-14.890	81383.7
-14.885	81406.7
-14.880	81402.7
-14.875	81398.7
-14.870	81395.7
-14.865	81436.6
-14.860	81456.6
-14.855	81480.6
-14.850	81479.6
-14.845	81501.6
-14.840	81491.6
-14.835	81495.6
-14.830	81498.6
-14.825	81520.6
-14.820	81515.6
-14.815	81523.6
-14.810	81515.6
-14.805	81515.6
-14.800	81537.6
-14.795	81569.5
-14.790	81566.5
-14.785	81572.5
-14.780	81569.5
-14.775	81581.5
-14.770	81588.5
-14.765	81582.5
-14.760	81602.5
-14.755	81614.5
-14.750	81621.5
-14.745	81605.5
-14.740	81597.5
-14.735	81616.5
-14.730	81640.5
-14.725	81646.5
-14.720	81643.5
-14.715	81647.5
-14.710	81632.5
-14.705	81636.5
-14.700	81640.5
-14.695	81643.5
-14.690	81627.5
-14.685	81635.5
-14.680	81621.5
-14.675	81597.5
-14.670	81608.5
-14.665	81633.5
-14.660	81632.5
-14.655	81634.5
-14.650	81630.5
-14.645	81632.5
-14.640	81606.5
-14.635	81619.5
-14.630	81616.5
-14.625	81619.5
-14.620	81617.5
-14.615	81623.5
-14.610	81597.5
-14.605	81586.5
-14.600	81625.5
-14.595	81634.5
-14.590	81629.5
-14.585	81623.5
-14.580	81611.5
-14.575	81605.5
-14.570	81613.5
-14.565	81615.5
-14.560	81616.5
-14.555	81623.5
-14.550	81629.5
-14.545	81585.5
-14.540	81566.5
-14.535	81592.5
-14.530	81618.5
-14.525	81613.5
-14.520	81619.5
-14.515	81621.5
-14.510	81622.5
-14.505	81622.5
-14.500	81621.5
-14.495	81625.5
-14.490	81633.5
-14.485	81644.5
-14.480	81634.5
-14.475	81612.5
-14.470	81609.5
-14.465	81648.5
-14.460	81657.5
-14.455	81663.5
-14.450	81667.4
-14.445	81670.4
-14.440	81676.4
-14.435	81675.4
-14.430	81678.4
-14.425	81681.4
-14.420	81671.4
-14.415	81671.4
-14.410	81645.5
-14.405	81641.5
-14.400	81677.4
-14.395	81689.4
-14.390	81687.4
-14.385	81706.4
-14.380	81691.4
-14.375	81694.4
-14.370	81685.4
-14.365	81706.4
-14.360	81709.4
-14.355	81706.4
-14.350	81724.4
-14.345	81702.4
-14.340	81682.4
-14.335	81704.4
-14.330	81742.4
-14.325	81743.4
-14.320	81752.4
-14.315	81758.4
-14.310	81747.4
-14.305	81745.4
-14.300	81750.4
-14.295	81759.4
-14.290	81749.4
-14.285	81762.4
-14.280	81740.4
-14.275	81723.4
-14.270	81722.4
-14.265	81754.4
-14.260	81752.4
-14.255	81758.4
-14.250	81755.4
-14.245	81755.4
-14.240	81752.4
-14.235	81755.4
-14.230	81764.4
-14.225	81764.4
-14.220	81761.4
-14.215	81770.4
-14.210	81754.4
-14.205	81744.4
-14.200	81775.4
-14.195	81784.3
-14.190	81776.4
-14.185	81782.3
-14.180	81776.4
-14.175	81766.4
-14.170	81769.4
-14.165	81767.4
-14.160	81767.4
-14.155	81777.3
-14.150	81776.4
-14.145	81749.4
-14.140	81731.4
-14.135	81754.4
-14.130	81763.4
-14.125	81771.4
-14.120	81762.4
-14.115	81756.4
-14.110	81744.4
-14.105	81751.4
-14.100	81755.4
-14.095	81767.4
-14.090	81771.4
-14.085	81784.3
-14.080	81752.4
-14.075	81742.4
-14.070	81753.4
-14.065	81792.3
-14.060	81785.3
-14.055	81792.3
-14.050	81784.3
-14.045	81772.3
-14.040	81775.3
-14.035	81777.3
-14.030	81774.3
-14.025	81775.3
-14.020	81781.3
-14.015	81777.3
-14.010	81744.4
-14.005	81744.4
-14.000	81777.3
-13.995	81793.3
-13.990	81793.3
-13.985	81786.3
-13.980	81784.3
-13.975	81782.3
-13.970	81778.3
-13.965	81785.3
-13.960	81780.3
-13.955	81786.3
-13.950	81792.3
-13.945	81776.3
-13.940	81766.3
-13.935	81782.3
-13.930	81810.3
-13.925	81811.3
-13.920	81811.3
-13.915	81818.3
-13.910	81808.3
-13.905	81797.3
-13.900	81792.3
-13.895	81793.3
-13.890	81795.3
-13.885	81802.3
-13.880	81784.3
-13.875	81769.3
-13.870	81773.3
-13.865	81799.3
-13.860	81809.3
-13.855	81803.3
-13.850	81800.3
-13.845	81808.3
-13.840	81796.3
-13.835	81791.3
-13.830	81792.3
-13.825	81806.3
-13.820	81808.3
-13.815	81802.3
-13.810	81775.3
-13.805	81771.3
-13.800	81792.3
-13.795	81801.3
-13.790	81802.3
-13.785	81796.3
-13.780	81797.3
-13.775	81796.3
-13.770	81783.3
-13.765	81791.3
-13.760	81803.3
-13.755	81801.3
-13.750	81797.3
-13.745	81780.3
-13.740	81770.3
-13.735	81796.3
-13.730	81813.3
-13.725	81821.3
-13.720	81803.3
-13.715	81802.3
-13.710	81801.3
-13.705	81804.3
-13.700	81806.3
-13.695	81818.3
-13.690	81819.3
-13.685	81835.3
-13.680	81814.3
-13.675	81809.3
-13.670	81810.3
-13.665	81842.3
-13.660	81846.3
-13.655	81846.3
-13.650	81838.3
-13.645	81841.3
-13.640	81844.3
-13.635	81829.3
-13.630	81834.3
-13.625	81852.3
-13.620	81848.3
-13.615	81838.3
-13.610	81815.3
-13.605	81811.3
-13.600	81852.3
-13.595	81856.3
-13.590	81839.3
-13.585	81845.3
-13.580	81856.3
-13.575	81853.3
-13.570	81850.3
-13.565	81853.3
-13.560	81855.3
-13.555	81865.3
-13.550	81866.3
-13.545	81844.3
-13.540	81824.3
-13.535	81848.3
-13.530	81857.3
-13.525	81862.3
-13.520	81862.3
-13.515	81853.3
-13.510	81847.3
-13.505	81849.3
-13.500	81834.3
-13.495	81834.3
-13.490	81835.3
-13.485	81836.3
-13.480	81810.3
-13.475	81792.3
-13.470	81798.3
-13.465	81832.3
-13.460	81813.3
-13.455	81823.3
-13.450	81807.3
-13.445	81812.3
-13.440	81803.3
-13.435	81807.3
-13.430	81798.3
-13.425	81793.3
-13.420	81783.3
-13.415	81781.3
-13.410	81759.3
-13.405	81749.3
-13.400	81773.3
-13.395	81781.3
-13.390	81780.3
-13.385	81780.3
-13.380	81746.3
-13.375	81738.3
-13.370	81732.3
-13.365	81731.3
-13.360	81719.4
-13.355	81724.4
-13.350	81699.4
-13.345	81669.4
-13.340	81663.4
-13.335	81675.4
-13.330	81685.4
-13.325	81678.4
-13.320	81669.4
-13.315	81663.4
-13.310	81653.4
-13.305	81664.4
-13.300	81657.4
-13.295	81661.4
-13.290	81677.4
-13.285	81678.4
-13.280	81663.4
-13.275	81647.4
-13.270	81649.4
-13.265	81681.4
-13.260	81681.4
-13.255	81685.4
-13.250	81671.4
-13.245	81685.4
-13.240	81681.4
-13.235	81681.4
-13.230	81673.4
-13.225	81677.4
-13.220	81675.4
-13.215	81665.4
-13.210	81656.4
-13.205	81669.4
-13.200	81698.4
-13.195	81706.4
-13.190	81695.4
-13.185	81699.4
-13.180	81690.4
-13.175	81700.4
-13.170	81708.4
-13.165	81709.4
-13.160	81712.4
-13.155	81720.3
-13.150	81724.3
-13.145	81697.4
-13.140	81680.4
-13.135	81715.3
-13.130	81720.3
-13.125	81724.3
-13.120	81730.3
-13.115	81734.3
-13.110	81734.3
-13.105	81732.3
-13.100	81730.3
-13.095	81739.3
-13.090	81737.3
-13.085	81740.3
-13.080	81722.3
-13.075	81713.3
-13.070	81724.3
-13.065	81745.3
-13.060	81752.3
-13.055	81748.3
-13.050	81760.3
-13.045	81768.3
-13.040	81771.3
-13.035	81765.3
-13.030	81759.3
-13.025	81768.3
-13.020	81775.3
-13.015	81772.3
-13.010	81750.3
-13.005	81753.3
-13.000	81781.3
-12.995	81781.3
-12.990	81777.3
-12.985	81772.3
-12.980	81774.3
-12.975	81768.3
-12.970	81756.3
-12.965	81762.3
-12.960	81762.3
-12.955	81770.3
-12.950	81759.3
-12.945	81741.3
-12.940	81721.3
-12.935	81746.3
-12.930	81755.3
-12.925	81751.3
-12.920	81745.3
-12.915	81748.3
-12.910	81744.3
-12.905	81746.3
-12.900	81735.3
-12.895	81740.3
-12.890	81747.3
-12.885	81758.3
-12.880	81736.3
-12.875	81717.3
-12.870	81720.3
-12.865	81741.3
-12.860	81746.3
-12.855	81756.3
-12.850	81756.3
-12.845	81747.3
-12.840	81742.3
-12.835	81738.3
-12.830	81740.3
-12.825	81750.3
-12.820	81743.3
-12.815	81727.3
-12.810	81707.3
-12.805	81708.3
-12.800	81747.3
-12.795	81742.3
-12.790	81746.3
-12.785	81740.3
-12.780	81734.3
-12.775	81734.3
-12.770	81736.3
-12.765	81733.3
-12.760	81740.3
-12.755	81749.3
-12.750	81759.3
-12.745	81745.3
-12.740	81731.3
-12.735	81760.3
-12.730	81754.3
-12.725	81776.3
-12.720	81778.3
-12.715	81781.3
-12.710	81787.3
-12.705	81780.3
-12.700	81767.3
-12.695	81783.3
-12.690	81778.3
-12.685	81790.3
-12.680	81756.3
-12.675	81749.3
-12.670	81761.3
-12.665	81791.3
-12.660	81794.3
-12.655	81801.3
-12.650	81795.3
-12.645	81799.3
-12.640	81782.3
-12.635	81786.3
-12.630	81783.3
-12.625	81792.3
-12.620	81798.3
-12.615	81788.3
-12.610	81768.3
-12.605	81767.3
-12.600	81799.3
-12.595	81796.3
-12.590	81810.3
-12.585	81806.3
-12.580	81813.3
-12.575	81814.3
-12.570	81803.3
-12.565	81806.3
-12.560	81819.2
-12.555	81822.2
-12.550	81820.2
-12.545	81794.3
-12.540	81783.3
-12.535	81815.2
-12.530	81824.2
-12.525	81826.2
-12.520	81817.2
-12.515	81824.2
-12.510	81815.3
-12.505	81813.3
-12.500	81802.3
-12.495	81825.2
-12.490	81826.2
-12.485	81833.2
-12.480	81819.2
-12.475	81807.3
-12.470	81816.2
-12.465	81833.2
-12.460	81832.2
-12.455	81841.2
-12.450	81834.2
-12.445	81836.2
-12.440	81823.2
-12.435	81837.2
-12.430	81831.2
-12.425	81841.2
-12.420	81844.2
-12.415	81832.2
-12.410	81805.2
-12.405	81808.3
-12.400	81835.2
-12.395	81839.2
-12.390	81826.2
-12.385	81831.2
-12.380	81835.2
-12.375	81821.2
-12.370	81822.2
-12.365	81824.2
-12.360	81828.2
-12.355	81844.2
-12.350	81833.2
-12.345	81815.2
-12.340	81802.3
-12.335	81834.2
-12.330	81846.2
-12.325	81857.2
-12.320	81862.2
-12.315	81848.2
-12.310	81841.2
-12.305	81843.2
-12.300	81845.2
-12.295	81847.2
-12.290	81842.2
-12.285	81844.2
-12.280	81813.2
-12.275	81811.2
-12.270	81828.2
-12.265	81851.2
-12.260	81849.2
-12.255	81854.2
-12.250	81844.2
-12.245	81845.2
-12.240	81846.2
-12.235	81844.2
-12.230	81844.2
-12.225	81862.2
-12.220	81865.2
-12.215	81856.2
-12.210	81833.2
-12.205	81842.2
-12.200	81872.2
-12.195	81882.2
-12.190	81876.2
-12.185	81884.2
-12.180	81877.2
-12.175	81882.2
-12.170	81872.2
-12.165	81885.2
-12.160	81877.2
-12.155	81885.2
-12.150	81872.2
-12.145	81854.2
-12.140	81852.2
-12.135	81882.2
-12.130	81893.2
-12.125	81895.2
-12.120	81886.2
-12.115	81883.2
-12.110	81888.2
-12.105	81880.2
-12.100	81885.2
-12.095	81895.2
-12.090	81912.2
-12.085	81923.2
-12.080	81899.2
-12.075	81876.2
-12.070	81901.2
-12.065	81918.2
-12.060	81922.1
-12.055	81926.1
-12.050	81923.1
-12.045	81923.1
-12.040	81927.1
-12.035	81927.1
-12.030	81931.1
-12.025	81926.1
-12.020	81932.1
-12.015	81913.2
-12.010	81898.2
-12.005	81906.2
-12.000	81941.1
-11.995	81945.1
-11.990	81940.1
-11.985	81941.1
-11.980	81942.1
-11.975	81937.1
-11.970	81940.1
-11.965	81949.1
-11.960	81948.1
-11.955	81953.1
-11.950	81954.1
-11.945	81936.1
-11.940	81928.1
-11.935	81966.1
-11.930	81965.1
-11.925	81972.1
-11.920	81960.1
-11.915	81965.1
-11.910	81963.1
-11.905	81963.1
-11.900	81957.1
-11.895	81959.1
-11.890	81953.1
-11.885	81946.1
-11.880	81929.1
-11.875	81915.1
-11.870	81942.1
-11.865	81956.1
-11.860	81948.1
-11.855	81942.1
-11.850	81943.1
-11.845	81932.1
-11.840	81940.1
-11.835	81946.1
-11.830	81944.1
-11.825	81957.1
-11.820	81957.1
-11.815	81946.1
-11.810	81931.1
-11.805	81926.1
-11.800	81961.1
-11.795	81971.1
-11.790	81973.1
-11.785	81971.1
-11.780	81984.1
-11.775	81974.1
-11.770	81972.1
-11.765	81973.1
-11.760	81973.1
-11.755	81975.1
-11.750	81962.1
-11.745	81942.1
-11.740	81939.1
-11.735	81975.1
-11.730	81972.1
-11.725	81975.1
-11.720	81968.1
-11.715	81974.1
-11.710	81959.1
-11.705	81965.1
-11.700	81966.1
-11.695	81972.1
-11.690	81972.1
-11.685	81985.1
-11.680	81953.1
-11.675	81944.1
-11.670	81955.1
-11.665	81971.1
-11.660	81971.1
-11.655	81973.1
-11.650	81966.1
-11.645	81962.1
-11.640	81950.1
-11.635	81959.1
-11.630	81945.1
-11.625	81958.1
-11.620	81960.1
-11.615	81921.1
-11.610	81904.1
-11.605	81920.1
-11.600	81940.1
-11.595	81939.1
-11.590	81932.1
-11.585	81937.1
-11.580	81930.1
-11.575	81925.1
-11.570	81919.1
-11.565	81927.1
-11.560	81930.1
-11.555	81945.1
-11.550	81933.1
-11.545	81911.1
-11.540	81898.1
-11.535	81934.1
-11.530	81919.1
-11.525	81932.1
-11.520	81928.1
-11.515	81923.1
-11.510	81924.1
-11.505	81928.1
-11.500	81922.1
-11.495	81934.1
-11.490	81922.1
-11.485	81929.1
-11.480	81896.1
-11.475	81887.2
-11.470	81908.1
-11.465	81932.1
-11.460	81922.1
-11.455	81926.1
-11.450	81915.1
-11.445	81909.1
-11.440	81899.1
-11.435	81905.1
-11.430	81896.1
-11.425	81915.1
-11.420	81915.1
-11.415	81895.1
-11.410	81866.2
-11.405	81876.2
-11.400	81895.1
-11.395	81910.1
-11.390	81913.1
-11.385	81917.1
-11.380	81911.1
-11.375	81899.1
-11.370	81889.2
-11.365	81901.1
-11.360	81894.1
-11.355	81902.1
-11.350	81878.2
-11.345	81873.2
-11.340	81859.2
-11.335	81899.1
-11.330	81900.1
-11.325	81895.1
-11.320	81897.1
-11.315	81890.1
-11.310	81895.1
-11.305	81895.1
-11.300	81890.2
-11.295	81897.1
-11.290	81899.1
-11.285	81905.1
-11.280	81888.1
-11.275	81880.2
-11.270	81890.1
-11.265	81908.1
-11.260	81913.1
-11.255	81921.1
-11.250	81909.1
-11.245	81914.1
-11.240	81901.1
-11.235	81896.1
-11.230	81893.1
-11.225	81898.1
-11.220	81892.1
-11.215	81880.2
-11.210	81868.2
-11.205	81879.2
-11.200	81905.1
-11.195	81904.1
-11.190	81892.1
-11.185	81895.1
-11.180	81888.1
-11.175	81895.1
-11.170	81886.1
-11.165	81890.1
-11.160	81899.1
-11.155	81899.1
-11.150	81891.1
-11.145	81870.2
-11.140	81854.2
-11.135	81899.1
-11.130	81905.1
-11.125	81908.1
-11.120	81911.1
-11.115	81903.1
-11.110	81901.1
-11.105	81894.1
-11.100	81901.1
-11.095	81902.1
-11.090	81896.1
-11.085	81893.1
-11.080	81871.2
-11.075	81863.2
-11.070	81886.1
-11.065	81899.1
-11.060	81896.1
-11.055	81894.1
-11.050	81889.1
-11.045	81897.1
-11.040	81888.1
-11.035	81900.1
-11.030	81893.1
-11.025	81901.1
-11.020	81905.1
-11.015	81897.1
-11.010	81871.2
-11.005	81876.1
-11.000	81900.1
-10.995	81911.1
-10.990	81904.1
-10.985	81907.1
-10.980	81902.1
-10.975	81903.1
-10.970	81885.1
-10.965	81896.1
-10.960	81892.1
-10.955	81911.1
-10.950	81874.2
-10.945	81869.2
-10.940	81873.2
-10.935	81904.1
-10.930	81899.1
-10.925	81902.1
-10.920	81895.1
-10.915	81905.1
-10.910	81897.1
-10.905	81887.1
-10.900	81894.1
-10.895	81901.1
-10.890	81911.1
-10.885	81909.1
-10.880	81884.1
-10.875	81871.2
-10.870	81902.1
-10.865	81905.1
-10.860	81909.1
-10.855	81916.1
-10.850	81919.1
-10.845	81920.1
-10.840	81913.1
-10.835	81915.1
-10.830	81923.1
-10.825	81924.1
-10.820	81918.1
-10.815	81898.1
-10.810	81883.1
-10.805	81906.1
-10.800	81932.1
-10.795	81933.1
-10.790	81933.1
-10.785	81939.1
-10.780	81932.1
-10.775	81928.1
-10.770	81931.1
-10.765	81938.1
-10.760	81935.1
-10.755	81955.1
-10.750	81934.1
-10.745	81919.1
-10.740	81922.1
-10.735	81954.1
-10.730	81952.1
-10.725	81963.1
-10.720	81957.1
-10.715	81956.1
-10.710	81953.1
-10.705	81956.1
-10.700	81948.1
-10.695	81953.1
-10.690	81961.1
-10.685	81954.1
-10.680	81924.1
-10.675	81928.1
-10.670	81955.1
-10.665	81970.1
-10.660	81966.1
-10.655	81969.1
-10.650	81970.1
-10.645	81965.1
-10.640	81950.1
-10.635	81954.1
-10.630	81962.1
-10.625	81957.1
-10.620	81960.1
-10.615	81958.1
-10.610	81938.1
-10.605	81949.1
-10.600	81985.1
-10.595	81975.1
-10.590	81971.1
-10.585	81970.1
-10.580	81964.1
-10.575	81965.1
-10.570	81949.1
-10.565	81957.1
-10.560	81950.1
-10.555	81954.1
-10.550	81928.1
-10.545	81917.1
-10.540	81921.1
-10.535	81961.1
-10.530	81958.1
-10.525	81955.1
-10.520	81947.1
-10.515	81946.1
-10.510	81935.1
-10.505	81933.1
-10.500	81937.1
-10.495	81935.1
-10.490	81937.1
-10.485	81935.1
-10.480	81903.1
-10.475	81895.1
-10.470	81918.1
-10.465	81921.1
-10.460	81913.1
-10.455	81917.1
-10.450	81907.1
-10.445	81908.1
-10.440	81899.1
-10.435	81909.1
-10.430	81911.1
-10.425	81919.1
-10.420	81907.1
-10.415	81880.1
-10.410	81859.1
-10.405	81875.1
-10.400	81896.1
-10.395	81895.1
-10.390	81889.1
-10.385	81889.1
-10.380	81893.1
-10.375	81902.1
-10.370	81899.1
-10.365	81900.1
-10.360	81905.1
-10.355	81915.1
-10.350	81902.1
-10.345	81878.1
-10.340	81880.1
-10.335	81922.1
-10.330	81908.1
-10.325	81914.1
-10.320	81912.1
-10.315	81917.1
-10.310	81910.1
-10.305	81918.1
-10.300	81911.1
-10.295	81904.1
-10.290	81902.1
-10.285	81895.1
-10.280	81867.1
-10.275	81874.1
-10.270	81897.1
-10.265	81899.1
-10.260	81895.1
-10.255	81903.1
-10.250	81895.1
-10.245	81900.1
-10.240	81892.1
-10.235	81898.1
-10.230	81894.1
-10.225	81906.1
-10.220	81908.1
-10.215	81900.1
-10.210	81883.1
-10.205	81916.1
-10.200	81922.1
-10.195	81929.1
-10.190	81931.1
-10.185	81932.1
-10.180	81927.1
-10.175	81921.1
-10.170	81924.1
-10.165	81929.1
-10.160	81928.1
-10.155	81937.1
-10.150	81898.1
-10.145	81898.1
-10.140	81898.1
-10.135	81925.1
-10.130	81922.1
-10.125	81921.1
-10.120	81933.1
-10.115	81923.1
-10.110	81914.1
-10.105	81924.1
-10.100	81917.1
-10.095	81911.1
-10.090	81912.1
-10.085	81914.1
-10.080	81891.1
-10.075	81899.1
-10.070	81922.1
-10.065	81936.1
-10.060	81935.1
-10.055	81931.1
-10.050	81929.1
-10.045	81936.1
-10.040	81930.1
-10.035	81926.1
-10.030	81940.1
-10.025	81935.1
-10.020	81926.1
-10.015	81906.1
-10.010	81900.1
-10.005	81911.1
-10.000	81921.1
-9.995	81935.1
-9.990	81927.1
-9.985	81927.1
-9.980	81917.1
-9.975	81916.1
-9.970	81915.1
-9.965	81926.1
-9.960	81926.1
-9.955	81937.1
-9.950	81910.1
-9.945	81898.1
-9.940	81906.1
-9.935	81938.1
-9.930	81942.1
-9.925	81950.1
-9.920	81952.1
-9.915	81950.1
-9.910	81942.1
-9.905	81925.1
-9.900	81928.1
-9.895	81933.1
-9.890	81935.1
-9.885	81924.1
-9.880	81887.1
-9.875	81892.1
-9.870	81927.1
-9.865	81934.1
-9.860	81921.1
-9.855	81924.1
-9.850	81916.1
-9.845	81923.1
-9.840	81919.1
-9.835	81920.1
-9.830	81929.1
-9.825	81932.1
-9.820	81925.1
-9.815	81904.1
-9.810	81884.1
-9.805	81913.1
-9.800	81920.1
-9.795	81933.1
-9.790	81922.1
-9.785	81925.1
-9.780	81916.1
-9.775	81921.1
-9.770	81907.1
-9.765	81910.1
-9.760	81914.1
-9.755	81915.1
-9.750	81884.1
-9.745	81872.1
-9.740	81890.1
-9.735	81923.1
-9.730	81915.1
-9.725	81906.1
-9.720	81908.1
-9.715	81914.1
-9.710	81902.1
-9.705	81899.1
-9.700	81899.1
-9.695	81913.1
-9.690	81916.1
-9.685	81909.1
-9.680	81883.1
-9.675	81886.1
-9.670	81915.1
-9.665	81923.1
-9.660	81926.1
-9.655	81926.1
-9.650	81916.1
-9.645	81920.1
-9.640	81913.1
-9.635	81918.1
-9.630	81913.1
-9.625	81915.1
-9.620	81906.1
-9.615	81874.1
-9.610	81876.1
-9.605	81902.1
-9.600	81913.1
-9.595	81915.1
-9.590	81921.1
-9.585	81911.1
-9.580	81896.1
-9.575	81912.1
-9.570	81903.1
-9.565	81913.1
-9.560	81913.1
-9.555	81924.1
-9.550	81895.1
-9.545	81891.1
-9.540	81882.1
-9.535	81917.1
-9.530	81917.1
-9.525	81919.1
-9.520	81915.1
-9.515	81914.1
-9.510	81910.0
-9.505	81921.0
-9.500	81916.0
-9.495	81906.9
-9.490	81896.8
-9.485	81854.7
-9.480	81808.5
-9.475	81788.3
-9.470	81790.0
-9.465	81774.7
-9.460	81719.4
-9.455	81674.1
-9.450	81594.7
-9.445	81514.3
-9.440	81404.9
-9.435	81335.5
-9.430	81306.1
-9.425	81301.6
-9.420	81304.2
-9.415	81295.8
-9.410	81297.6
-9.405	81353.4
-9.400	81392.6
-9.395	81417.9
-9.390	81416.4
-9.385	81410.8
-9.380	81482.1
-9.375	81612.3
-9.370	81720.5
-9.365	81754.7
-9.360	81757.8
-9.355	81819.9
-9.350	81786.1
-9.345	81760.2
-9.340	81769.3
-9.335	81817.3
-9.330	81750.4
-9.325	81674.6
-9.320	81639.7
-9.315	81661.7
-9.310	81669.7
-9.305	81690.8
-9.300	81681.8
-9.295	81686.9
-9.290	81701.9
-9.285	81697.0
-9.280	81679.0
-9.275	81684.0
-9.270	81708.1
-9.265	81716.1
-9.260	81731.1
-9.255	81739.1
-9.250	81755.2
-9.245	81742.2
-9.240	81749.2
-9.235	81756.3
-9.230	81726.3
-9.225	81721.3
-9.220	81718.4
-9.215	81726.4
-9.210	81726.4
-9.205	81766.4
-9.200	81778.4
-9.195	81787.4
-9.190	81781.5
-9.185	81788.5
-9.180	81789.5
-9.175	81787.5
-9.170	81778.5
-9.165	81782.5
-9.160	81785.6
-9.155	81801.6
-9.150	81780.6
-9.145	81756.6
-9.140	81772.6
-9.135	81801.6
-9.130	81785.7
-9.125	81773.7
-9.120	81769.7
-9.115	81773.7
-9.110	81678.8
-9.105	81655.8
-9.100	81683.8
-9.095	81476.0
-9.090	81403.1
-9.085	81538.0
-9.080	81677.9
-9.075	81728.8
-9.070	81716.9
-9.065	81583.0
-9.060	81245.3
-9.055	81178.3
-9.050	81439.1
-9.045	81687.9
-9.040	81764.9
-9.035	81772.9
-9.030	81786.9
-9.025	81815.9
-9.020	81812.9
-9.015	81780.9
-9.010	81789.9
-9.005	81759.9
-9.000	81629.1
-8.995	81704.0
-8.990	81781.9
-8.985	81815.9
-8.980	81839.9
-8.975	81850.9
-8.970	81844.9
-8.965	81840.9
-8.960	81836.0
-8.955	81829.0
-8.950	81818.0
-8.945	81811.0
-8.940	81824.0
-8.935	81825.0
-8.930	81802.0
-8.925	81642.2
-8.920	81370.5
-8.915	81491.3
-8.910	81738.1
-8.905	81801.1
-8.900	81806.1
-8.895	81810.1
-8.890	81837.0
-8.885	81830.1
-8.880	81806.1
-8.875	81806.1
-8.870	81823.1
-8.865	81818.1
-8.860	81834.1
-8.855	81856.1
-8.850	81844.1
-8.845	81840.1
-8.840	81841.1
-8.835	81844.1
-8.830	81846.1
-8.825	81862.1
-8.820	81843.1
-8.815	81822.1
-8.810	81810.1
-8.805	81837.1
-8.800	81833.1
-8.795	81833.1
-8.790	81841.1
-8.785	81848.1
-8.780	81845.1
-8.775	81838.2
-8.770	81835.2
-8.765	81828.2
-8.760	81839.2
-8.755	81845.2
-8.750	81808.2
-8.745	81811.2
-8.740	81840.2
-8.735	81879.2
-8.730	81880.2
-8.725	81890.2
-8.720	81885.2
-8.715	81868.2
-8.710	81853.2
-8.705	81870.2
-8.700	81876.2
-8.695	81885.2
-8.690	81895.2
-8.685	81868.2
-8.680	81851.2
-8.675	81863.2
-8.670	81893.2
-8.665	81908.2
-8.660	81890.2
-8.655	81892.2
-8.650	81877.2
-8.645	81892.2
-8.640	81893.2
-8.635	81900.2
-8.630	81889.2
-8.625	81907.2
-8.620	81904.2
-8.615	81888.2
-8.610	81881.2
-8.605	81914.2
-8.600	81902.2
-8.595	81893.2
-8.590	81866.3
-8.585	81864.3
-8.580	81850.3
-8.575	81843.3
-8.570	81808.3
-8.565	81706.4
-8.560	81542.5
-8.555	81475.6
-8.550	81542.5
-8.545	81689.4
-8.540	81831.3
-8.535	81915.3
-8.530	81912.3
-8.525	81907.3
-8.520	81914.3
-8.515	81931.3
-8.510	81932.3
-8.505	81953.2
-8.500	81964.2
-8.495	81977.2
-8.490	81968.2
-8.485	81957.3
-8.480	81936.3
-8.475	81949.3
-8.470	81976.2
-8.465	81975.2
-8.460	81968.3
-8.455	81968.3
-8.450	81950.3
-8.445	81936.3
-8.440	81923.3
-8.435	81928.3
-8.430	81912.3
-8.425	81922.3
-8.420	81900.3
-8.415	81888.3
-8.410	81879.3
-8.405	81917.3
-8.400	81918.3
-8.395	81929.3
-8.390	81939.3
-8.385	81952.3
-8.380	81960.3
-8.375	81978.3
-8.370	81977.3
-8.365	81996.3
-8.360	81999.3
-8.355	82009.3
-8.350	81979.3
-8.345	81978.3
-8.340	81996.3
-8.335	82007.3
-8.330	82008.3
-8.325	82008.3
-8.320	81995.3
-8.315	81996.3
-8.310	81985.3
-8.305	81986.3
-8.300	81989.3
-8.295	81994.3
-8.290	82005.3
-8.285	81985.3
-8.280	81968.3
-8.275	81971.3
-8.270	81994.3
-8.265	81992.3
-8.260	81970.3
-8.255	81980.3
-8.250	81969.3
-8.245	81963.3
-8.240	81969.3
-8.235	81980.3
-8.230	81993.3
-8.225	81987.3
-8.220	81979.3
-8.215	81954.4
-8.210	81955.4
-8.205	81974.3
-8.200	81975.3
-8.195	81993.3
-8.190	81987.3
-8.185	81987.3
-8.180	81978.4
-8.175	81983.4
-8.170	81978.4
-8.165	81977.4
-8.160	81976.4
-8.155	81977.4
-8.150	81949.4
-8.145	81943.4
-8.140	81952.4
-8.135	81969.4
-8.130	81973.4
-8.125	81974.4
-8.120	81968.4
-8.115	81973.4
-8.110	81983.4
-8.105	81985.4
-8.100	81978.4
-8.095	81995.4
-8.090	81986.4
-8.085	81964.4
-8.080	81947.4
-8.075	81949.4
-8.070	81975.4
-8.065	81978.4
-8.060	81975.4
-8.055	81974.4
-8.050	81969.4
-8.045	81965.4
-8.040	81956.4
-8.035	81959.4
-8.030	81966.4
-8.025	81973.4
-8.020	81947.4
-8.015	81943.4
-8.010	81940.4
-8.005	81972.4
-8.000	81969.4
-7.995	81960.4
-7.990	81950.4
-7.985	81947.4
-7.980	81936.4
-7.975	81937.4
-7.970	81940.4
-7.965	81944.4
-7.960	81944.4
-7.955	81948.4
-7.950	81921.5
-7.945	81909.5
-7.940	81928.5
-7.935	81952.4
-7.930	81948.4
-7.925	81960.4
-7.920	81962.4
-7.915	81960.4
-7.910	81961.4
-7.905	81964.4
-7.900	81957.4
-7.895	81964.4
-7.890	81968.4
-7.885	81943.5
-7.880	81926.5
-7.875	81951.5
-7.870	81970.4
-7.865	81973.4
-7.860	81958.5
-7.855	81964.4
-7.850	81959.5
-7.845	81962.4
-7.840	81961.5
-7.835	81965.5
-7.830	81963.5
-7.825	81984.4
-7.820	81966.5
-7.815	81953.5
-7.810	81936.5
-7.805	81971.5
-7.800	81971.5
-7.795	81967.5
-7.790	81973.5
-7.785	81978.5
-7.780	81975.5
-7.775	81971.5
-7.770	81971.5
-7.765	81961.5
-7.760	81956.5
-7.755	81960.5
-7.750	81940.5
-7.745	81934.5
-7.740	81956.5
-7.735	81972.5
-7.730	81968.5
-7.725	81968.5
-7.720	81968.5
-7.715	81963.5
-7.710	81961.5
-7.705	81962.5
-7.700	81960.5
-7.695	81978.5
-7.690	81985.5
-7.685	81966.5
-7.680	81946.5
-7.675	81966.5
-7.670	81987.5
-7.665	81987.5
-7.660	81981.5
-7.655	81984.5
-7.650	81977.5
-7.645	81987.5
-7.640	81976.5
-7.635	81971.5
-7.630	81974.5
-7.625	81978.5
-7.620	81952.5
-7.615	81937.5
-7.610	81937.5
-7.605	81972.5
-7.600	81966.5
-7.595	81971.5
-7.590	81968.5
-7.585	81958.5
-7.580	81959.5
-7.575	81962.5
-7.570	81958.5
-7.565	81957.5
-7.560	81970.5
-7.555	81968.5
-7.550	81948.5
-7.545	81928.5
-7.540	81958.5
-7.535	81962.5
-7.530	81967.5
-7.525	81962.5
-7.520	81971.5
-7.515	81963.5
-7.510	81961.5
-7.505	81962.5
-7.500	81954.5
-7.495	81957.5
-7.490	81960.5
-7.485	81930.5
-7.480	81915.5
-7.475	81932.5
-7.470	81942.5
-7.465	81957.5
-7.460	81948.5
-7.455	81946.5
-7.450	81936.5
-7.445	81943.5
-7.440	81940.5
-7.435	81935.5
-7.430	81944.5
-7.425	81961.5
-7.420	81944.5
-7.415	81925.6
-7.410	81914.6
-7.405	81958.5
-7.400	81944.5
-7.395	81956.5
-7.390	81959.5
-7.385	81959.5
-7.380	81947.5
-7.375	81945.5
-7.370	81925.6
-7.365	81938.6
-7.360	81935.6
-7.355	81921.6
-7.350	81894.6
-7.345	81894.6
-7.340	81925.6
-7.335	81932.6
-7.330	81934.6
-7.325	81938.6
-7.320	81933.6
-7.315	81936.6
-7.310	81936.6
-7.305	81936.6
-7.300	81929.6
-7.295	81943.6
-7.290	81950.6
-7.285	81931.6
-7.280	81900.6
-7.275	81932.6
-7.270	81951.6
-7.265	81956.6
-7.260	81953.6
-7.255	81949.6
-7.250	81949.6
-7.245	81942.6
-7.240	81940.6
-7.235	81952.6
-7.230	81944.6
-7.225	81926.6
-7.220	81888.6
-7.215	81856.6
-7.210	81836.6
-7.205	81838.6
-7.200	81797.7
-7.195	81752.7
-7.190	81688.8
-7.185	81641.8
-7.180	81577.8
-7.175	81535.9
-7.170	81508.9
-7.165	81502.9
-7.160	81478.9
-7.155	81451.9
-7.150	81415.0
-7.145	81426.0
-7.140	81494.9
-7.135	81547.9
-7.130	81597.8
-7.125	81646.8
-7.120	81695.8
-7.115	81748.7
-7.110	81778.7
-7.105	81821.7
-7.100	81855.6
-7.095	81876.6
-7.090	81882.6
-7.085	81862.6
-7.080	81836.7
-7.075	81879.6
-7.070	81921.6
-7.065	81932.6
-7.060	81932.6
-7.055	81958.6
-7.050	81984.6
-7.045	82006.5
-7.040	82017.5
-7.035	82023.5
-7.030	82042.5
-7.025	82048.5
-7.020	82043.5
-7.015	82029.5
-7.010	82036.5
-7.005	82070.5
-7.000	82072.5
-6.995	82081.5
-6.990	82072.5
-6.985	82066.5
-6.980	82065.5
-6.975	82065.5
-6.970	82063.5
-6.965	82071.5
-6.960	82065.5
-6.955	82052.5
-6.950	82031.5
-6.945	82037.5
-6.940	82069.5
-6.935	82067.5
-6.930	82060.5
-6.925	82059.5
-6.920	82060.5
-6.915	82062.5
-6.910	82063.5
-6.905	82057.5
-6.900	82066.5
-6.895	82068.5
-6.890	82067.5
-6.885	82034.5
-6.880	82027.5
-6.875	82040.5
-6.870	82061.5
-6.865	82071.5
-6.860	82059.5
-6.855	82052.5
-6.850	82046.5
-6.845	82044.5
-6.840	82040.5
-6.835	82038.5
-6.830	82034.5
-6.825	82036.5
-6.820	82003.6
-6.815	81986.6
-6.810	81999.6
-6.805	82031.5
-6.800	82026.5
-6.795	82029.5
-6.790	82028.5
-6.785	82030.5
-6.780	82024.5
-6.775	82023.5
-6.770	82022.5
-6.765	82018.5
-6.760	82030.5
-6.755	82015.5
-6.750	81996.6
-6.745	81983.6
-6.740	82007.6
-6.735	82017.5
-6.730	82011.6
-6.725	82022.5
-6.720	81998.6
-6.715	81996.6
-6.710	81987.6
-6.705	81980.6
-6.700	81971.6
-6.695	81981.6
-6.690	81977.6
-6.685	81961.6
-6.680	81951.6
-6.675	81982.6
-6.670	81977.6
-6.665	81983.6
-6.660	81970.6
-6.655	81975.6
-6.650	81960.6
-6.645	81957.6
-6.640	81961.6
-6.635	81967.6
-6.630	81967.6
-6.625	81981.6
-6.620	81965.6
-6.615	81936.6
-6.610	81939.6
-6.605	81966.6
-6.600	81971.6
-6.595	81976.6
-6.590	81978.6
-6.585	81974.6
-6.580	81966.6
-6.575	81970.6
-6.570	81969.6
-6.565	81969.6
-6.560	81969.6
-6.555	81960.6
-6.550	81942.6
-6.545	81936.6
-6.540	81963.6
-6.535	81969.6
-6.530	81962.6
-6.525	81955.6
-6.520	81943.6
-6.515	81958.6
-6.510	81948.6
-6.505	81952.6
-6.500	81952.6
-6.495	81966.6
-6.490	81959.6
-6.485	81938.6
-6.480	81919.6
-6.475	81943.6
-6.470	81961.6
-6.465	81968.6
-6.460	81966.6
-6.455	81970.6
-6.450	81961.6
-6.445	81954.6
-6.440	81956.6
-6.435	81964.6
-6.430	81947.6
-6.425	81966.6
-6.420	81937.6
-6.415	81925.6
-6.410	81936.6
-6.405	81970.6
-6.400	81966.6
-6.395	81964.6
-6.390	81961.6
-6.385	81957.6
-6.380	81953.6
-6.375	81962.6
-6.370	81962.6
-6.365	81969.6
-6.360	81971.6
-6.355	81960.6
-6.350	81933.6
-6.345	81927.6
-6.340	81956.6
-6.335	81964.6
-6.330	81962.6
-6.325	81967.6
-6.320	81962.6
-6.315	81965.6
-6.310	81960.6
-6.305	81962.6
-6.300	81942.6
-6.295	81950.6
-6.290	81945.6
-6.285	81916.7
-6.280	81923.7
-6.275	81959.6
-6.270	81964.6
-6.265	81963.6
-6.260	81954.6
-6.255	81964.6
-6.250	81954.6
-6.245	81959.6
-6.240	81954.6
-6.235	81949.6
-6.230	81958.6
-6.225	81974.6
-6.220	81942.7
-6.215	81924.7
-6.210	81929.7
-6.205	81965.6
-6.200	81955.6
-6.195	81957.6
-6.190	81957.6
-6.185	81956.6
-6.180	81954.6
-6.175	81947.6
-6.170	81947.6
-6.165	81941.7
-6.160	81945.6
-6.155	81928.7
-6.150	81920.7
-6.145	81920.7
-6.140	81953.6
-6.135	81951.6
-6.130	81947.6
-6.125	81941.7
-6.120	81935.7
-6.115	81929.7
-6.110	81936.7
-6.105	81943.7
-6.100	81946.7
-6.095	81951.7
-6.090	81948.7
-6.085	81922.7
-6.080	81910.7
-6.075	81932.7
-6.070	81937.7
-6.065	81945.7
-6.060	81936.7
-6.055	81931.7
-6.050	81937.7
-6.045	81938.7
-6.040	81936.7
-6.035	81935.7
-6.030	81932.7
-6.025	81927.7
-6.020	81894.7
-6.015	81895.7
-6.010	81898.7
-6.005	81929.7
-6.000	81936.7
-5.995	81935.7
-5.990	81925.7
-5.985	81940.7
-5.980	81934.7
-5.975	81924.7
-5.970	81933.7
-5.965	81945.7
-5.960	81956.7
-5.955	81948.7
-5.950	81925.7
-5.945	81925.7
-5.940	81953.7
-5.935	81955.7
-5.930	81964.7
-5.925	81970.7
-5.920	81960.7
-5.915	81964.7
-5.910	81954.7
-5.905	81960.7
-5.900	81956.7
-5.895	81960.7
-5.890	81951.7
-5.885	81923.7
-5.880	81930.7
-5.875	81952.7
-5.870	81965.7
-5.865	81953.7
-5.860	81948.7
-5.855	81938.7
-5.850	81932.7
-5.845	81918.7
-5.840	81902.7
-5.835	81894.7
-5.830	81876.7
-5.825	81851.8
-5.820	81811.8
-5.815	81781.8
-5.810	81770.8
-5.805	81773.8
-5.800	81753.8
-5.795	81738.8
-5.790	81710.9
-5.785	81673.9
-5.780	81614.9
-5.775	81591.9
-5.770	81578.9
-5.765	81589.9
-5.760	81587.9
-5.755	81565.9
-5.750	81538.9
-5.745	81550.9
-5.740	81583.9
-5.735	81618.8
-5.730	81629.8
-5.725	81639.8
-5.720	81633.8
-5.715	81631.8
-5.710	81639.8
-5.705	81692.7
-5.700	81760.7
-5.695	81836.6
-5.690	81881.6
-5.685	81898.6
-5.680	81909.6
-5.675	81947.6
-5.670	81959.6
-5.665	81972.6
-5.660	81962.6
-5.655	81962.6
-5.650	81955.6
-5.645	81958.6
-5.640	81960.7
-5.635	81972.7
-5.630	81973.7
-5.625	81965.7
-5.620	81939.7
-5.615	81926.7
-5.610	81942.7
-5.605	81959.7
-5.600	81946.7
-5.595	81949.7
-5.590	81944.7
-5.585	81951.7
-5.580	81940.7
-5.575	81933.7
-5.570	81926.7
-5.565	81933.7
-5.560	81939.7
-5.555	81934.7
-5.550	81904.7
-5.545	81914.7
-5.540	81936.7
-5.535	81941.7
-5.530	81943.7
-5.525	81940.7
-5.520	81923.7
-5.515	81913.7
-5.510	81917.7
-5.505	81917.7
-5.500	81915.7
-5.495	81923.7
-5.490	81898.7
-5.485	81881.7
-5.480	81861.8
-5.475	81902.7
-5.470	81901.7
-5.465	81898.7
-5.460	81890.7
-5.455	81886.7
-5.450	81875.8
-5.445	81872.8
-5.440	81856.8
-5.435	81833.9
-5.430	81795.0
-5.425	81771.2
-5.420	81707.4
-5.415	81626.7
-5.410	81538.1
-5.405	81461.6
-5.400	81374.0
-5.395	81274.5
-5.390	81163.2
-5.385	81073.8
-5.380	80952.4
-5.375	80791.2
-5.370	80674.0
-5.365	80636.6
-5.360	80575.1
-5.355	80443.8
-5.350	80355.5
-5.345	80405.8
-5.340	80603.6
-5.335	80826.2
-5.330	81024.7
-5.325	81157.1
-5.320	81269.6
-5.315	81406.2
-5.310	81494.8
-5.305	81572.5
-5.300	81587.2
-5.295	81623.0
-5.290	81631.8
-5.285	81639.6
-5.280	81645.5
-5.275	81693.3
-5.270	81701.2
-5.265	81708.1
-5.260	81704.0
-5.255	81708.9
-5.250	81708.8
-5.245	81709.7
-5.240	81716.6
-5.235	81738.5
-5.230	81750.5
-5.225	81762.4
-5.220	81756.3
-5.215	81759.3
-5.210	81788.2
-5.205	81815.1
-5.200	81805.1
-5.195	81826.0
-5.190	81849.9
-5.185	81870.9
-5.180	81894.8
-5.175	81899.7
-5.170	81894.7
-5.165	81895.7
-5.160	81894.6
-5.155	81872.6
-5.150	81850.6
-5.145	81855.6
-5.140	81904.5
-5.135	81929.4
-5.130	81937.4
-5.125	81943.3
-5.120	81943.3
-5.115	81947.3
-5.110	81947.3
-5.105	81948.3
-5.100	81944.2
-5.095	81946.2
-5.090	81930.2
-5.085	81910.2
-5.080	81925.2
-5.075	81959.1
-5.070	81971.1
-5.065	81973.1
-5.060	81970.1
-5.055	81960.0
-5.050	81955.0
-5.045	81957.0
-5.040	81958.0
-5.035	81987.9
-5.030	82003.9
-5.025	82014.9
-5.020	81993.9
-5.015	81994.9
-5.010	82009.8
-5.005	82028.8
-5.000	82039.8
-4.995	82037.8
-4.990	82038.8
-4.985	82034.7
-4.980	82028.7
-4.975	82020.7
-4.970	82018.7
-4.965	82024.7
-4.960	82028.7
-4.955	82016.6
-4.950	81985.7
-4.945	82003.6
-4.940	82025.6
-4.935	82030.6
-4.930	82028.6
-4.925	82020.6
-4.920	82026.5
-4.915	82032.5
-4.910	82027.5
-4.905	82044.5
-4.900	82059.5
-4.895	82073.4
-4.890	82058.4
-4.885	82042.5
-4.880	82031.5
-4.875	82061.4
-4.870	82053.4
-4.865	82064.4
-4.860	82069.4
-4.855	82069.4
-4.850	82073.4
-4.845	82076.4
-4.840	82078.4
-4.835	82090.4
-4.830	82082.4
-4.825	82077.4
-4.820	82030.4
-4.815	82024.4
-4.810	82038.4
-4.805	82047.3
-4.800	82057.3
-4.795	82064.3
-4.790	82074.3
-4.785	82077.3
-4.780	82068.3
-4.775	82072.3
-4.770	82068.3
-4.765	82068.3
-4.760	82051.3
-4.755	82027.3
-4.750	82004.3
-4.745	81998.3
-4.740	82014.2
-4.735	82024.2
-4.730	82044.2
-4.725	82052.2
-4.720	82046.2
-4.715	82062.2
-4.710	82062.2
-4.705	82056.2
-4.700	82057.2
-4.695	82075.2
-4.690	82050.2
-4.685	82014.2
-4.680	81988.2
-4.675	82010.2
-4.670	82006.1
-4.665	82018.1
-4.660	82019.1
-4.655	82024.1
-4.650	82018.1
-4.645	82016.1
-4.640	82006.1
-4.635	82017.1
-4.630	82024.1
-4.625	82026.0
-4.620	82013.0
-4.615	82024.0
-4.610	82040.0
-4.605	82055.0
-4.600	82045.0
-4.595	82053.0
-4.590	82045.0
-4.585	82041.0
-4.580	82037.0
-4.575	82044.0
-4.570	82040.0
-4.565	82045.0
-4.560	82035.0
-4.555	82012.0
-4.550	81990.0
-4.545	82011.0
-4.540	82038.0
-4.535	82044.0
-4.530	82045.0
-4.525	82062.0
-4.520	82051.0
-4.515	82046.0
-4.510	82033.0
-4.505	82030.0
-4.500	82029.0
-4.495	82037.9
-4.490	82021.9
-4.485	82010.0
-4.480	82008.0
-4.475	82035.9
-4.470	82042.9
-4.465	82043.9
-4.460	82041.9
-4.455	82042.9
-4.450	82038.9
-4.445	82034.9
-4.440	82030.9
-4.435	82027.9
-4.430	82025.9
-4.425	82024.9
-4.420	81984.9
-4.415	81981.9
-4.410	82000.9
-4.405	82003.9
-4.400	81993.9
-4.395	81993.9
-4.390	81983.9
-4.385	81963.9
-4.380	81946.9
-4.375	81943.9
-4.370	81936.9
-4.365	81954.9
-4.360	81962.9
-4.355	81960.9
-4.350	81934.9
-4.345	81946.9
-4.340	81971.9
-4.335	81981.9
-4.330	81984.9
-4.325	81982.8
-4.320	81963.9
-4.315	81973.9
-4.310	81973.9
-4.305	81977.8
-4.300	81970.8
-4.295	81980.8
-4.290	81952.8
-4.285	81952.8
-4.280	81941.8
-4.275	81971.8
-4.270	81960.8
-4.265	81974.8
-4.260	81975.8
-4.255	81986.8
-4.250	81990.8
-4.245	81995.8
-4.240	81998.8
-4.235	81991.8
-4.230	81989.8
-4.225	81990.8
-4.220	81960.8
-4.215	81953.8
-4.210	81984.8
-4.205	81992.8
-4.200	81977.8
-4.195	81980.8
-4.190	81972.8
-4.185	81959.8
-4.180	81967.8
-4.175	81973.7
-4.170	81968.7
-4.165	81977.7
-4.160	81979.7
-4.155	81957.7
-4.150	81948.7
-4.145	81963.6
-4.140	81965.5
-4.135	81970.4
-4.130	81966.2
-4.125	81956.0
-4.120	81940.8
-4.115	81923.5
-4.110	81896.1
-4.105	81868.7
-4.100	81841.2
-4.095	81821.7
-4.090	81760.2
-4.085	81701.6
-4.080	81653.0
-4.075	81642.3
-4.070	81595.7
-4.065	81581.1
-4.060	81509.6
-4.055	81486.1
-4.050	81532.7
-4.045	81591.5
-4.040	81624.4
-4.035	81646.6
-4.030	81677.9
-4.025	81737.3
-4.020	81778.8
-4.015	81841.1
-4.010	81940.4
-4.005	82021.7
-4.000	82009.9
-3.995	82054.1
-3.990	82087.3
-3.985	82092.5
-3.980	82053.7
-3.975	81968.9
-3.970	81920.0
-3.965	82008.1
-3.960	82057.2
-3.955	82010.3
-3.950	81992.4
-3.945	81991.5
-3.940	82032.5
-3.935	82028.6
-3.930	82020.7
-3.925	82049.7
-3.920	82026.8
-3.915	81998.9
-3.910	81987.9
-3.905	81961.0
-3.900	81932.1
-3.895	81928.1
-3.890	81918.2
-3.885	81908.2
-3.880	81900.3
-3.875	81904.3
-3.870	81867.4
-3.865	81841.5
-3.860	81833.5
-3.855	81831.6
-3.850	81844.6
-3.845	81845.6
-3.840	81843.7
-3.835	81842.7
-3.830	81840.7
-3.825	81853.8
-3.820	81837.8
-3.815	81845.8
-3.810	81879.8
-3.805	81896.8
-3.800	81907.9
-3.795	81912.9
-3.790	81921.9
-3.785	81911.9
-3.780	81902.0
-3.775	81905.0
-3.770	81906.0
-3.765	81903.0
-3.760	81922.1
-3.755	81898.1
-3.750	81899.1
-3.745	81909.1
-3.740	81927.1
-3.735	81906.2
-3.730	81909.2
-3.725	81909.2
-3.720	81912.2
-3.715	81921.2
-3.710	81907.3
-3.705	81911.3
-3.700	81914.3
-3.695	81917.3
-3.690	81900.3
-3.685	81879.4
-3.680	81884.4
-3.675	81919.3
-3.670	81913.4
-3.665	81914.4
-3.660	81907.4
-3.655	81924.4
-3.650	81906.4
-3.645	81892.4
-3.640	81873.5
-3.635	81861.5
-3.630	81874.5
-3.625	81905.5
-3.620	81873.5
-3.615	81865.5
-3.610	81888.5
-3.605	81912.6
-3.600	81881.6
-3.595	81844.6
-3.590	81797.7
-3.585	81796.7
-3.580	81829.7
-3.575	81852.7
-3.570	81829.8
-3.565	81801.9
-3.560	81792.9
-3.555	81784.0
-3.550	81761.0
-3.545	81769.1
-3.540	81764.2
-3.535	81774.2
-3.530	81841.2
-3.525	81898.3
-3.520	81900.3
-3.515	81906.4
-3.510	81920.5
-3.505	81952.5
-3.500	81972.6
-3.495	81962.6
-3.490	81922.7
-3.485	81926.8
-3.480	81940.8
-3.475	81967.8
-3.470	81981.8
-3.465	81981.9
-3.460	81987.9
-3.455	81981.9
-3.450	81959.9
-3.445	81963.9
-3.440	81962.9
-3.435	81997.9
-3.430	82017.9
-3.425	82025.9
-3.420	82011.9
-3.415	82027.9
-3.410	82016.9
-3.405	81940.0
-3.400	81899.1
-3.395	81962.1
-3.390	82045.2
-3.385	82056.2
-3.380	81989.4
-3.375	81939.5
-3.370	81945.6
-3.365	81994.7
-3.360	82018.8
-3.355	81981.9
-3.350	81931.1
-3.345	81929.1
-3.340	81950.2
-3.335	81973.1
-3.330	81958.1
-3.325	81939.1
-3.320	81929.0
-3.315	81929.0
-3.310	81927.9
-3.305	81932.9
-3.300	81934.9
-3.295	81944.9
-3.290	81923.9
-3.285	81901.9
-3.280	81905.8
-3.275	81946.8
-3.270	81950.8
-3.265	81967.8
-3.260	81982.8
-3.255	81990.8
-3.250	81995.8
-3.245	82008.8
-3.240	82036.7
-3.235	82071.7
-3.230	82096.7
-3.225	82057.8
-3.220	81995.8
-3.215	81968.8
-3.210	81977.8
-3.205	81984.8
-3.200	81976.9
-3.195	81996.9
-3.190	81984.9
-3.185	81992.9
-3.180	81987.9
-3.175	81998.9
-3.170	82013.9
-3.165	82021.9
-3.160	82019.9
-3.155	82002.0
-3.150	81981.0
-3.145	82007.0
-3.140	82038.0
-3.135	82053.9
-3.130	82023.0
-3.125	82004.0
-3.120	81973.0
-3.115	81974.0
-3.110	81995.0
-3.105	82003.0
-3.100	82012.0
-3.095	82017.0
-3.090	81997.1
-3.085	81971.1
-3.080	81962.1
-3.075	81973.1
-3.070	81976.1
-3.065	81971.1
-3.060	81958.1
-3.055	81962.1
-3.050	81972.1
-3.045	81989.1
-3.040	81981.1
-3.035	81986.1
-3.030	81991.1
-3.025	81967.2
-3.020	81968.2
-3.015	81957.2
-3.010	81965.2
-3.005	81957.2
-3.000	81952.3
-2.995	81957.3
-2.990	81945.3
-2.985	81959.3
-2.980	81963.3
-2.975	81963.3
-2.970	81957.3
-2.965	81962.3
-2.960	81954.3
-2.955	81911.4
-2.950	81898.4
-2.945	81924.4
-2.940	81936.4
-2.935	81944.4
-2.930	81938.4
-2.925	81945.4
-2.920	81934.4
-2.915	81934.4
-2.910	81919.4
-2.905	81942.4
-2.900	81958.4
-2.895	81964.4
-2.890	81946.5
-2.885	81938.5
-2.880	81938.5
-2.875	81956.5
-2.870	81968.5
-2.865	81970.5
-2.860	81993.5
-2.855	81993.5
-2.850	81973.5
-2.845	81968.6
-2.840	81957.6
-2.835	81966.6
-2.830	81970.5
-2.825	81957.5
-2.820	81933.6
-2.815	81935.6
-2.810	81960.5
-2.805	81952.5
-2.800	81953.5
-2.795	81967.5
-2.790	81978.5
-2.785	81976.5
-2.780	81981.6
-2.775	81974.6
-2.770	81954.6
-2.765	81955.6
-2.760	81951.6
-2.755	81920.7
-2.750	81891.7
-2.745	81930.7
-2.740	81940.7
-2.735	81943.7
-2.730	81953.7
-2.725	81959.7
-2.720	81949.7
-2.715	81941.7
-2.710	81919.7
-2.705	81901.7
-2.700	81913.7
-2.695	81940.7
-2.690	81928.7
-2.685	81913.8
-2.680	81907.8
-2.675	81916.8
-2.670	81908.8
-2.665	81915.8
-2.660	81890.9
-2.655	81906.9
-2.650	81925.9
-2.645	81938.9
-2.640	81935.9
-2.635	81936.9
-2.630	81932.9
-2.625	81922.9
-2.620	81902.9
-2.615	81919.9
-2.610	81949.8
-2.605	81940.8
-2.600	81925.9
-2.595	81923.8
-2.590	81925.8
-2.585	81924.8
-2.580	81920.8
-2.575	81937.8
-2.570	81948.8
-2.565	81936.8
-2.560	81915.9
-2.555	81890.9
-2.550	81881.9
-2.545	81912.9
-2.540	81934.9
-2.535	81926.9
-2.530	81910.9
-2.525	81907.9
-2.520	81902.9
-2.515	81893.9
-2.510	81883.9
-2.505	81891.9
-2.500	81910.9
-2.495	81915.9
-2.490	81897.0
-2.485	81895.9
-2.480	81914.9
-2.475	81939.9
-2.470	81915.9
-2.465	81905.9
-2.460	81888.9
-2.455	81901.9
-2.450	81925.9
-2.445	81943.9
-2.440	81952.9
-2.435	81945.9
-2.430	81932.9
-2.425	81897.0
-2.420	81879.0
-2.415	81873.0
-2.410	81888.0
-2.405	81918.0
-2.400	81920.0
-2.395	81940.0
-2.390	81932.0
-2.385	81946.0
-2.380	81953.0
-2.375	81942.0
-2.370	81923.1
-2.365	81919.1
-2.360	81908.1
-2.355	81877.1
-2.350	81887.1
-2.345	81919.0
-2.340	81940.0
-2.335	81934.0
-2.330	81924.0
-2.325	81934.0
-2.320	81933.0
-2.315	81950.0
-2.310	81959.0
-2.305	81954.0
-2.300	81931.0
-2.295	81917.0
-2.290	81893.0
-2.285	81884.0
-2.280	81893.0
-2.275	81915.0
-2.270	81921.0
-2.265	81934.0
-2.260	81940.0
-2.255	81950.0
-2.250	81951.0
-2.245	81945.0
-2.240	81944.0
-2.235	81952.0
-2.230	81965.0
-2.225	81953.0
-2.220	81917.0
-2.215	81914.0
-2.210	81944.0
-2.205	81954.0
-2.200	81959.0
-2.195	81962.0
-2.190	81947.0
-2.185	81960.0
-2.180	81964.0
-2.175	81976.0
-2.170	81972.0
-2.165	81984.0
-2.160	81949.0
-2.155	81939.0
-2.150	81937.0
-2.145	81962.0
-2.140	81984.0
-2.135	81979.0
-2.130	81972.0
-2.125	81968.0
-2.120	81989.0
-2.115	82022.0
-2.110	82035.0
-2.105	82041.0
-2.100	82024.0
-2.095	82008.0
-2.090	81966.1
-2.085	81949.1
-2.080	81964.1
-2.075	81979.1
-2.070	81978.1
-2.065	81980.1
-2.060	81963.1
-2.055	81960.0
-2.050	81967.0
-2.045	81958.0
-2.040	81973.0
-2.035	81983.0
-2.030	81989.0
-2.025	81981.0
-2.020	81976.0
-2.015	81988.0
-2.010	82010.0
-2.005	81999.0
-2.000	81986.0
-1.995	81977.0
-1.990	81973.0
-1.985	81979.0
-1.980	81965.0
-1.975	81965.0
-1.970	81967.0
-1.965	81973.0
-1.960	81987.0
-1.955	81983.0
-1.950	81985.0
-1.945	82003.0
-1.940	81995.0
-1.935	81984.0
-1.930	81963.0
-1.925	81963.0
-1.920	81936.0
-1.915	81935.1
-1.910	81921.1
-1.905	81922.0
-1.900	81919.0
-1.895	81935.0
-1.890	81921.0
-1.885	81916.0
-1.880	81929.0
-1.875	81954.0
-1.870	81944.0
-1.865	81950.0
-1.860	81940.0
-1.855	81939.0
-1.850	81939.0
-1.845	81929.0
-1.840	81916.0
-1.835	81930.0
-1.830	81949.9
-1.825	81948.9
-1.820	81924.9
-1.815	81926.9
-1.810	81953.9
-1.805	81976.9
-1.800	81982.9
-1.795	81995.9
-1.790	82020.9
-1.785	82030.9
-1.780	82020.9
-1.775	82023.9
-1.770	82017.9
-1.765	82005.9
-1.760	81972.9
-1.755	81949.9
-1.750	81934.0
-1.745	81954.9
-1.740	81947.9
-1.735	81932.9
-1.730	81915.9
-1.725	81908.9
-1.720	81902.9
-1.715	81918.9
-1.710	81924.9
-1.705	81933.9
-1.700	81943.9
-1.695	81939.9
-1.690	81905.9
-1.685	81888.9
-1.680	81890.9
-1.675	81910.9
-1.670	81896.9
-1.665	81903.9
-1.660	81900.9
-1.655	81883.9
-1.650	81877.9
-1.645	81874.9
-1.640	81863.9
-1.635	81878.9
-1.630	81883.9
-1.625	81859.9
-1.620	81851.9
-1.615	81877.9
-1.610	81906.8
-1.605	81905.8
-1.600	81899.9
-1.595	81910.8
-1.590	81912.8
-1.585	81904.9
-1.580	81898.9
-1.575	81895.9
-1.570	81894.9
-1.565	81894.9
-1.560	81883.9
-1.555	81859.9
-1.550	81846.9
-1.545	81883.9
-1.540	81886.9
-1.535	81891.8
-1.530	81897.8
-1.525	81900.8
-1.520	81886.8
-1.515	81894.8
-1.510	81895.8
-1.505	81913.8
-1.500	81904.8
-1.495	81914.8
-1.490	81875.8
-1.485	81865.8
-1.480	81883.8
-1.475	81899.7
-1.470	81910.7
-1.465	81920.7
-1.460	81909.7
-1.455	81913.7
-1.450	81914.7
-1.445	81917.6
-1.440	81929.6
-1.435	81936.6
-1.430	81938.6
-1.425	81919.6
-1.420	81905.6
-1.415	81911.6
-1.410	81940.6
-1.405	81954.6
-1.400	81957.5
-1.395	81980.5
-1.390	81973.5
-1.385	81974.5
-1.380	81973.5
-1.375	81956.5
-1.370	81966.5
-1.365	81972.6
-1.360	81962.6
-1.355	81942.6
-1.350	81930.6
-1.345	81951.6
-1.340	81952.6
-1.335	81944.6
-1.330	81930.6
-1.325	81915.6
-1.320	81903.6
-1.315	81899.6
-1.310	81914.6
-1.305	81930.6
-1.300	81923.6
-1.295	81924.5
-1.290	81890.6
-1.285	81871.6
-1.280	81884.6
-1.275	81907.5
-1.270	81913.5
-1.265	81915.5
-1.260	81912.5
-1.255	81904.5
-1.250	81893.5
-1.245	81918.5
-1.240	81926.5
-1.235	81939.5
-1.230	81934.5
-1.225	81909.5
-1.220	81884.5
-1.215	81889.5
-1.210	81925.5
-1.205	81939.5
-1.200	81951.4
-1.195	81945.4
-1.190	81955.4
-1.185	81949.4
-1.180	81954.4
-1.175	81960.4
-1.170	81969.4
-1.165	81975.4
-1.160	81957.4
-1.155	81932.4
-1.150	81930.4
-1.145	81973.3
-1.140	81985.3
-1.135	81987.3
-1.130	81980.3
-1.125	81964.3
-1.120	81947.3
-1.115	81930.3
-1.110	81918.3
-1.105	81915.4
-1.100	81921.4
-1.095	81918.4
-1.090	81889.4
-1.085	81884.4
-1.080	81911.4
-1.075	81926.3
-1.070	81912.4
-1.065	81910.4
-1.060	81896.4
-1.055	81888.4
-1.050	81879.4
-1.045	81868.4
-1.040	81878.3
-1.035	81886.3
-1.030	81895.3
-1.025	81889.3
-1.020	81881.3
-1.015	81899.3
-1.010	81918.3
-1.005	81930.3
-1.000	81923.3
-0.995	81927.2
-0.990	81909.3
-0.985	81916.2
-0.980	81896.2
-0.975	81899.2
-0.970	81903.2
-0.965	81898.2
-0.960	81871.2
-0.955	81863.2
-0.950	81864.2
-0.945	81898.2
-0.940	81902.2
-0.935	81901.2
-0.930	81885.2
-0.925	81886.2
-0.920	81863.2
-0.915	81859.2
-0.910	81858.2
-0.905	81871.2
-0.900	81873.2
-0.895	81872.1
-0.890	81840.2
-0.885	81809.2
-0.880	81830.1
-0.875	81828.1
-0.870	81827.1
-0.865	81813.1
-0.860	81817.1
-0.855	81814.1
-0.850	81798.1
-0.845	81802.1
-0.840	81789.1
-0.835	81782.1
-0.830	81775.1
-0.825	81749.1
-0.820	81738.1
-0.815	81766.1
-0.810	81802.0
-0.805	81812.0
-0.800	81810.0
-0.795	81825.0
-0.790	81821.0
-0.785	81821.0
-0.780	81836.0
-0.775	81823.0
-0.770	81836.9
-0.765	81843.9
-0.760	81815.0
-0.755	81788.0
-0.750	81768.0
-0.745	81787.0
-0.740	81779.0
-0.735	81779.0
-0.730	81769.0
-0.725	81775.0
-0.720	81769.0
-0.715	81765.0
-0.710	81761.0
-0.705	81762.0
-0.700	81742.0
-0.695	81737.0
-0.690	81703.0
-0.685	81713.0
-0.680	81742.0
-0.675	81763.9
-0.670	81770.9
-0.665	81783.9
-0.660	81786.9
-0.655	81790.9
-0.650	81795.9
-0.645	81799.9
-0.640	81806.9
-0.635	81828.8
-0.630	81835.8
-0.625	81819.8
-0.620	81800.8
-0.615	81808.8
-0.610	81816.8
-0.605	81807.8
-0.600	81806.8
-0.595	81805.8
-0.590	81800.8
-0.585	81797.8
-0.580	81784.8
-0.575	81800.7
-0.570	81799.7
-0.565	81817.7
-0.560	81798.7
-0.555	81782.7
-0.550	81786.7
-0.545	81824.7
-0.540	81824.7
-0.535	81847.7
-0.530	81858.7
-0.525	81852.7
-0.520	81847.7
-0.515	81854.6
-0.510	81842.6
-0.505	81856.6
-0.500	81875.6
-0.495	81878.6
-0.490	81853.6
-0.485	81850.6
-0.480	81862.6
-0.475	81879.6
-0.470	81871.6
-0.465	81876.6
-0.460	81866.6
-0.455	81855.6
-0.450	81860.6
-0.445	81867.5
-0.440	81883.5
-0.435	81888.5
-0.430	81886.5
-0.425	81860.5
-0.420	81845.5
-0.415	81860.5
-0.410	81870.5
-0.405	81883.5
-0.400	81884.5
-0.395	81895.4
-0.390	81895.4
-0.385	81882.4
-0.380	81874.4
-0.375	81870.4
-0.370	81883.4
-0.365	81871.4
-0.360	81860.4
-0.355	81842.4
-0.350	81839.4
-0.345	81854.4
-0.340	81865.4
-0.335	81855.4
-0.330	81851.4
-0.325	81849.4
-0.320	81851.4
-0.315	81860.4
-0.310	81870.3
-0.305	81880.3
-0.300	81868.3
-0.295	81851.3
-0.290	81812.4
-0.285	81808.4
-0.280	81825.3
-0.275	81833.3
-0.270	81826.3
-0.265	81816.3
-0.260	81795.3
-0.255	81785.3
-0.250	81772.3
-0.245	81781.3
-0.240	81803.3
-0.235	81834.3
-0.230	81856.2
-0.225	81852.2
-0.220	81831.2
-0.215	81849.2
-0.210	81856.2
-0.205	81850.2
-0.200	81842.2
-0.195	81829.2
-0.190	81815.2
-0.185	81816.2
-0.180	81816.2
-0.175	81842.1
-0.170	81869.1
-0.165	81892.1
-0.160	81882.1
-0.155	81891.1
-0.150	81912.1
-0.145	81948.1
-0.140	81939.1
-0.135	81922.1
-0.130	81886.2
-0.125	81882.2
-0.120	81901.2
-0.115	81933.2
-0.110	81936.2
-0.105	81932.2
-0.100	81921.2
-0.095	81918.1
-0.090	81879.1
-0.085	81865.1
-0.080	81896.0
-0.075	81896.9
-0.070	81878.8
-0.065	81840.8
-0.060	81802.7
-0.055	81760.7
-0.050	81704.6
-0.045	81708.6
-0.040	81774.5
-0.035	81858.5
-0.030	81872.5
-0.025	81849.7
-0.020	81850.8
-0.015	81901.9
-0.010	81870.1
-0.005	81850.3
0.000	81901.4
0.005	81939.5
0.010	81918.6
0.015	81861.6
0.020	81801.5
0.025	81763.4
0.030	81738.3
0.035	81737.1
0.040	81727.0
0.045	81773.8
0.050	81871.6
0.055	81952.4
0.060	81948.3
0.065	81927.3
0.070	81888.4
0.075	81853.4
0.080	81833.5
0.085	81847.6
0.090	81863.6
0.095	81888.6
0.100	81910.6
0.105	81919.6
0.110	81908.6
0.115	81888.6
0.120	81895.7
0.125	81868.7
0.130	81858.7
0.135	81871.7
0.140	81884.7
0.145	81877.7
0.150	81862.7
0.155	81865.7
0.160	81871.7
0.165	81892.6
0.170	81893.6
0.175	81870.6
0.180	81842.7
0.185	81861.6
0.190	81872.6
0.195	81864.6
0.200	81848.6
0.205	81822.7
0.210	81784.7
0.215	81792.7
0.220	81786.7
0.225	81801.6
0.230	81817.6
0.235	81847.6
0.240	81833.6
0.245	81843.6
0.250	81870.5
0.255	81905.5
0.260	81891.5
0.265	81856.5
0.270	81847.5
0.275	81853.5
0.280	81871.5
0.285	81876.5
0.290	81877.5
0.295	81885.5
0.300	81912.4
0.305	81914.4
0.310	81877.4
0.315	81856.4
0.320	81869.4
0.325	81884.4
0.330	81890.4
0.335	81889.4
0.340	81875.4
0.345	81859.4
0.350	81871.4
0.355	81870.3
0.360	81884.3
0.365	81892.3
0.370	81877.3
0.375	81858.3
0.380	81845.3
0.385	81869.3
0.390	81875.3
0.395	81863.3
0.400	81859.3
0.405	81855.3
0.410	81856.3
0.415	81865.2
0.420	81866.2
0.425	81872.2
0.430	81882.2
0.435	81885.2
0.440	81866.2
0.445	81858.2
0.450	81855.2
0.455	81884.2
0.460	81886.2
0.465	81886.2
0.470	81864.2
0.475	81853.2
0.480	81837.2
0.485	81828.2
0.490	81845.2
0.495	81853.2
0.500	81842.2
0.505	81839.2
0.510	81817.2
0.515	81829.2
0.520	81856.2
0.525	81847.2
0.530	81834.2
0.535	81829.2
0.540	81824.2
0.545	81839.1
0.550	81842.1
0.555	81836.1
0.560	81837.1
0.565	81841.1
0.570	81836.1
0.575	81801.1
0.580	81793.1
0.585	81820.1
0.590	81826.1
0.595	81842.1
0.600	81844.0
0.605	81847.0
0.610	81864.0
0.615	81862.0
0.620	81852.0
0.625	81864.0
0.630	81860.0
0.635	81865.0
0.640	81836.0
0.645	81818.0
0.650	81813.0
0.655	81838.0
0.660	81832.0
0.665	81849.0
0.670	81851.0
0.675	81859.0
0.680	81853.0
0.685	81851.0
0.690	81839.0
0.695	81848.0
0.700	81847.0
0.705	81844.0
0.710	81824.0
0.715	81830.0
0.720	81850.9
0.725	81855.9
0.730	81844.9
0.735	81848.9
0.740	81837.9
0.745	81840.9
0.750	81819.9
0.755	81829.9
0.760	81816.9
0.765	81818.9
0.770	81813.9
0.775	81793.9
0.780	81791.9
0.785	81819.8
0.790	81835.8
0.795	81834.8
0.800	81818.8
0.805	81814.8
0.810	81809.8
0.815	81794.8
0.820	81787.8
0.825	81791.8
0.830	81783.7
0.835	81794.7
0.840	81768.7
0.845	81756.7
0.850	81768.7
0.855	81796.7
0.860	81792.7
0.865	81799.7
0.870	81800.7
0.875	81794.7
0.880	81791.7
0.885	81773.7
0.890	81770.7
0.895	81768.7
0.900	81773.7
0.905	81759.7
0.910	81735.7
0.915	81751.7
0.920	81776.7
0.925	81779.7
0.930	81768.7
0.935	81764.7
0.940	81762.7
0.945	81762.7
0.950	81766.7
0.955	81780.6
0.960	81780.6
0.965	81804.6
0.970	81810.6
0.975	81791.6
0.980	81765.6
0.985	81796.6
0.990	81792.6
0.995	81804.6
1.000	81789.6
1.005	81791.6
1.010	81782.6
1.015	81778.6
1.020	81776.6
1.025	81763.6
1.030	81746.6
1.035	81742.6
1.040	81712.6
1.045	81679.6
1.050	81685.6
1.055	81703.6
1.060	81698.6
1.065	81703.6
1.070	81713.5
1.075	81704.5
1.080	81715.5
1.085	81720.5
1.090	81725.5
1.095	81738.5
1.100	81737.5
1.105	81732.4
1.110	81703.5
1.115	81694.5
1.120	81712.4
1.125	81726.4
1.130	81720.4
1.135	81736.4
1.140	81732.4
1.145	81733.4
1.150	81733.4
1.155	81737.4
1.160	81755.4
1.165	81767.4
1.170	81757.4
1.175	81734.4
1.180	81717.4
1.185	81739.4
1.190	81743.4
1.195	81734.4
1.200	81723.4
1.205	81733.4
1.210	81711.4
1.215	81690.4
1.220	81675.4
1.225	81675.5
1.230	81703.4
1.235	81709.4
1.240	81699.5
1.245	81697.5
1.250	81717.4
1.255	81749.4
1.260	81755.4
1.265	81766.4
1.270	81767.4
1.275	81778.4
1.280	81770.4
1.285	81761.3
1.290	81753.3
1.295	81743.3
1.300	81760.3
1.305	81737.3
1.310	81726.3
1.315	81737.3
1.320	81766.3
1.325	81773.2
1.330	81774.2
1.335	81769.2
1.340	81787.2
1.345	81805.2
1.350	81813.2
1.355	81840.1
1.360	81836.2
1.365	81839.1
1.370	81819.2
1.375	81777.2
1.380	81765.2
1.385	81799.2
1.390	81797.2
1.395	81811.1
1.400	81813.1
1.405	81832.1
1.410	81829.1
1.415	81815.1
1.420	81814.1
1.425	81820.1
1.430	81814.1
1.435	81806.1
1.440	81769.2
1.445	81753.2
1.450	81771.2
1.455	81793.1
1.460	81793.1
1.465	81800.1
1.470	81800.1
1.475	81799.1
1.480	81804.1
1.485	81811.1
1.490	81814.1
1.495	81828.1
1.500	81839.1
1.505	81814.1
1.510	81797.1
1.515	81814.0
1.520	81837.0
1.525	81839.0
1.530	81848.0
1.535	81853.0
1.540	81842.0
1.545	81854.9
1.550	81850.9
1.555	81849.9
1.560	81847.9
1.565	81855.9
1.570	81856.9
1.575	81840.9
1.580	81838.9
1.585	81849.9
1.590	81832.9
1.595	81794.9
1.600	81767.9
1.605	81766.9
1.610	81786.9
1.615	81785.9
1.620	81785.9
1.625	81795.9
1.630	81806.9
1.635	81821.9
1.640	81792.9
1.645	81804.9
1.650	81822.9
1.655	81807.9
1.660	81759.0
1.665	81746.0
1.670	81730.0
1.675	81723.0
1.680	81726.0
1.685	81761.0
1.690	81780.0
1.695	81809.0
1.700	81808.0
1.705	81773.0
1.710	81733.0
1.715	81731.0
1.720	81761.0
1.725	81783.9
1.730	81771.9
1.735	81765.9
1.740	81760.9
1.745	81737.9
1.750	81718.9
1.755	81713.9
1.760	81705.9
1.765	81722.9
1.770	81717.9
1.775	81710.9
1.780	81711.9
1.785	81726.9
1.790	81721.9
1.795	81728.9
1.800	81702.9
1.805	81715.9
1.810	81705.9
1.815	81723.9
1.820	81732.9
1.825	81765.9
1.830	81762.9
1.835	81753.9
1.840	81717.9
1.845	81697.9
1.850	81707.9
1.855	81707.9
1.860	81702.9
1.865	81689.9
1.870	81681.9
1.875	81683.9
1.880	81696.9
1.885	81715.9
1.890	81718.9
1.895	81729.9
1.900	81734.9
1.905	81718.9
1.910	81702.9
1.915	81689.9
1.920	81702.9
1.925	81724.8
1.930	81729.8
1.935	81719.8
1.940	81709.8
1.945	81691.9
1.950	81701.9
1.955	81701.8
1.960	81724.8
1.965	81748.8
1.970	81745.8
1.975	81745.8
1.980	81751.8
1.985	81802.7
1.990	81807.7
1.995	81811.7
2.000	81810.7
2.005	81788.7
2.010	81762.8
2.015	81737.8
2.020	81729.8
2.025	81747.8
2.030	81753.8
2.035	81783.8
2.040	81789.8
2.045	81781.8
2.050	81801.8
2.055	81820.7
2.060	81831.7
2.065	81817.7
2.070	81799.7
2.075	81784.8
2.080	81773.8
2.085	81754.8
2.090	81750.8
2.095	81762.8
2.100	81764.8
2.105	81738.8
2.110	81728.8
2.115	81742.8
2.120	81767.8
2.125	81783.8
2.130	81776.8
2.135	81781.8
2.140	81785.8
2.145	81782.8
2.150	81766.8
2.155	81779.8
2.160	81772.8
2.165	81761.8
2.170	81753.8
2.175	81717.8
2.180	81699.9
2.185	81725.8
2.190	81737.8
2.195	81778.8
2.200	81774.8
2.205	81765.8
2.210	81770.8
2.215	81762.9
2.220	81776.8
2.225	81778.8
2.230	81754.9
2.235	81727.9
2.240	81693.9
2.245	81695.9
2.250	81728.9
2.255	81742.9
2.260	81733.9
2.265	81734.9
2.270	81725.9
2.275	81704.9
2.280	81695.9
2.285	81733.8
2.290	81734.8
2.295	81737.8
2.300	81720.8
2.305	81685.8
2.310	81652.9
2.315	81666.8
2.320	81691.8
2.325	81714.8
2.330	81723.8
2.335	81720.8
2.340	81711.8
2.345	81708.9
2.350	81707.9
2.355	81713.9
2.360	81706.9
2.365	81719.9
2.370	81718.9
2.375	81723.9
2.380	81725.9
2.385	81757.9
2.390	81757.9
2.395	81755.9
2.400	81750.9
2.405	81759.9
2.410	81770.9
2.415	81775.9
2.420	81781.9
2.425	81794.9
2.430	81813.8
2.435	81811.8
2.440	81760.9
2.445	81722.9
2.450	81741.9
2.455	81724.9
2.460	81710.9
2.465	81718.9
2.470	81724.9
2.475	81729.9
2.480	81740.9
2.485	81740.0
2.490	81714.0
2.495	81722.0
2.500	81729.0
2.505	81708.0
2.510	81698.0
2.515	81707.0
2.520	81716.0
2.525	81697.0
2.530	81710.0
2.535	81719.0
2.540	81717.0
2.545	81732.0
2.550	81741.0
2.555	81759.0
2.560	81746.0
2.565	81730.0
2.570	81690.0
2.575	81683.0
2.580	81701.0
2.585	81730.0
2.590	81734.0
2.595	81739.0
2.600	81740.0
2.605	81744.0
2.610	81725.0
2.615	81712.0
2.620	81693.0
2.625	81696.0
2.630	81674.1
2.635	81656.1
2.640	81636.1
2.645	81651.1
2.650	81690.1
2.655	81696.1
2.660	81659.1
2.665	81635.1
2.670	81610.2
2.675	81596.2
2.680	81598.2
2.685	81629.2
2.690	81657.2
2.695	81688.2
2.700	81695.2
2.705	81672.2
2.710	81646.2
2.715	81664.2
2.720	81682.2
2.725	81709.2
2.730	81720.2
2.735	81721.2
2.740	81701.2
2.745	81714.3
2.750	81718.3
2.755	81727.3
2.760	81722.3
2.765	81715.3
2.770	81689.3
2.775	81678.3
2.780	81688.3
2.785	81734.3
2.790	81723.3
2.795	81741.3
2.800	81730.3
2.805	81746.3
2.810	81733.3
2.815	81743.3
2.820	81743.3
2.825	81752.3
2.830	81747.3
2.835	81768.3
2.840	81753.3
2.845	81721.3
2.850	81741.3
2.855	81755.3
2.860	81739.3
2.865	81709.4
2.870	81688.4
2.875	81688.4
2.880	81700.4
2.885	81734.4
2.890	81745.4
2.895	81763.4
2.900	81764.4
2.905	81720.5
2.910	81697.5
2.915	81711.5
2.920	81736.4
2.925	81712.5
2.930	81690.5
2.935	81680.5
2.940	81686.5
2.945	81700.5
2.950	81733.5
2.955	81759.5
2.960	81783.5
2.965	81785.5
2.970	81763.6
2.975	81732.6
2.980	81719.6
2.985	81728.6
2.990	81729.6
2.995	81742.6
3.000	81768.6
3.005	81779.6
3.010	81776.6
3.015	81787.6
3.020	81774.6
3.025	81763.7
3.030	81756.7
3.035	81756.7
3.040	81745.7
3.045	81727.7
3.050	81767.7
3.055	81772.7
3.060	81767.7
3.065	81774.7
3.070	81789.7
3.075	81792.7
3.080	81800.7
3.085	81819.7
3.090	81827.7
3.095	81837.7
3.100	81817.7
3.105	81783.8
3.110	81760.8
3.115	81787.8
3.120	81819.7
3.125	81821.8
3.130	81820.8
3.135	81800.8
3.140	81799.8
3.145	81790.8
3.150	81799.8
3.155	81792.8
3.160	81810.8
3.165	81821.8
3.170	81801.9
3.175	81793.9
3.180	81796.9
3.185	81835.9
3.190	81837.9
3.195	81856.9
3.200	81848.9
3.205	81866.9
3.210	81872.9
3.215	81862.9
3.220	81847.0
3.225	81841.0
3.230	81845.0
3.235	81839.0
3.240	81836.0
3.245	81845.0
3.250	81868.9
3.255	81881.9
3.260	81882.9
3.265	81891.9
3.270	81880.9
3.275	81882.9
3.280	81860.9
3.285	81864.9
3.290	81851.9
3.295	81867.9
3.300	81881.8
3.305	81855.8
3.310	81848.8
3.315	81886.7
3.320	81921.7
3.325	81914.7
3.330	81882.7
3.335	81826.8
3.340	81774.8
3.345	81766.8
3.350	81798.9
3.355	81860.9
3.360	81890.9
3.365	81915.0
3.370	81918.1
3.375	81887.2
3.380	81820.4
3.385	81779.6
3.390	81800.7
3.395	81903.7
3.400	81962.8
3.405	81930.8
3.410	81885.9
3.415	81853.9
3.420	81842.9
3.425	81850.9
3.430	81853.9
3.435	81850.9
3.440	81815.9
3.445	81828.9
3.450	81891.8
3.455	81912.8
3.460	81923.8
3.465	81939.9
3.470	81935.9
3.475	81934.9
3.480	81910.0
3.485	81921.1
3.490	81926.1
3.495	81956.2
3.500	81965.2
3.505	81956.3
3.510	81944.4
3.515	81953.4
3.520	81954.5
3.525	81955.6
3.530	81958.6
3.535	81963.7
3.540	81954.8
3.545	81952.8
3.550	81946.9
3.555	81948.9
3.560	81950.0
3.565	81946.0
3.570	81908.1
3.575	81886.1
3.580	81864.1
3.585	81885.1
3.590	81877.2
3.595	81870.2
3.600	81868.2
3.605	81871.2
3.610	81870.2
3.615	81871.3
3.620	81884.3
3.625	81877.3
3.630	81886.3
3.635	81886.3
3.640	81848.4
3.645	81833.4
3.650	81864.4
3.655	81860.4
3.660	81864.4
3.665	81866.4
3.670	81866.4
3.675	81873.4
3.680	81872.4
3.685	81880.4
3.690	81875.5
3.695	81884.5
3.700	81871.5
3.705	81848.5
3.710	81838.5
3.715	81862.6
3.720	81881.6
3.725	81887.6
3.730	81877.6
3.735	81874.6
3.740	81863.6
3.745	81876.7
3.750	81873.7
3.755	81875.7
3.760	81886.7
3.765	81901.7
3.770	81879.8
3.775	81853.8
3.780	81852.8
3.785	81875.8
3.790	81865.9
3.795	81868.9
3.800	81863.9
3.805	81854.0
3.810	81868.0
3.815	81886.0
3.820	81880.0
3.825	81881.1
3.830	81902.1
3.835	81880.1
3.840	81864.2
3.845	81872.2
3.850	81891.2
3.855	81879.3
3.860	81878.3
3.865	81869.4
3.870	81872.4
3.875	81861.5
3.880	81846.5
3.885	81854.6
3.890	81861.6
3.895	81853.7
3.900	81842.7
3.905	81817.8
3.910	81789.8
3.915	81787.9
3.920	81798.0
3.925	81791.0
3.930	81772.1
3.935	81754.2
3.940	81709.3
3.945	81663.4
3.950	81595.6
3.955	81521.7
3.960	81504.8
3.965	81324.1
3.970	80425.8
3.975	79517.6
3.980	79581.7
3.985	80378.3
3.990	81071.0
3.995	81386.1
4.000	81540.2
4.005	81610.4
4.010	81454.8
4.015	81143.3
4.020	80969.7
4.025	81037.9
4.030	81147.1
4.035	81116.3
4.040	81028.5
4.045	81021.5
4.050	81089.4
4.055	81087.3
4.060	81041.1
4.065	80997.8
4.070	80980.4
4.075	81016.8
4.080	81076.0
4.085	81176.1
4.090	81294.2
4.095	81399.2
4.100	81476.4
4.105	81541.7
4.110	81607.1
4.115	81679.7
4.120	81708.5
4.125	81719.4
4.130	81724.3
4.135	81716.2
4.140	81709.2
4.145	81718.2
4.150	81719.2
4.155	81736.1
4.160	81741.1
4.165	81750.1
4.170	81728.1
4.175	81723.1
4.180	81723.1
4.185	81743.0
4.190	81730.0
4.195	81735.0
4.200	81710.0
4.205	81700.1
4.210	81705.0
4.215	81696.0
4.220	81697.0
4.225	81689.1
4.230	81643.1
4.235	81617.1
4.240	81597.1
4.245	81590.1
4.250	81576.2
4.255	81536.2
4.260	81501.2
4.265	81469.2
4.270	81453.2
4.275	81464.2
4.280	81441.2
4.285	81409.2
4.290	81361.3
4.295	81319.3
4.300	81276.3
4.305	81237.3
4.310	81206.4
4.315	81204.4
4.320	81203.4
4.325	81200.4
4.330	81184.4
4.335	81163.4
4.340	81138.4
4.345	81155.4
4.350	81160.4
4.355	81162.4
4.360	81127.4
4.365	81106.4
4.370	81084.4
4.375	81125.4
4.380	81206.3
4.385	81303.3
4.390	81393.2
4.395	81487.1
4.400	81527.1
4.405	81531.1
4.410	81514.1
4.415	81531.1
4.420	81558.0
4.425	81587.0
4.430	81585.0
4.435	81571.0
4.440	81567.0
4.445	81615.0
4.450	81654.9
4.455	81657.9
4.460	81658.9
4.465	81673.9
4.470	81672.9
4.475	81669.9
4.480	81650.9
4.485	81635.9
4.490	81634.9
4.495	81646.9
4.500	81607.9
4.505	81570.0
4.510	81552.0
4.515	81582.9
4.520	81566.9
4.525	81552.9
4.530	81533.0
4.535	81535.9
4.540	81548.9
4.545	81555.9
4.550	81535.9
4.555	81531.9
4.560	81558.9
4.565	81586.9
4.570	81568.9
4.575	81555.9
4.580	81566.9
4.585	81592.9
4.590	81603.8
4.595	81623.8
4.600	81599.8
4.605	81598.8
4.610	81587.8
4.615	81560.9
4.620	81555.9
4.625	81570.8
4.630	81599.8
4.635	81605.8
4.640	81613.8
4.645	81633.8
4.650	81682.7
4.655	81680.7
4.660	81684.7
4.665	81683.7
4.670	81681.7
4.675	81710.6
4.680	81710.6
4.685	81717.6
4.690	81728.6
4.695	81756.6
4.700	81756.6
4.705	81736.6
4.710	81718.6
4.715	81749.6
4.720	81774.6
4.725	81781.5
4.730	81790.5
4.735	81780.5
4.740	81781.5
4.745	81776.5
4.750	81774.5
4.755	81783.5
4.760	81787.5
4.765	81794.5
4.770	81762.5
4.775	81733.5
4.780	81753.5
4.785	81776.4
4.790	81766.4
4.795	81769.4
4.800	81775.4
4.805	81786.4
4.810	81792.4
4.815	81793.4
4.820	81788.4
4.825	81804.4
4.830	81813.4
4.835	81798.3
4.840	81759.4
4.845	81742.4
4.850	81775.3
4.855	81777.3
4.860	81790.3
4.865	81802.3
4.870	81806.3
4.875	81801.3
4.880	81791.3
4.885	81794.3
4.890	81795.3
4.895	81798.3
4.900	81792.3
4.905	81764.3
4.910	81747.3
4.915	81778.2
4.920	81785.2
4.925	81794.2
4.930	81805.2
4.935	81809.2
4.940	81806.2
4.945	81798.2
4.950	81813.1
4.955	81830.1
4.960	81833.1
4.965	81829.1
4.970	81789.1
4.975	81761.1
4.980	81775.0
4.985	81801.0
4.990	81797.0
4.995	81794.0
5.000	81793.0
5.005	81802.9
5.010	81783.9
5.015	81763.9
5.020	81761.9
5.025	81746.9
5.030	81736.9
5.035	81717.9
5.040	81686.9
5.045	81684.9
5.050	81716.9
5.055	81715.8
5.060	81719.8
5.065	81741.8
5.070	81748.7
5.075	81760.7
5.080	81724.7
5.085	81695.7
5.090	81663.7
5.095	81690.7
5.100	81702.6
5.105	81704.6
5.110	81697.6
5.115	81730.6
5.120	81726.5
5.125	81762.5
5.130	81759.5
5.135	81753.4
5.140	81741.4
5.145	81748.4
5.150	81754.3
5.155	81743.3
5.160	81741.3
5.165	81749.2
5.170	81722.2
5.175	81755.2
5.180	81762.1
5.185	81770.1
5.190	81768.0
5.195	81787.9
5.200	81765.9
5.205	81742.9
5.210	81753.8
5.215	81776.7
5.220	81797.7
5.225	81826.6
5.230	81847.5
5.235	81828.4
5.240	81800.4
5.245	81810.3
5.250	81811.2
5.255	81815.1
5.260	81803.1
5.265	81787.0
5.270	81784.9
5.275	81778.8
5.280	81769.7
5.285	81767.5
5.290	81752.4
5.295	81752.2
5.300	81702.0
5.305	81668.9
5.310	81624.6
5.315	81599.4
5.320	81553.1
5.325	81471.9
5.330	81389.7
5.335	81297.6
5.340	81198.5
5.345	81138.4
5.350	81039.4
5.355	80974.5
5.360	80940.7
5.365	80900.8
5.370	80843.2
5.375	80848.7
5.380	80886.2
5.385	80920.7
5.390	80936.3
5.395	81043.1
5.400	81205.0
5.405	81433.8
5.410	81618.3
5.415	81746.6
5.420	81821.8
5.425	81855.9
5.430	81884.0
5.435	81866.0
5.440	81866.0
5.445	81872.0
5.450	81893.0
5.455	81897.0
5.460	81900.0
5.465	81887.0
5.470	81871.0
5.475	81879.0
5.480	81872.0
5.485	81873.0
5.490	81876.0
5.495	81880.0
5.500	81866.0
5.505	81839.1
5.510	81838.1
5.515	81862.0
5.520	81867.0
5.525	81868.0
5.530	81853.0
5.535	81867.0
5.540	81855.0
5.545	81863.0
5.550	81856.0
5.555	81866.0
5.560	81864.0
5.565	81853.1
5.570	81823.1
5.575	81835.1
5.580	81841.1
5.585	81852.1
5.590	81859.0
5.595	81855.0
5.600	81847.1
5.605	81849.1
5.610	81846.1
5.615	81846.1
5.620	81853.1
5.625	81863.1
5.630	81863.1
5.635	81849.1
5.640	81825.1
5.645	81843.1
5.650	81854.1
5.655	81861.1
5.660	81864.1
5.665	81870.1
5.670	81852.2
5.675	81850.2
5.680	81839.2
5.685	81841.2
5.690	81819.2
5.695	81798.2
5.700	81749.3
5.705	81701.3
5.710	81664.4
5.715	81670.3
5.720	81638.4
5.725	81611.4
5.730	81603.4
5.735	81599.4
5.740	81606.4
5.745	81607.3
5.750	81602.3
5.755	81591.3
5.760	81556.3
5.765	81554.3
5.770	81514.4
5.775	81466.4
5.780	81486.4
5.785	81509.3
5.790	81528.3
5.795	81566.3
5.800	81601.3
5.805	81619.3
5.810	81644.2
5.815	81656.2
5.820	81678.2
5.825	81700.2
5.830	81708.2
5.835	81708.2
5.840	81707.2
5.845	81753.1
5.850	81793.1
5.855	81813.1
5.860	81815.1
5.865	81803.1
5.870	81806.1
5.875	81802.1
5.880	81803.1
5.885	81815.1
5.890	81820.1
5.895	81837.1
5.900	81825.1
5.905	81807.1
5.910	81805.1
5.915	81839.1
5.920	81830.1
5.925	81842.1
5.930	81844.1
5.935	81832.1
5.940	81835.1
5.945	81833.1
5.950	81830.1
5.955	81837.1
5.960	81831.1
5.965	81815.1
5.970	81795.1
5.975	81788.1
5.980	81802.1
5.985	81817.1
5.990	81820.1
5.995	81804.1
6.000	81788.1
6.005	81785.1
6.010	81775.2
6.015	81775.2
6.020	81765.2
6.025	81753.2
6.030	81749.2
6.035	81726.2
6.040	81707.2
6.045	81698.2
6.050	81727.2
6.055	81708.2
6.060	81684.2
6.065	81678.2
6.070	81664.2
6.075	81645.3
6.080	81628.3
6.085	81613.3
6.090	81590.3
6.095	81574.3
6.100	81538.3
6.105	81505.4
6.110	81490.4
6.115	81521.4
6.120	81523.4
6.125	81513.4
6.130	81527.3
6.135	81535.3
6.140	81545.3
6.145	81538.3
6.150	81543.3
6.155	81559.3
6.160	81567.3
6.165	81592.3
6.170	81577.3
6.175	81586.3
6.180	81622.3
6.185	81644.3
6.190	81655.3
6.195	81670.2
6.200	81681.2
6.205	81695.2
6.210	81696.2
6.215	81714.2
6.220	81712.2
6.225	81719.2
6.230	81733.2
6.235	81719.2
6.240	81696.2
6.245	81718.2
6.250	81737.2
6.255	81749.2
6.260	81750.2
6.265	81759.2
6.270	81762.2
6.275	81753.2
6.280	81747.2
6.285	81739.2
6.290	81745.2
6.295	81747.2
6.300	81748.2
6.305	81731.2
6.310	81736.2
6.315	81763.2
6.320	81761.2
6.325	81763.2
6.330	81774.2
6.335	81775.2
6.340	81772.2
6.345	81770.2
6.350	81773.2
6.355	81768.2
6.360	81777.2
6.365	81783.2
6.370	81750.2
6.375	81744.2
6.380	81780.2
6.385	81780.2
6.390	81774.2
6.395	81778.2
6.400	81770.2
6.405	81760.2
6.410	81760.2
6.415	81748.2
6.420	81745.2
6.425	81756.2
6.430	81749.2
6.435	81734.2
6.440	81716.2
6.445	81745.2
6.450	81762.2
6.455	81776.2
6.460	81763.2
6.465	81765.2
6.470	81753.2
6.475	81761.2
6.480	81753.2
6.485	81755.2
6.490	81752.2
6.495	81757.2
6.500	81736.2
6.505	81730.2
6.510	81724.2
6.515	81754.2
6.520	81749.2
6.525	81754.2
6.530	81750.2
6.535	81756.2
6.540	81759.2
6.545	81743.2
6.550	81745.2
6.555	81747.2
6.560	81753.2
6.565	81753.2
6.570	81722.2
6.575	81708.2
6.580	81741.2
6.585	81747.2
6.590	81764.2
6.595	81768.2
6.600	81754.2
6.605	81752.2
6.610	81764.2
6.615	81772.2
6.620	81788.2
6.625	81802.2
6.630	81786.2
6.635	81757.2
6.640	81758.2
6.645	81784.2
6.650	81807.2
6.655	81825.2
6.660	81820.2
6.665	81822.2
6.670	81814.2
6.675	81817.2
6.680	81814.2
6.685	81828.2
6.690	81839.2
6.695	81858.1
6.700	81829.2
6.705	81819.2
6.710	81838.2
6.715	81877.1
6.720	81888.1
6.725	81906.1
6.730	81913.1
6.735	81918.1
6.740	81929.1
6.745	81931.1
6.750	81939.1
6.755	81944.1
6.760	81952.1
6.765	81947.1
6.770	81938.1
6.775	81933.1
6.780	81954.1
6.785	81962.1
6.790	81963.1
6.795	81962.1
6.800	81960.1
6.805	81960.1
6.810	81969.1
6.815	81972.1
6.820	81957.1
6.825	81970.1
6.830	81972.1
6.835	81946.1
6.840	81929.1
6.845	81934.1
6.850	81949.1
6.855	81963.1
6.860	81968.1
6.865	81964.1
6.870	81948.1
6.875	81942.1
6.880	81935.1
6.885	81941.1
6.890	81948.1
6.895	81959.1
6.900	81940.1
6.905	81926.1
6.910	81936.1
6.915	81973.1
6.920	81976.1
6.925	81979.1
6.930	81987.1
6.935	81987.1
6.940	81987.1
6.945	81993.0
6.950	81987.1
6.955	81999.0
6.960	82014.0
6.965	82005.0
6.970	81976.1
6.975	81973.1
6.980	81997.1
6.985	82003.0
6.990	82008.0
6.995	82007.0
7.000	82015.0
7.005	82015.0
7.010	82007.0
7.015	82005.0
7.020	82001.1
7.025	82006.0
7.030	82005.0
7.035	81978.1
7.040	81962.1
7.045	81992.1
7.050	82003.1
7.055	82000.1
7.060	81993.1
7.065	81993.1
7.070	81983.1
7.075	81992.1
7.080	81982.1
7.085	81994.1
7.090	82000.1
7.095	82010.0
7.100	81979.1
7.105	81954.1
7.110	81955.1
7.115	81979.1
7.120	81986.1
7.125	81985.1
7.130	81988.1
7.135	81975.1
7.140	81958.1
7.145	81961.1
7.150	81947.1
7.155	81947.1
7.160	81939.1
7.165	81932.1
7.170	81898.1
7.175	81898.1
7.180	81929.1
7.185	81935.1
7.190	81929.1
7.195	81931.1
7.200	81939.1
7.205	81928.1
7.210	81927.1
7.215	81926.1
7.220	81931.1
7.225	81937.1
7.230	81939.1
7.235	81917.1
7.240	81901.1
7.245	81916.1
7.250	81927.1
7.255	81935.1
7.260	81931.1
7.265	81923.1
7.270	81918.1
7.275	81910.2
7.280	81908.2
7.285	81897.2
7.290	81884.2
7.295	81881.2
7.300	81857.2
7.305	81839.2
7.310	81840.2
7.315	81858.2
7.320	81855.2
7.325	81840.2
7.330	81831.2
7.335	81840.2
7.340	81838.2
7.345	81844.2
7.350	81844.2
7.355	81853.2
7.360	81847.2
7.365	81838.2
7.370	81821.2
7.375	81810.2
7.380	81834.2
7.385	81828.2
7.390	81826.2
7.395	81824.2
7.400	81818.2
7.405	81813.2
7.410	81786.3
7.415	81783.3
7.420	81760.3
7.425	81759.3
7.430	81736.3
7.435	81696.3
7.440	81668.3
7.445	81674.3
7.450	81665.3
7.455	81650.4
7.460	81629.4
7.465	81611.4
7.470	81587.4
7.475	81572.4
7.480	81543.4
7.485	81521.5
7.490	81504.5
7.495	81489.5
7.500	81444.5
7.505	81414.5
7.510	81412.5
7.515	81407.6
7.520	81402.6
7.525	81393.6
7.530	81364.6
7.535	81347.6
7.540	81326.6
7.545	81307.6
7.550	81291.7
7.555	81277.7
7.560	81258.7
7.565	81214.7
7.570	81177.7
7.575	81181.7
7.580	81197.7
7.585	81210.7
7.590	81219.7
7.595	81233.7
7.600	81236.7
7.605	81253.7
7.610	81253.7
7.615	81273.7
7.620	81292.7
7.625	81303.7
7.630	81312.6
7.635	81315.6
7.640	81330.6
7.645	81391.6
7.650	81438.6
7.655	81463.5
7.660	81483.5
7.665	81507.5
7.670	81524.5
7.675	81547.5
7.680	81575.5
7.685	81608.4
7.690	81621.4
7.695	81644.4
7.700	81651.4
7.705	81654.4
7.710	81684.4
7.715	81738.3
7.720	81742.3
7.725	81752.3
7.730	81760.3
7.735	81774.3
7.740	81783.3
7.745	81785.3
7.750	81799.3
7.755	81805.3
7.760	81821.3
7.765	81808.3
7.770	81805.3
7.775	81818.3
7.780	81851.3
7.785	81868.3
7.790	81875.3
7.795	81872.3
7.800	81867.3
7.805	81877.3
7.810	81871.3
7.815	81875.3
7.820	81880.2
7.825	81879.3
7.830	81858.3
7.835	81840.3
7.840	81846.3
7.845	81860.3
7.850	81863.3
7.855	81853.3
7.860	81816.3
7.865	81797.3
7.870	81770.3
7.875	81749.4
7.880	81738.4
7.885	81738.4
7.890	81731.4
7.895	81733.4
7.900	81719.4
7.905	81742.4
7.910	81798.3
7.915	81877.3
7.920	81903.3
7.925	81927.2
7.930	81928.2
7.935	81930.2
7.940	81931.2
7.945	81944.2
7.950	81946.2
7.955	81954.2
7.960	81952.2
7.965	81931.2
7.970	81913.3
7.975	81920.3
7.980	81962.2
7.985	81960.2
7.990	81950.2
7.995	81968.2
8.000	81963.2
8.005	81972.2
8.010	81965.2
8.015	81964.2
8.020	81961.2
8.025	81968.2
8.030	81963.2
8.035	81933.3
8.040	81908.3
8.045	81933.3
8.050	81935.3
8.055	81935.3
8.060	81923.3
8.065	81922.3
8.070	81902.3
8.075	81889.3
8.080	81882.3
8.085	81900.3
8.090	81906.3
8.095	81929.3
8.100	81910.3
8.105	81906.3
8.110	81923.3
8.115	81948.3
8.120	81949.3
8.125	81949.3
8.130	81939.3
8.135	81955.3
8.140	81962.3
8.145	81959.3
8.150	81963.3
8.155	81970.3
8.160	81962.3
8.165	81954.3
8.170	81935.3
8.175	81930.3
8.180	81962.3
8.185	81962.3
8.190	81958.3
8.195	81953.3
8.200	81958.3
8.205	81945.3
8.210	81933.3
8.215	81941.3
8.220	81928.3
8.225	81926.3
8.230	81914.3
8.235	81893.3
8.240	81877.4
8.245	81906.3
8.250	81904.3
8.255	81903.3
8.260	81895.4
8.265	81899.4
8.270	81890.4
8.275	81892.4
8.280	81889.4
8.285	81886.4
8.290	81890.4
8.295	81891.4
8.300	81861.4
8.305	81859.4
8.310	81865.4
8.315	81872.4
8.320	81868.4
8.325	81870.4
8.330	81860.4
8.335	81859.4
8.340	81854.4
8.345	81861.4
8.350	81856.4
8.355	81862.4
8.360	81855.4
8.365	81845.4
8.370	81823.4
8.375	81831.4
8.380	81854.4
8.385	81858.4
8.390	81854.4
8.395	81852.4
8.400	81852.4
8.405	81843.4
8.410	81845.4
8.415	81846.5
8.420	81851.4
8.425	81865.4
8.430	81870.4
8.435	81836.5
8.440	81823.5
8.445	81855.5
8.450	81856.5
8.455	81853.5
8.460	81861.5
8.465	81870.5
8.470	81870.5
8.475	81877.5
8.480	81877.5
8.485	81888.4
8.490	81893.4
8.495	81892.4
8.500	81860.5
8.505	81854.5
8.510	81869.5
8.515	81884.5
8.520	81888.5
8.525	81896.5
8.530	81895.5
8.535	81902.5
8.540	81899.5
8.545	81909.5
8.550	81895.5
8.555	81907.5
8.560	81914.5
8.565	81902.5
8.570	81904.5
8.575	81906.5
8.580	81924.5
8.585	81930.5
8.590	81925.5
8.595	81921.5
8.600	81905.5
8.605	81910.5
8.610	81905.5
8.615	81899.5
8.620	81910.5
8.625	81907.5
8.630	81906.5
8.635	81896.5
8.640	81894.5
8.645	81909.5
8.650	81907.5
8.655	81895.5
8.660	81893.5
8.665	81895.5
8.670	81888.6
8.675	81889.6
8.680	81889.6
8.685	81902.6
8.690	81884.6
8.695	81895.6
8.700	81864.6
8.705	81855.6
8.710	81879.6
8.715	81890.6
8.720	81883.6
8.725	81893.6
8.730	81897.6
8.735	81899.6
8.740	81904.6
8.745	81899.6
8.750	81887.6
8.755	81896.6
8.760	81899.6
8.765	81872.6
8.770	81850.7
8.775	81866.6
8.780	81870.6
8.785	81850.7
8.790	81754.7
8.795	81684.8
8.800	81718.8
8.805	81796.7
8.810	81810.7
8.815	81774.7
8.820	81740.8
8.825	81775.8
8.830	81821.7
8.835	81822.7
8.840	81819.7
8.845	81845.7
8.850	81850.7
8.855	81861.7
8.860	81851.7
8.865	81843.7
8.870	81839.8
8.875	81840.8
8.880	81833.8
8.885	81819.8
8.890	81817.8
8.895	81808.8
8.900	81767.8
8.905	81759.8
8.910	81789.8
8.915	81806.8
8.920	81792.8
8.925	81799.8
8.930	81810.8
8.935	81814.8
8.940	81801.9
8.945	81815.9
8.950	81806.9
8.955	81808.9
8.960	81805.9
8.965	81790.9
8.970	81780.9
8.975	81790.9
8.980	81804.9
8.985	81805.9
8.990	81800.9
8.995	81812.9
9.000	81809.9
9.005	81806.9
9.010	81803.0
9.015	81807.0
9.020	81807.0
9.025	81813.0
9.030	81796.0
9.035	81777.0
9.040	81770.0
9.045	81820.0
9.050	81814.0
9.055	81805.0
9.060	81807.0
9.065	81821.0
9.070	81806.0
9.075	81783.1
9.080	81792.1
9.085	81811.1
9.090	81820.1
9.095	81825.1
9.100	81795.1
9.105	81769.1
9.110	81791.1
9.115	81813.1
9.120	81802.1
9.125	81819.1
9.130	81814.2
9.135	81821.2
9.140	81813.2
9.145	81823.2
9.150	81818.2
9.155	81813.2
9.160	81826.2
9.165	81813.2
9.170	81786.3
9.175	81811.3
9.180	81831.3
9.185	81840.3
9.190	81824.3
9.195	81829.3
9.200	81820.3
9.205	81821.4
9.210	81829.4
9.215	81828.4
9.220	81825.4
9.225	81834.4
9.230	81824.4
9.235	81804.5
9.240	81790.5
9.245	81822.5
9.250	81817.5
9.255	81813.5
9.260	81810.6
9.265	81812.6
9.270	81822.6
9.275	81819.6
9.280	81796.7
9.285	81807.7
9.290	81800.7
9.295	81797.8
9.300	81773.8
9.305	81766.9
9.310	81778.9
9.315	81789.9
9.320	81776.0
9.325	81780.0
9.330	81791.0
9.335	81794.1
9.340	81784.1
9.345	81800.1
9.350	81787.2
9.355	81790.3
9.360	81805.3
9.365	81778.4
9.370	81748.5
9.375	81751.5
9.380	81743.6
9.385	81717.7
9.390	81697.8
9.395	81625.0
9.400	81556.2
9.405	81519.3
9.410	81334.7
9.415	81317.9
9.420	81328.1
9.425	81065.6
9.430	80577.2
9.435	80189.7
9.440	80179.9
9.445	80433.9
9.450	80675.9
9.455	80857.8
9.460	80930.8
9.465	80874.8
9.470	80769.7
9.475	80738.6
9.480	80825.2
9.485	80963.7
9.490	81090.1
9.495	81221.4
9.500	81302.5
9.505	81402.7
9.510	81534.0
9.515	81641.5
9.520	81695.2
9.525	81731.0
9.530	81769.9
9.535	81767.8
9.540	81757.8
9.545	81762.8
9.550	81766.8
9.555	81762.8
9.560	81767.8
9.565	81745.8
9.570	81734.8
9.575	81744.8
9.580	81767.8
9.585	81768.8
9.590	81766.8
9.595	81761.8
9.600	81755.8
9.605	81758.8
9.610	81755.8
9.615	81771.8
9.620	81783.7
9.625	81788.7
9.630	81772.8
9.635	81751.8
9.640	81749.8
9.645	81788.7
9.650	81786.7
9.655	81782.7
9.660	81779.7
9.665	81777.7
9.670	81778.7
9.675	81781.7
9.680	81782.7
9.685	81791.7
9.690	81778.7
9.695	81786.7
9.700	81753.8
9.705	81745.8
9.710	81782.7
9.715	81786.7
9.720	81792.7
9.725	81800.7
9.730	81779.7
9.735	81780.7
9.740	81784.7
9.745	81779.7
9.750	81785.7
9.755	81798.7
9.760	81807.7
9.765	81779.7
9.770	81756.8
9.775	81767.8
9.780	81792.7
9.785	81789.7
9.790	81792.7
9.795	81802.7
9.800	81792.7
9.805	81788.7
9.810	81793.7
9.815	81805.7
9.820	81798.7
9.825	81798.7
9.830	81771.7
9.835	81745.8
9.840	81755.8
9.845	81783.7
9.850	81781.7
9.855	81779.7
9.860	81769.7
9.865	81780.7
9.870	81779.7
9.875	81779.7
9.880	81773.7
9.885	81781.7
9.890	81780.7
9.895	81770.7
9.900	81737.8
9.905	81735.8
9.910	81758.8
9.915	81759.8
9.920	81766.7
9.925	81761.8
9.930	81760.8
9.935	81751.8
9.940	81746.8
9.945	81738.8
9.950	81728.8
9.955	81728.8
9.960	81720.8
9.965	81691.8
9.970	81674.8
9.975	81698.8
9.980	81715.8
9.985	81702.8
9.990	81692.8
9.995	81692.8
10.000	81689.8
10.005	81691.8
10.010	81683.8
10.015	81686.8
10.020	81696.8
10.025	81690.8
10.030	81681.8
10.035	81646.8
10.040	81643.8
10.045	81664.8
10.050	81661.8
10.055	81671.8
10.060	81670.8
10.065	81662.8
10.070	81655.8
10.075	81658.8
10.080	81660.8
10.085	81650.8
10.090	81637.8
10.095	81622.9
10.100	81578.9
10.105	81568.9
10.110	81604.9
10.115	81613.9
10.120	81587.9
10.125	81574.9
10.130	81557.9
10.135	81580.9
10.140	81593.9
10.145	81595.9
10.150	81601.9
10.155	81615.9
10.160	81612.9
10.165	81591.9
10.170	81562.9
10.175	81580.9
10.180	81588.9
10.185	81586.9
10.190	81587.9
10.195	81592.9
10.200	81567.9
10.205	81570.9
10.210	81555.9
10.215	81566.9
10.220	81560.9
10.225	81572.9
10.230	81543.9
10.235	81538.9
10.240	81542.9
10.245	81565.9
10.250	81562.9
10.255	81561.9
10.260	81554.9
10.265	81549.9
10.270	81546.9
10.275	81540.9
10.280	81536.9
10.285	81547.9
10.290	81553.9
10.295	81562.9
10.300	81542.9
10.305	81531.9
10.310	81552.9
10.315	81566.9
10.320	81571.9
10.325	81564.9
10.330	81573.9
10.335	81579.9
10.340	81567.9
10.345	81573.9
10.350	81587.9
10.355	81588.9
10.360	81596.9
10.365	81571.9
10.370	81561.9
10.375	81581.9
10.380	81603.9
10.385	81613.8
10.390	81610.9
10.395	81620.8
10.400	81628.8
10.405	81629.8
10.410	81615.8
10.415	81621.8
10.420	81623.8
10.425	81630.8
10.430	81612.8
10.435	81611.8
10.440	81614.8
10.445	81640.8
10.450	81650.8
10.455	81647.8
10.460	81650.8
10.465	81658.8
10.470	81660.8
10.475	81657.8
10.480	81660.8
10.485	81676.8
10.490	81684.8
10.495	81673.8
10.500	81649.8
10.505	81651.8
10.510	81673.8
10.515	81673.8
10.520	81662.8
10.525	81662.8
10.530	81666.8
10.535	81664.8
10.540	81660.8
10.545	81667.8
10.550	81677.8
10.555	81684.8
10.560	81684.8
10.565	81671.8
10.570	81661.8
10.575	81680.8
10.580	81718.8
10.585	81724.8
10.590	81718.8
10.595	81722.8
10.600	81718.8
10.605	81717.8
10.610	81711.8
10.615	81724.8
10.620	81718.8
10.625	81717.8
10.630	81704.8
10.635	81682.8
10.640	81687.8
10.645	81720.8
10.650	81722.8
10.655	81722.8
10.660	81729.8
10.665	81733.7
10.670	81729.8
10.675	81737.7
10.680	81733.7
10.685	81751.7
10.690	81746.7
10.695	81739.7
10.700	81709.8
10.705	81702.8
10.710	81720.8
10.715	81729.7
10.720	81728.7
10.725	81721.8
10.730	81721.8
10.735	81734.7
10.740	81734.7
10.745	81737.7
10.750	81743.7
10.755	81734.7
10.760	81731.7
10.765	81711.8
10.770	81697.8
10.775	81705.8
10.780	81738.7
10.785	81732.7
10.790	81731.7
10.795	81735.7
10.800	81732.7
10.805	81741.7
10.810	81728.7
10.815	81729.7
10.820	81729.7
10.825	81739.7
10.830	81717.8
10.835	81709.8
10.840	81715.8
10.845	81742.7
10.850	81739.7
10.855	81744.7
10.860	81749.7
10.865	81753.7
10.870	81748.7
10.875	81750.7
10.880	81747.7
10.885	81752.7
10.890	81744.7
10.895	81733.7
10.900	81718.7
10.905	81705.8
10.910	81736.7
10.915	81748.7
10.920	81731.7
10.925	81735.7
10.930	81731.7
10.935	81736.7
10.940	81741.7
10.945	81744.7
10.950	81747.7
10.955	81746.7
10.960	81751.7
10.965	81718.7
10.970	81695.8
10.975	81718.7
10.980	81739.7
10.985	81741.7
10.990	81733.7
10.995	81738.7
11.000	81733.7
11.005	81730.7
11.010	81724.7
11.015	81720.7
11.020	81713.7
11.025	81721.7
11.030	81687.8
11.035	81680.8
11.040	81690.8
11.045	81712.7
11.050	81689.8
11.055	81695.8
11.060	81690.8
11.065	81687.8
11.070	81689.8
11.075	81694.8
11.080	81687.8
11.085	81700.8
11.090	81703.8
11.095	81698.8
11.100	81680.8
11.105	81674.8
11.110	81702.7
11.115	81711.7
11.120	81711.7
11.125	81709.7
11.130	81709.7
11.135	81709.7
11.140	81703.8
11.145	81710.7
11.150	81702.8
11.155	81700.7
11.160	81694.8
11.165	81670.8
11.170	81652.8
11.175	81676.8
11.180	81678.8
11.185	81675.8
11.190	81666.8
11.195	81664.8
11.200	81660.8
11.205	81652.8
11.210	81638.8
11.215	81645.8
11.220	81648.8
11.225	81658.8
11.230	81622.8
11.235	81607.8
11.240	81610.8
11.245	81631.8
11.250	81638.8
11.255	81641.8
11.260	81644.8
11.265	81644.8
11.270	81640.8
11.275	81644.8
11.280	81638.8
11.285	81633.8
11.290	81625.8
11.295	81602.8
11.300	81578.8
11.305	81580.8
11.310	81610.8
11.315	81630.8
11.320	81626.8
11.325	81625.8
11.330	81623.8
11.335	81621.8
11.340	81610.8
11.345	81614.8
11.350	81618.8
11.355	81629.8
11.360	81625.8
11.365	81605.8
11.370	81578.8
11.375	81610.8
11.380	81627.8
11.385	81620.8
11.390	81626.8
11.395	81621.8
11.400	81613.8
11.405	81621.8
11.410	81626.8
11.415	81620.8
11.420	81624.8
11.425	81621.8
11.430	81599.8
11.435	81583.8
11.440	81605.8
11.445	81612.8
11.450	81619.8
11.455	81616.8
11.460	81612.8
11.465	81623.8
11.470	81626.8
11.475	81624.8
11.480	81631.8
11.485	81638.8
11.490	81630.8
11.495	81611.8
11.500	81610.8
11.505	81608.8
11.510	81641.8
11.515	81645.8
11.520	81658.8
11.525	81652.8
11.530	81638.8
11.535	81642.8
11.540	81635.8
11.545	81654.8
11.550	81651.8
11.555	81658.8
11.560	81642.8
11.565	81619.8
11.570	81606.8
11.575	81653.8
11.580	81647.8
11.585	81649.8
11.590	81654.8
11.595	81646.8
11.600	81640.8
11.605	81647.8
11.610	81645.8
11.615	81653.8
11.620	81655.8
11.625	81661.8
11.630	81632.8
11.635	81616.8
11.640	81625.8
11.645	81654.8
11.650	81658.8
11.655	81656.8
11.660	81664.8
11.665	81658.8
11.670	81649.8
11.675	81648.8
11.680	81652.8
11.685	81656.8
11.690	81646.8
11.695	81634.8
11.700	81629.8
11.705	81631.8
11.710	81661.8
11.715	81650.8
11.720	81660.8
11.725	81653.8
11.730	81652.8
11.735	81663.8
11.740	81651.8
11.745	81659.8
11.750	81656.8
11.755	81667.8
11.760	81647.8
11.765	81630.8
11.770	81625.8
11.775	81645.8
11.780	81648.8
11.785	81659.8
11.790	81651.8
11.795	81648.8
11.800	81647.8
11.805	81643.8
11.810	81651.8
11.815	81653.8
11.820	81652.8
11.825	81659.8
11.830	81634.8
11.835	81612.8
11.840	81619.8
11.845	81647.8
11.850	81638.8
11.855	81633.8
11.860	81617.8
11.865	81621.8
11.870	81619.8
11.875	81629.8
11.880	81624.8
11.885	81622.8
11.890	81636.8
11.895	81622.8
11.900	81604.8
11.905	81608.8
11.910	81633.8
11.915	81638.8
11.920	81645.8
11.925	81619.8
11.930	81615.8
11.935	81623.8
11.940	81620.8
11.945	81615.8
11.950	81617.8
11.955	81621.8
11.960	81612.8
11.965	81593.8
11.970	81597.8
11.975	81616.8
11.980	81618.8
11.985	81610.8
11.990	81604.8
11.995	81608.8
12.000	81607.8
12.005	81610.8
12.010	81611.8
12.015	81610.8
12.020	81607.8
12.025	81623.8
12.030	81600.8
12.035	81584.8
12.040	81583.8
12.045	81624.8
12.050	81620.8
12.055	81616.8
12.060	81612.8
12.065	81603.8
12.070	81600.8
12.075	81593.8
12.080	81586.8
12.085	81597.8
12.090	81608.8
12.095	81587.8
12.100	81559.8
12.105	81571.8
12.110	81592.8
12.115	81595.8
12.120	81592.8
12.125	81582.8
12.130	81582.8
12.135	81592.8
12.140	81590.8
12.145	81593.8
12.150	81595.8
12.155	81599.8
12.160	81587.8
12.165	81575.8
12.170	81559.8
12.175	81584.8
12.180	81602.8
12.185	81606.8
12.190	81604.8
12.195	81607.8
12.200	81604.8
12.205	81613.8
12.210	81610.8
12.215	81611.8
12.220	81608.8
12.225	81608.8
12.230	81579.8
12.235	81583.8
12.240	81598.8
12.245	81609.8
12.250	81598.8
12.255	81608.8
12.260	81589.8
12.265	81596.8
12.270	81596.8
12.275	81611.8
12.280	81608.8
12.285	81612.8
12.290	81620.8
12.295	81616.8
12.300	81585.8
12.305	81594.8
12.310	81624.8
12.315	81625.8
12.320	81636.8
12.325	81629.8
12.330	81624.8
12.335	81629.8
12.340	81636.8
12.345	81636.8
12.350	81637.8
12.355	81635.8
12.360	81629.8
12.365	81624.8
12.370	81618.8
12.375	81648.7
12.380	81659.7
12.385	81654.7
12.390	81651.7
12.395	81651.7
12.400	81655.7
12.405	81668.7
12.410	81658.7
12.415	81658.7
12.420	81675.7
12.425	81691.7
12.430	81656.7
12.435	81646.8
12.440	81677.7
12.445	81696.7
12.450	81694.7
12.455	81699.7
12.460	81705.7
12.465	81709.7
12.470	81705.7
12.475	81708.7
12.480	81708.7
12.485	81711.7
12.490	81720.7
12.495	81702.7
12.500	81673.7
12.505	81688.7
12.510	81708.7
12.515	81713.7
12.520	81719.7
12.525	81726.7
12.530	81724.7
12.535	81723.7
12.540	81733.7
12.545	81730.7
12.550	81743.7
12.555	81748.7
12.560	81746.7
12.565	81725.7
12.570	81720.7
12.575	81764.7
12.580	81762.7
12.585	81778.6
12.590	81773.6
12.595	81763.7
12.600	81765.7
12.605	81769.7
12.610	81776.6
12.615	81780.6
12.620	81791.6
12.625	81777.6
12.630	81760.7
12.635	81749.7
12.640	81765.7
12.645	81797.6
12.650	81800.6
12.655	81801.6
12.660	81793.6
12.665	81796.6
12.670	81795.6
12.675	81800.6
12.680	81807.6
12.685	81813.6
12.690	81817.6
12.695	81804.6
12.700	81778.6
12.705	81788.6
12.710	81812.6
12.715	81823.6
12.720	81814.6
12.725	81819.6
12.730	81811.6
12.735	81826.6
12.740	81818.6
12.745	81821.6
12.750	81822.6
12.755	81833.6
12.760	81809.6
12.765	81802.6
12.770	81800.6
12.775	81839.6
12.780	81838.6
12.785	81847.6
12.790	81845.6
12.795	81843.6
12.800	81840.6
12.805	81840.6
12.810	81845.6
12.815	81849.6
12.820	81864.6
12.825	81858.6
12.830	81833.6
12.835	81833.6
12.840	81862.6
12.845	81875.6
12.850	81873.6
12.855	81886.6
12.860	81874.6
12.865	81884.5
12.870	81875.6
12.875	81885.5
12.880	81890.5
12.885	81884.5
12.890	81890.5
12.895	81862.6
12.900	81841.6
12.905	81865.6
12.910	81893.5
12.915	81894.5
12.920	81896.5
12.925	81904.5
12.930	81886.5
12.935	81894.5
12.940	81898.5
12.945	81893.5
12.950	81898.5
12.955	81906.5
12.960	81893.5
12.965	81877.6
12.970	81865.6
12.975	81899.5
12.980	81910.5
12.985	81907.5
12.990	81899.5
12.995	81906.5
13.000	81914.5
13.005	81901.5
13.010	81907.5
13.015	81913.5
13.020	81915.5
13.025	81908.5
13.030	81880.5
13.035	81883.5
13.040	81905.5
13.045	81926.5
13.050	81923.5
13.055	81923.5
13.060	81920.5
13.065	81918.5
13.070	81922.5
13.075	81923.5
13.080	81924.5
13.085	81929.5
13.090	81941.5
13.095	81923.5
13.100	81899.5
13.105	81911.5
13.110	81933.5
13.115	81942.5
13.120	81949.5
13.125	81949.5
13.130	81938.5
13.135	81957.5
13.140	81947.5
13.145	81946.5
13.150	81941.5
13.155	81951.5
13.160	81928.5
13.165	81907.5
13.170	81905.5
13.175	81943.5
13.180	81939.5
13.185	81937.5
13.190	81938.5
13.195	81935.5
13.200	81923.5
13.205	81939.5
13.210	81937.5
13.215	81939.5
13.220	81942.5
13.225	81958.5
13.230	81921.5
13.235	81908.5
13.240	81936.5
13.245	81944.5
13.250	81950.5
13.255	81942.5
13.260	81935.5
13.265	81940.5
13.270	81930.5
13.275	81927.5
13.280	81931.5
13.285	81936.5
13.290	81930.5
13.295	81904.5
13.300	81887.5
13.305	81902.5
13.310	81911.5
13.315	81910.5
13.320	81913.5
13.325	81903.5
13.330	81902.5
13.335	81890.5
13.340	81888.5
13.345	81891.5
13.350	81910.5
13.355	81917.5
13.360	81880.5
13.365	81862.5
13.370	81867.5
13.375	81895.5
13.380	81896.5
13.385	81898.5
13.390	81887.5
13.395	81887.5
13.400	81878.5
13.405	81879.5
13.410	81874.5
13.415	81874.5
13.420	81866.5
13.425	81864.5
13.430	81831.6
13.435	81831.6
13.440	81851.5
13.445	81860.5
13.450	81855.5
13.455	81849.5
13.460	81841.6
13.465	81842.6
13.470	81827.6
13.475	81826.6
13.480	81833.6
13.485	81843.6
13.490	81832.6
13.495	81821.6
13.500	81813.6
13.505	81818.6
13.510	81835.6
13.515	81836.6
13.520	81840.6
13.525	81827.6
13.530	81826.6
13.535	81835.6
13.540	81826.6
13.545	81830.6
13.550	81834.6
13.555	81833.6
13.560	81808.6
13.565	81788.6
13.570	81782.6
13.575	81822.6
13.580	81824.6
13.585	81824.6
13.590	81816.6
13.595	81813.6
13.600	81807.6
13.605	81806.6
13.610	81804.6
13.615	81813.6
13.620	81822.6
13.625	81810.6
13.630	81788.6
13.635	81779.6
13.640	81808.6
13.645	81816.6
13.650	81817.6
13.655	81824.6
13.660	81814.6
13.665	81815.6
13.670	81804.6
13.675	81821.6
13.680	81807.6
13.685	81821.6
13.690	81810.6
13.695	81785.6
13.700	81781.6
13.705	81805.6
13.710	81816.6
13.715	81821.6
13.720	81826.6
13.725	81823.6
13.730	81818.6
13.735	81827.6
13.740	81818.6
13.745	81820.6
13.750	81823.6
13.755	81825.6
13.760	81811.6
13.765	81806.6
13.770	81810.6
13.775	81843.5
13.780	81843.5
13.785	81848.5
13.790	81849.5
13.795	81843.5
13.800	81847.5
13.805	81843.5
13.810	81853.5
13.815	81858.5
13.820	81847.5
13.825	81845.5
13.830	81826.5
13.835	81834.5
13.840	81861.5
13.845	81862.5
13.850	81865.5
13.855	81870.5
13.860	81869.5
13.865	81871.5
13.870	81867.5
13.875	81867.5
13.880	81874.5
13.885	81883.5
13.890	81880.5
13.895	81872.5
13.900	81857.5
13.905	81889.5
13.910	81901.5
13.915	81905.5
13.920	81907.5
13.925	81908.5
13.930	81900.5
13.935	81908.5
13.940	81907.5
13.945	81898.5
13.950	81915.5
13.955	81913.5
13.960	81877.5
13.965	81870.5
13.970	81886.5
13.975	81915.5
13.980	81909.5
13.985	81916.5
13.990	81906.5
13.995	81913.5
14.000	81908.5
14.005	81911.5
14.010	81914.5
14.015	81924.5
14.020	81927.5
14.025	81921.5
14.030	81892.5
14.035	81890.5
14.040	81930.5
14.045	81932.5
14.050	81927.5
14.055	81935.5
14.060	81932.5
14.065	81930.5
14.070	81929.5
14.075	81926.5
14.080	81915.5
14.085	81933.5
14.090	81920.5
14.095	81899.5
14.100	81878.5
14.105	81916.5
14.110	81912.5
14.115	81925.5
14.120	81917.5
14.125	81921.5
14.130	81916.5
14.135	81922.5
14.140	81914.5
14.145	81923.5
14.150	81926.5
14.155	81936.5
14.160	81919.5
14.165	81907.5
14.170	81896.5
14.175	81941.4
14.180	81938.4
14.185	81935.5
14.190	81937.4
14.195	81948.4
14.200	81936.4
14.205	81941.4
14.210	81925.5
14.215	81927.5
14.220	81933.5
14.225	81913.5
14.230	81893.5
14.235	81903.5
14.240	81937.4
14.245	81938.4
14.250	81932.5
14.255	81936.4
14.260	81927.5
14.265	81921.5
14.270	81931.5
14.275	81936.4
14.280	81918.5
14.285	81934.4
14.290	81946.4
14.295	81922.5
14.300	81903.5
14.305	81918.5
14.310	81935.4
14.315	81940.4
14.320	81934.4
14.325	81936.4
14.330	81939.4
14.335	81940.4
14.340	81929.4
14.345	81938.4
14.350	81937.4
14.355	81946.4
14.360	81919.5
14.365	81908.5
14.370	81899.5
14.375	81931.4
14.380	81934.4
14.385	81932.4
14.390	81918.5
14.395	81914.5
14.400	81917.5
14.405	81934.4
14.410	81921.5
14.415	81928.4
14.420	81928.4
14.425	81923.4
14.430	81898.5
14.435	81891.5
14.440	81938.4
14.445	81931.4
14.450	81926.4
14.455	81934.4
14.460	81921.4
14.465	81925.4
14.470	81926.4
14.475	81927.4
14.480	81924.4
14.485	81931.4
14.490	81920.4
14.495	81891.5
14.500	81887.5
14.505	81905.4
14.510	81917.4
14.515	81931.4
14.520	81922.4
14.525	81920.4
14.530	81904.5
14.535	81908.4
14.540	81917.4
14.545	81914.4
14.550	81917.4
14.555	81927.4
14.560	81900.5
14.565	81892.5
14.570	81893.5
14.575	81918.4
14.580	81914.4
14.585	81923.4
14.590	81918.4
14.595	81918.4
14.600	81908.4
14.605	81914.4
14.610	81913.4
14.615	81914.4
14.620	81910.4
14.625	81902.5
14.630	81875.5
14.635	81881.5
14.640	81905.4
14.645	81906.4
14.650	81900.5
14.655	81902.4
14.660	81894.5
14.665	81887.5
14.670	81897.5
14.675	81900.5
14.680	81902.4
14.685	81908.4
14.690	81911.4
14.695	81886.5
14.700	81866.5
14.705	81894.5
14.710	81899.4
14.715	81900.4
14.720	81892.5
14.725	81895.5
14.730	81893.5
14.735	81893.4
14.740	81887.5
14.745	81884.5
14.750	81895.4
14.755	81895.4
14.760	81863.5
14.765	81845.5
14.770	81852.5
14.775	81880.5
14.780	81879.5
14.785	81872.5
14.790	81854.5
14.795	81861.5
14.800	81854.5
14.805	81864.5
14.810	81867.5
14.815	81871.5
14.820	81866.5
14.825	81850.5
14.830	81816.5
14.835	81824.5
14.840	81856.5
14.845	81860.5
14.850	81840.5
14.855	81847.5
14.860	81837.5
14.865	81834.5
14.870	81839.5
14.875	81829.5
14.880	81825.5
14.885	81830.5
14.890	81811.5
14.895	81788.5
14.900	81781.5
14.905	81809.5
14.910	81808.5
14.915	81803.5
14.920	81783.5
14.925	81790.5
14.930	81793.5
14.935	81788.5
14.940	81782.5
14.945	81790.5
14.950	81784.5
14.955	81782.5
14.960	81758.5
14.965	81731.6
14.970	81753.5
14.975	81782.5
14.980	81779.5
14.985	81782.5
14.990	81777.5
14.995	81772.5
15.000	81767.5
15.005	81775.5
15.010	81774.5
15.015	81779.5
15.020	81774.5
15.025	81755.5
15.030	81747.5
15.035	81746.5
15.040	81766.5
15.045	81783.5
15.050	81783.5
15.055	81782.5
15.060	81779.5
15.065	81784.5
15.070	81783.5
15.075	81786.5
15.080	81795.5
15.085	81809.5
15.090	81810.5
15.095	81782.5
15.100	81764.5
15.105	81792.5
15.110	81809.5
15.115	81812.5
15.120	81811.5
15.125	81810.5
15.130	81808.5
15.135	81804.5
15.140	81807.5
15.145	81819.5
15.150	81822.5
15.155	81829.5
15.160	81802.5
15.165	81780.5
15.170	81794.5
15.175	81815.5
15.180	81817.5
15.185	81816.5
15.190	81815.5
15.195	81820.5
15.200	81813.5
15.205	81815.5
15.210	81816.5
15.215	81831.5
15.220	81837.5
15.225	81820.5
15.230	81789.5
15.235	81795.5
15.240	81817.5
15.245	81817.5
15.250	81818.5
15.255	81827.5
15.260	81818.5
15.265	81794.5
15.270	81815.5
15.275	81811.5
15.280	81815.5
15.285	81803.5
15.290	81789.5
15.295	81769.5
15.300	81753.5
15.305	81782.5
15.310	81800.5
15.315	81788.5
15.320	81783.5
15.325	81786.5
15.330	81774.5
15.335	81779.5
15.340	81787.5
15.345	81777.5
15.350	81793.5
15.355	81785.5
15.360	81757.5
15.365	81738.5
15.370	81740.5
15.375	81756.5
15.380	81763.5
15.385	81769.5
15.390	81757.5
15.395	81753.5
15.400	81748.5
15.405	81744.5
15.410	81741.5
15.415	81747.5
15.420	81755.5
15.425	81724.5
15.430	81700.6
15.435	81702.6
15.440	81727.5
15.445	81731.5
15.450	81719.5
15.455	81722.5
15.460	81704.6
15.465	81709.5
15.470	81709.5
15.475	81713.5
15.480	81708.5
15.485	81721.5
15.490	81716.5
15.495	81700.6
15.500	81679.6
15.505	81699.6
15.510	81705.5
15.515	81713.5
15.520	81704.5
15.525	81709.5
15.530	81706.5
15.535	81703.5
15.540	81704.5
15.545	81698.6
15.550	81691.6
15.555	81691.6
15.560	81661.6
15.565	81655.6
15.570	81676.6
15.575	81689.6
15.580	81690.6
15.585	81688.6
15.590	81695.6
15.595	81689.6
15.600	81695.6
15.605	81688.6
15.610	81687.6
15.615	81690.6
15.620	81694.5
15.625	81693.5
15.630	81666.6
15.635	81675.6
15.640	81707.5
15.645	81712.5
15.650	81706.5
15.655	81698.5
15.660	81704.5
15.665	81708.5
15.670	81702.5
15.675	81713.5
15.680	81711.5
15.685	81718.5
15.690	81703.5
15.695	81693.5
15.700	81682.5
15.705	81709.5
15.710	81706.5
15.715	81710.5
15.720	81703.5
15.725	81703.5
15.730	81703.5
15.735	81713.5
15.740	81707.5
15.745	81717.5
15.750	81730.5
15.755	81740.5
15.760	81715.5
15.765	81709.5
15.770	81722.5
15.775	81737.5
15.780	81737.5
15.785	81741.5
15.790	81745.5
15.795	81744.5
15.800	81748.5
15.805	81759.5
15.810	81752.5
15.815	81761.5
15.820	81749.5
15.825	81722.5
15.830	81710.5
15.835	81728.5
15.840	81750.5
15.845	81745.5
15.850	81749.5
15.855	81751.5
15.860	81745.5
15.865	81741.5
15.870	81741.5
15.875	81744.5
15.880	81757.5
15.885	81771.5
15.890	81757.5
15.895	81741.5
15.900	81738.5
15.905	81774.5
15.910	81770.5
15.915	81787.5
15.920	81771.5
15.925	81776.5
15.930	81773.5
15.935	81774.5
15.940	81766.5
15.945	81768.5
15.950	81761.5
15.955	81773.5
15.960	81744.5
15.965	81738.5
15.970	81773.5
15.975	81793.5
15.980	81778.5
15.985	81783.5
15.990	81778.5
15.995	81776.5
16.000	81775.5
16.005	81781.5
16.010	81773.5
16.015	81788.5
16.020	81787.5
16.025	81774.5
16.030	81750.5
16.035	81742.5
16.040	81780.5
16.045	81786.5
16.050	81782.5
16.055	81789.4
16.060	81783.5
16.065	81788.4
16.070	81788.4
16.075	81784.5
16.080	81779.5
16.085	81786.5
16.090	81778.5
16.095	81757.5
16.100	81749.5
16.105	81781.5
16.110	81773.5
16.115	81774.5
16.120	81774.5
16.125	81774.5
16.130	81768.5
16.135	81775.5
16.140	81766.5
16.145	81773.5
16.150	81771.5
16.155	81777.5
16.160	81749.5
16.165	81744.5
16.170	81748.5
16.175	81770.5
16.180	81760.5
16.185	81767.5
16.190	81759.5
16.195	81768.5
16.200	81763.5
16.205	81765.5
16.210	81754.5
16.215	81761.5
16.220	81755.5
16.225	81739.5
16.230	81714.5
16.235	81727.5
16.240	81750.5
16.245	81754.5
16.250	81761.5
16.255	81758.5
16.260	81753.5
16.265	81748.5
16.270	81760.5
16.275	81763.5
16.280	81762.5
16.285	81765.5
16.290	81756.5
16.295	81745.5
16.300	81738.5
16.305	81752.5
16.310	81753.5
16.315	81765.4
16.320	81754.5
16.325	81766.4
16.330	81763.4
16.335	81753.5
16.340	81750.5
16.345	81753.5
16.350	81752.5
16.355	81758.5
16.360	81710.5
16.365	81721.5
16.370	81738.5
16.375	81748.5
16.380	81733.5
16.385	81737.5
16.390	81732.5
16.395	81732.5
16.400	81732.5
16.405	81729.5
16.410	81719.5
16.415	81731.5
16.420	81736.5
16.425	81712.5
16.430	81697.5
16.435	81710.5
16.440	81731.5
16.445	81736.5
16.450	81721.5
16.455	81722.5
16.460	81730.5
16.465	81731.5
16.470	81724.5
16.475	81714.5
16.480	81715.5
16.485	81710.5
16.490	81696.5
16.495	81683.5
16.500	81676.5
16.505	81705.5
16.510	81704.5
16.515	81702.5
16.520	81698.5
16.525	81706.5
16.530	81697.5
16.535	81703.5
16.540	81706.5
16.545	81706.5
16.550	81712.5
16.555	81708.5
16.560	81696.5
16.565	81683.5
16.570	81701.5
16.575	81716.5
16.580	81710.5
16.585	81715.5
16.590	81719.5
16.595	81729.5
16.600	81717.5
16.605	81729.5
16.610	81724.5
16.615	81729.5
16.620	81724.5
16.625	81717.5
16.630	81686.5
16.635	81699.5
16.640	81730.5
16.645	81733.4
16.650	81721.5
16.655	81728.5
16.660	81721.5
16.665	81730.4
16.670	81728.4
16.675	81736.4
16.680	81734.4
16.685	81740.4
16.690	81726.4
16.695	81714.5
16.700	81711.5
16.705	81737.4
16.710	81744.4
16.715	81746.4
16.720	81739.4
16.725	81734.4
16.730	81727.4
16.735	81735.4
16.740	81724.4
16.745	81725.4
16.750	81722.4
16.755	81723.4
16.760	81680.5
16.765	81672.5
16.770	81698.5
16.775	81703.5
16.780	81691.5
16.785	81706.5
16.790	81691.5
16.795	81689.5
16.800	81681.5
16.805	81682.5
16.810	81688.5
16.815	81689.5
16.820	81686.5
16.825	81670.5
16.830	81644.5
16.835	81646.5
16.840	81675.5
16.845	81668.5
16.850	81659.5
16.855	81662.5
16.860	81646.5
16.865	81634.5
16.870	81625.5
16.875	81621.5
16.880	81608.5
16.885	81612.5
16.890	81596.5
16.895	81578.5
16.900	81570.5
16.905	81597.5
16.910	81580.5
16.915	81563.6
16.920	81565.5
16.925	81568.5
16.930	81556.6
16.935	81555.6
16.940	81552.6
16.945	81548.6
16.950	81540.6
16.955	81541.6
16.960	81500.6
16.965	81465.6
16.970	81492.6
16.975	81495.6
16.980	81492.6
16.985	81484.6
16.990	81467.6
16.995	81462.6
17.000	81452.6
17.005	81443.6
17.010	81466.6
17.015	81465.6
17.020	81466.6
17.025	81437.6
17.030	81431.6
17.035	81436.6
17.040	81450.6
17.045	81446.6
17.050	81441.6
17.055	81437.6
17.060	81443.6
17.065	81454.6
17.070	81459.6
17.075	81483.6
17.080	81494.6
17.085	81503.6
17.090	81476.6
17.095	81457.6
17.100	81443.6
17.105	81470.6
17.110	81491.6
17.115	81500.6
17.120	81504.6
17.125	81504.6
17.130	81503.6
17.135	81491.6
17.140	81513.6
17.145	81524.6
17.150	81530.6
17.155	81523.6
17.160	81510.6
17.165	81520.6
17.170	81545.5
17.175	81553.5
17.180	81541.5
17.185	81539.5
17.190	81523.6
17.195	81534.5
17.200	81542.5
17.205	81552.5
17.210	81548.5
17.215	81553.5
17.220	81554.5
17.225	81540.5
17.230	81531.5
17.235	81553.5
17.240	81562.5
17.245	81567.5
17.250	81564.5
17.255	81561.5
17.260	81566.5
17.265	81559.5
17.270	81555.5
17.275	81570.5
17.280	81570.5
17.285	81586.5
17.290	81561.5
17.295	81555.5
17.300	81547.5
17.305	81583.5
17.310	81578.5
17.315	81578.5
17.320	81567.5
17.325	81570.5
17.330	81568.5
17.335	81566.5
17.340	81553.5
17.345	81567.5
17.350	81569.5
17.355	81574.5
17.360	81545.5
17.365	81530.5
17.370	81547.5
17.375	81567.5
17.380	81572.5
17.385	81571.5
17.390	81561.5
17.395	81560.5
17.400	81563.5
17.405	81569.5
17.410	81566.5
17.415	81562.5
17.420	81556.5
17.425	81522.5
17.430	81511.5
17.435	81524.5
17.440	81543.5
17.445	81548.5
17.450	81545.5
17.455	81541.5
17.460	81527.5
17.465	81534.5
17.470	81525.5
17.475	81532.5
17.480	81543.5
17.485	81543.5
17.490	81526.5
17.495	81509.5
17.500	81502.5
17.505	81544.5
17.510	81556.5
17.515	81553.5
17.520	81552.5
17.525	81550.5
17.530	81553.5
17.535	81557.5
17.540	81559.5
17.545	81560.5
17.550	81561.5
17.555	81556.5
17.560	81544.5
17.565	81533.5
17.570	81550.5
17.575	81561.5
17.580	81563.5
17.585	81565.5
17.590	81559.5
17.595	81569.5
17.600	81577.5
17.605	81569.5
17.610	81565.5
17.615	81579.5
17.620	81578.5
17.625	81558.5
17.630	81552.5
17.635	81561.5
17.640	81564.5
17.645	81568.5
17.650	81566.5
17.655	81564.5
17.660	81565.5
17.665	81558.5
17.670	81547.5
17.675	81545.5
17.680	81563.5
17.685	81570.5
17.690	81538.5
17.695	81527.5
17.700	81529.5
17.705	81552.5
17.710	81558.5
17.715	81574.5
17.720	81563.5
17.725	81562.5
17.730	81559.5
17.735	81558.5
17.740	81564.5
17.745	81577.5
17.750	81575.5
17.755	81562.5
17.760	81537.5
17.765	81542.5
17.770	81566.5
17.775	81592.4
17.780	81591.4
17.785	81598.4
17.790	81587.4
17.795	81596.4
17.800	81603.4
17.805	81608.4
17.810	81601.4
17.815	81596.4
17.820	81610.4
17.825	81580.4
17.830	81583.4
17.835	81614.4
17.840	81609.4
17.845	81622.4
17.850	81618.4
17.855	81625.4
17.860	81633.4
17.865	81639.4
17.870	81635.4
17.875	81651.4
17.880	81658.4
17.885	81662.4
17.890	81637.4
17.895	81625.4
17.900	81632.4
17.905	81682.4
17.910	81691.3
17.915	81695.3
17.920	81686.4
17.925	81696.3
17.930	81704.3
17.935	81714.3
17.940	81722.3
17.945	81725.3
17.950	81718.3
17.955	81702.3
17.960	81688.3
17.965	81696.3
17.970	81734.3
17.975	81738.3
17.980	81733.3
17.985	81749.3
17.990	81755.3
17.995	81747.3
18.000	81749.3
18.005	81759.3
18.010	81763.3
18.015	81788.3
18.020	81780.3
18.025	81744.3
18.030	81738.3
18.035	81758.3
18.040	81780.3
18.045	81779.3
18.050	81773.3
18.055	81760.3
18.060	81755.3
18.065	81755.3
18.070	81758.3
18.075	81754.3
18.080	81743.3
18.085	81740.3
18.090	81722.3
18.095	81709.3
18.100	81721.3
18.105	81739.3
18.110	81744.3
18.115	81739.3
18.120	81725.3
18.125	81735.3
18.130	81725.3
18.135	81717.3
18.140	81699.3
18.145	81716.3
18.150	81723.3
18.155	81715.3
18.160	81692.3
18.165	81687.3
18.170	81694.3
18.175	81703.3
18.180	81711.3
18.185	81705.3
18.190	81698.3
18.195	81706.3
18.200	81685.3
18.205	81699.3
18.210	81704.3
18.215	81705.3
18.220	81700.3
18.225	81678.3
18.230	81660.3
18.235	81685.3
18.240	81710.3
18.245	81712.3
18.250	81701.3
18.255	81701.3
18.260	81692.3
18.265	81699.3
18.270	81698.3
18.275	81698.3
18.280	81706.3
18.285	81700.3
18.290	81675.3
18.295	81660.3
18.300	81647.3
18.305	81672.3
18.310	81680.3
18.315	81679.3
18.320	81680.3
18.325	81681.3
18.330	81680.3
18.335	81666.3
18.340	81651.3
18.345	81651.3
18.350	81674.3
18.355	81653.3
18.360	81632.3
18.365	81623.3
18.370	81648.3
18.375	81647.3
18.380	81637.3
18.385	81646.3
18.390	81654.3
18.395	81653.3
18.400	81654.3
18.405	81651.3
18.410	81649.3
18.415	81656.3
18.420	81647.3
18.425	81622.3
18.430	81614.3
18.435	81629.3
18.440	81658.3
18.445	81664.3
18.450	81662.3
18.455	81659.3
18.460	81653.3
18.465	81653.3
18.470	81636.3
18.475	81640.3
18.480	81648.3
18.485	81665.3
18.490	81621.3
18.495	81617.3
18.500	81608.3
18.505	81633.3
18.510	81631.3
18.515	81634.3
18.520	81628.3
18.525	81622.3
18.530	81606.3
18.535	81608.3
18.540	81610.3
18.545	81615.3
18.550	81620.3
18.555	81594.3
18.560	81567.4
18.565	81571.4
18.570	81600.3
18.575	81602.3
18.580	81596.3
18.585	81584.3
18.590	81565.3
18.595	81563.4
18.600	81559.4
18.605	81545.4
18.610	81555.4
18.615	81555.4
18.620	81531.4
18.625	81501.4
18.630	81486.4
18.635	81504.4
18.640	81511.4
18.645	81517.4
18.650	81518.4
18.655	81505.4
18.660	81485.4
18.665	81487.4
18.670	81486.4
18.675	81491.4
18.680	81493.4
18.685	81500.4
18.690	81486.4
18.695	81465.4
18.700	81468.4
18.705	81502.4
18.710	81494.4
18.715	81500.4
18.720	81500.4
18.725	81505.4
18.730	81489.4
18.735	81495.4
18.740	81489.4
18.745	81471.4
18.750	81458.4
18.755	81448.4
18.760	81427.4
18.765	81426.4
18.770	81473.4
18.775	81466.4
18.780	81449.4
18.785	81437.4
18.790	81436.4
18.795	81434.4
18.800	81441.4
18.805	81450.4
18.810	81440.4
18.815	81438.4
18.820	81433.4
18.825	81418.4
18.830	81415.4
18.835	81442.4
18.840	81437.4
18.845	81443.4
18.850	81440.4
18.855	81442.4
18.860	81448.4
18.865	81449.4
18.870	81430.4
18.875	81425.4
18.880	81440.4
18.885	81435.4
18.890	81420.4
18.895	81403.4
18.900	81407.4
18.905	81418.4
18.910	81414.4
18.915	81411.4
18.920	81400.4
18.925	81403.4
18.930	81383.4
18.935	81388.4
18.940	81384.4
18.945	81406.4
18.950	81421.4
18.955	81410.4
18.960	81355.4
18.965	81333.5
18.970	81338.5
18.975	81336.5
18.980	81333.5
18.985	81338.5
18.990	81327.5
18.995	81306.5
19.000	81274.5
19.005	81270.5
19.010	81268.5
19.015	81261.5
19.020	81249.5
19.025	81225.5
19.030	81217.5
19.035	81271.5
19.040	81289.5
19.045	81295.5
19.050	81270.5
19.055	81274.5
19.060	81272.5
19.065	81264.5
19.070	81252.5
19.075	81263.5
19.080	81285.5
19.085	81322.4
19.090	81308.5
19.095	81324.4
19.100	81336.4
19.105	81379.4
19.110	81406.4
19.115	81418.4
19.120	81399.4
19.125	81395.4
19.130	81392.4
19.135	81399.4
19.140	81395.4
19.145	81403.4
19.150	81397.4
19.155	81363.4
19.160	81365.4
19.165	81377.4
19.170	81412.4
19.175	81413.3
19.180	81420.3
19.185	81431.3
19.190	81432.3
19.195	81439.3
19.200	81429.3
19.205	81434.3
19.210	81437.3
19.215	81447.3
19.220	81429.3
19.225	81411.3
19.230	81380.4
19.235	81404.3
19.240	81420.3
19.245	81419.3
19.250	81407.3
19.255	81420.3
19.260	81414.3
19.265	81422.3
19.270	81424.3
19.275	81426.3
19.280	81399.3
19.285	81391.3
19.290	81357.4
19.295	81344.4
19.300	81344.4
19.305	81359.4
19.310	81331.4
19.315	81305.4
19.320	81282.4
19.325	81278.4
19.330	81263.4
19.335	81257.4
19.340	81248.4
19.345	81231.4
19.350	81221.5
19.355	81187.5
19.360	81165.5
19.365	81171.5
19.370	81206.5
19.375	81209.5
19.380	81207.5
19.385	81218.4
19.390	81230.4
19.395	81233.4
19.400	81228.4
19.405	81229.4
19.410	81228.4
19.415	81232.4
19.420	81230.4
19.425	81221.4
19.430	81233.4
19.435	81270.4
19.440	81271.4
19.445	81288.4
19.450	81286.4
19.455	81298.4
19.460	81304.4
19.465	81327.3
19.470	81342.3
19.475	81369.3
19.480	81365.3
19.485	81379.3
19.490	81347.3
19.495	81343.3
19.500	81356.3
19.505	81382.3
19.510	81372.3
19.515	81378.3
19.520	81375.3
19.525	81374.3
19.530	81364.3
19.535	81376.3
19.540	81384.3
19.545	81383.3
19.550	81395.3
19.555	81362.3
19.560	81347.3
19.565	81366.3
19.570	81376.3
19.575	81371.3
19.580	81363.3
19.585	81366.3
19.590	81362.3
19.595	81356.3
19.600	81362.3
19.605	81361.3
19.610	81351.3
19.615	81340.3
19.620	81322.3
19.625	81297.3
19.630	81268.3
19.635	81285.3
19.640	81276.3
19.645	81279.3
19.650	81289.3
19.655	81292.3
19.660	81282.3
19.665	81283.3
19.670	81267.3
19.675	81264.3
19.680	81253.3
19.685	81239.3
19.690	81202.4
19.695	81187.4
19.700	81194.4
19.705	81228.4
19.710	81216.4
19.715	81224.3
19.720	81212.4
19.725	81200.4
19.730	81183.4
19.735	81209.4
19.740	81218.3
19.745	81218.3
19.750	81232.3
19.755	81223.3
19.760	81188.4
19.765	81159.4
19.770	81179.4
19.775	81171.4
19.780	81143.4
19.785	81130.4
19.790	81140.4
19.795	81131.4
19.800	81116.4
19.805	81094.4
19.810	81091.4
19.815	81094.4
19.820	81073.4
19.825	81039.5
19.830	81029.5
19.835	81059.4
19.840	81065.4
19.845	81067.4
19.850	81064.4
19.855	81065.4
19.860	81045.4
19.865	81020.5
19.870	81034.4
19.875	81060.4
19.880	81057.4
19.885	81046.4
19.890	81005.5
19.895	80964.5
19.900	80970.5
19.905	80995.5
19.910	80984.5
19.915	80992.5
19.920	80977.5
19.925	80972.5
19.930	80941.5
19.935	80942.5
19.940	80950.5
19.945	80949.5
19.950	80949.5
19.955	80913.5
19.960	80885.5
19.965	80903.5
19.970	80933.5
19.975	80955.5
19.980	80979.4
19.985	81002.4
19.990	81010.4
19.995	81028.4
20.000	81033.4
20.005	81056.4
20.010	81068.4
20.015	81093.3
20.020	81100.3
20.025	81104.3
20.030	81118.3
20.035	81162.3
20.040	81172.3
20.045	81180.3
20.050	81174.3
20.055	81170.3
20.060	81173.3
20.065	81181.2
20.070	81188.2
20.075	81202.2
20.080	81203.2
20.085	81212.2
20.090	81181.2
20.095	81173.2
20.100	81201.2
20.105	81218.2
20.110	81220.2
20.115	81210.2
20.120	81206.2
20.125	81204.2
20.130	81202.2
20.135	81195.2
20.140	81187.2
20.145	81194.2
20.150	81189.2
20.155	81163.2
20.160	81138.2
20.165	81155.2
20.170	81174.2
20.175	81164.2
20.180	81139.2
20.185	81143.2
20.190	81137.2
20.195	81123.2
20.200	81118.2
20.205	81134.2
20.210	81125.2
20.215	81133.2
20.220	81113.2
20.225	81083.2
20.230	81066.2
20.235	81097.2
20.240	81092.2
20.245	81087.2
20.250	81098.2
20.255	81080.2
20.260	81070.2
20.265	81062.2
20.270	81049.2
20.275	81052.2
20.280	81036.2
20.285	81019.2
20.290	80984.3
20.295	80951.3
20.300	80944.3
20.305	80952.3
20.310	80948.3
20.315	80951.3
20.320	80917.3
20.325	80886.3
20.330	80839.4
20.335	80832.4
20.340	80819.4
20.345	80829.4
20.350	80795.4
20.355	80758.4
20.360	80749.4
20.365	80784.4
20.370	80814.4
20.375	80819.3
20.380	80827.3
20.385	80822.3
20.390	80812.3
20.395	80830.3
20.400	80819.3
20.405	80842.3
20.410	80834.3
20.415	80816.3
20.420	80788.3
20.425	80766.4
20.430	80749.4
20.435	80763.4
20.440	80749.4
20.445	80759.3
20.450	80751.3
20.455	80730.4
20.460	80672.4
20.465	80629.4
20.470	80582.5
20.475	80533.5
20.480	80515.5
20.485	80486.5
20.490	80440.6
20.495	80402.6
20.500	80405.6
20.505	80398.6
20.510	80411.6
20.515	80438.5
20.520	80438.5
20.525	80440.5
20.530	80443.5
20.535	80450.5
20.540	80472.5
20.545	80483.5
20.550	80497.5
20.555	80507.4
20.560	80525.4
20.565	80543.4
20.570	80568.4
20.575	80560.4
20.580	80536.4
20.585	80532.4
20.590	80516.4
20.595	80499.4
20.600	80449.4
20.605	80450.4
20.610	80460.4
20.615	80477.4
20.620	80429.4
20.625	80386.5
20.630	80367.5
20.635	80376.5
20.640	80302.5
20.645	80229.6
20.650	80180.6
20.655	80123.6
20.660	80079.7
20.665	80071.7
20.670	80067.7
20.675	80050.7
20.680	80036.7
20.685	80034.7
20.690	79981.7
20.695	79930.8
20.700	79927.8
20.705	79921.8
20.710	79949.7
20.715	79998.7
20.720	80016.7
20.725	80051.6
20.730	80076.6
20.735	80099.6
20.740	80108.6
20.745	80124.5
20.750	80118.5
20.755	80084.6
20.760	80037.6
20.765	79989.6
20.770	79977.6
20.775	79913.7
20.780	79847.7
20.785	79806.7
20.790	79755.8
20.795	79689.8
20.800	79645.8
20.805	79562.9
20.810	79510.9
20.815	79535.9
20.820	79520.9
20.825	79511.9
20.830	79505.9
20.835	79493.9
20.840	79437.0
20.845	79355.0
20.850	79265.1
20.855	79228.1
20.860	79256.1
20.865	79273.0
20.870	79305.0
20.875	79356.0
20.880	79380.9
20.885	79392.9
20.890	79383.9
20.895	79415.9
20.900	79443.8
20.905	79488.8
20.910	79498.8
20.915	79508.8
20.920	79498.8
20.925	79512.7
20.930	79537.7
20.935	79547.7
20.940	79556.7
20.945	79519.7
20.950	79507.7
20.955	79476.7
20.960	79441.7
20.965	79437.7
20.970	79430.7
20.975	79333.8
20.980	79224.8
20.985	79130.9
20.990	79015.0
20.995	78887.1
21.000	78770.1
21.005	78697.2
21.010	78624.2
21.015	78607.3
21.020	78613.2
21.025	78625.2
21.030	78690.1
21.035	78828.0
21.040	78976.9
21.045	79125.8
21.050	79189.7
21.055	79142.7
21.060	79064.8
21.065	78972.8
21.070	78858.9
21.075	78657.1
21.080	78447.2
21.085	78353.3
21.090	78312.3
21.095	78403.2
21.100	78641.0
21.105	78811.8
21.110	78917.7
21.115	79029.6
21.120	79216.5
21.125	79472.2
21.130	79605.1
21.135	79667.1
21.140	79643.1
21.145	79516.1
21.150	79345.2
21.155	79205.3
21.160	79225.3
21.165	79342.2
21.170	79467.0
21.175	79578.9
21.180	79582.9
21.185	79420.0
21.190	79214.1
21.195	79143.2
21.200	79143.1
21.205	79131.1
21.210	79070.1
21.215	78831.3
21.220	78421.6
21.225	78043.8
21.230	77402.3
21.235	76524.0
21.240	76108.3
21.245	76358.1
21.250	76448.0
21.255	76517.9
21.260	77234.3
21.265	78441.3
21.270	78686.0
21.275	78263.3
21.280	78160.3
21.285	78221.2
21.290	78059.3
21.295	77930.3
21.300	78110.1
21.305	78195.0
21.310	77360.6
21.315	75425.1
21.320	73899.2
21.325	74064.0
21.330	74423.6
21.335	73824.0
21.340	73035.6
21.345	74296.4
21.350	76801.3
21.355	77441.7
21.360	76833.1
21.365	76299.4
21.370	75996.5
21.375	75646.7
21.380	75229.0
21.385	74740.4
21.390	74455.7
21.395	74556.6
21.400	74860.5
21.405	75059.5
21.410	75142.7
21.415	75301.9
21.420	75663.9
21.425	76313.8
21.430	77128.6
21.435	77962.3
21.440	78752.1
21.445	79563.0
21.450	80414.8
21.455	81216.6
21.460	81850.5
21.465	82308.3
21.470	82597.2
21.475	82766.1
21.480	82859.1
21.485	82890.1
21.490	82888.1
21.495	82904.1
21.500	82933.1
21.505	82945.1
21.510	82947.1
21.515	82955.1
21.520	82946.1
21.525	82955.1
21.530	82952.1
21.535	82959.1
21.540	82950.1
21.545	82947.1
21.550	82948.1
21.555	82929.1
21.560	82912.1
21.565	82938.1
21.570	82945.1
21.575	82952.1
21.580	82950.1
21.585	82955.1
21.590	82947.1
21.595	82944.1
21.600	82952.1
21.605	82947.1
21.610	82952.1
21.615	82967.1
21.620	82935.1
21.625	82923.1
21.630	82933.1
21.635	82959.1
21.640	82960.1
21.645	82963.1
21.650	82956.1
21.655	82964.1
21.660	82961.1
21.665	82963.1
21.670	82960.1
21.675	82965.1
21.680	82967.1
21.685	82952.1
21.690	82928.1
21.695	82935.1
21.700	82952.1
21.705	82956.1
21.710	82957.1
21.715	82951.1
21.720	82961.1
21.725	82965.1
21.730	82955.1
21.735	82959.1
21.740	82960.1
21.745	82976.1
21.750	82971.1
21.755	82944.1
21.760	82936.1
21.765	82958.1
21.770	82967.1
21.775	82969.1
21.780	82966.1
21.785	82969.1
21.790	82964.1
21.795	82969.1
21.800	82964.1
21.805	82970.1
21.810	82961.1
21.815	82975.1
21.820	82946.1
21.825	82935.1
21.830	82933.1
21.835	82967.1
21.840	82960.1
21.845	82958.1
21.850	82961.1
21.855	82969.1
21.860	82958.1
21.865	82958.1
21.870	82966.1
21.875	82962.1
21.880	82975.1
21.885	82976.1
21.890	82946.1
21.895	82938.1
21.900	82967.1
21.905	82978.1
21.910	82974.1
21.915	82972.1
21.920	82969.1
21.925	82972.1
21.930	82967.1
21.935	82966.1
21.940	82971.1
21.945	82978.1
21.950	82975.1
21.955	82938.1
21.960	82930.1
21.965	82960.1
21.970	82964.1
21.975	82968.1
21.980	82970.1
21.985	82969.1
21.990	82967.1
21.995	82972.1
22.000	82961.1
22.005	82969.1
22.010	82981.1
22.015	82978.1
22.020	82950.1
22.025	82946.1
22.030	82947.1
22.035	82978.1
22.040	82978.1
22.045	82987.1
22.050	82977.1
22.055	82972.1
22.060	82967.1
22.065	82977.1
22.070	82980.1
22.075	82985.1
22.080	82976.1
22.085	82966.1
22.090	82930.1
22.095	82941.1
22.100	82973.1
22.105	82970.1
22.110	82972.1
22.115	82968.1
22.120	82974.1
22.125	82958.1
22.130	82969.1
22.135	82977.1
22.140	82980.1
22.145	82982.1
22.150	82976.1
22.155	82949.1
22.160	82930.1
22.165	82974.1
22.170	82970.1
22.175	82980.1
22.180	82984.1
22.185	82980.1
22.190	82972.1
22.195	82978.1
22.200	82975.1
22.205	82980.1
22.210	82977.1
22.215	82973.1
22.220	82950.1
22.225	82936.1
22.230	82947.1
22.235	82978.1
22.240	82963.1
22.245	82971.1
22.250	82962.1
22.255	82971.1
22.260	82965.1
22.265	82969.1
22.270	82971.1
22.275	82977.1
22.280	82967.1
22.285	82957.1
22.290	82943.1
22.295	82941.1
22.300	82977.1
22.305	82980.1
22.310	82987.1
22.315	82982.1
22.320	82978.1
22.325	82982.1
22.330	82969.1
22.335	82978.1
22.340	82970.1
22.345	82975.1
22.350	82967.1
22.355	82945.1
22.360	82937.1
22.365	82963.1
22.370	82976.1
22.375	82975.1
22.380	82966.1
22.385	82965.1
22.390	82972.1
22.395	82967.1
22.400	82964.1
22.405	82974.1
22.410	82973.1
22.415	82984.1
22.420	82957.1
22.425	82950.1
22.430	82945.1
22.435	82979.1
22.440	82978.1
22.445	82983.1
22.450	82978.1
22.455	82978.1
22.460	82977.1
22.465	82978.1
22.470	82969.1
22.475	82981.1
22.480	82972.1
22.485	82955.1
22.490	82943.1
22.495	82951.1
22.500	82969.1
22.505	82975.1
22.510	82963.1
22.515	82971.1
22.520	82965.1
22.525	82979.1
22.530	82966.1
22.535	82979.1
22.540	82979.1
22.545	82988.1
22.550	82974.1
22.555	82949.1
22.560	82946.1
22.565	82972.1
22.570	82984.1
22.575	82985.1
22.580	82982.1
22.585	82991.1
22.590	82985.1
22.595	82984.1
22.600	82976.1
22.605	82977.1
22.610	82974.1
22.615	82985.1
22.620	82953.1
22.625	82938.1
22.630	82958.1
22.635	82978.1
22.640	82970.1
22.645	82969.1
22.650	82977.1
22.655	82975.1
22.660	82964.1
22.665	82977.1
22.670	82983.1
22.675	82990.1
22.680	82987.1
22.685	82976.1
22.690	82949.1
22.695	82955.1
22.700	82980.1
22.705	82986.1
22.710	82981.1
22.715	82992.1
22.720	82983.1
22.725	82986.1
22.730	82987.1
22.735	82985.1
22.740	82984.1
22.745	82987.1
22.750	82970.1
22.755	82954.1
22.760	82934.1
22.765	82978.1
22.770	82973.1
22.775	82985.1
22.780	82967.1
22.785	82976.1
22.790	82972.1
22.795	82977.1
22.800	82968.1
22.805	82981.1
22.810	82978.1
22.815	82992.1
22.820	82966.1
22.825	82945.1
22.830	82965.1
22.835	82972.1
22.840	82976.1
22.845	82986.1
22.850	82977.1
22.855	82982.1
22.860	82985.1
22.865	82981.1
22.870	82974.1
22.875	82983.1
22.880	82980.1
22.885	82959.1
22.890	82941.1
22.895	82955.1
22.900	82974.1
22.905	82981.1
22.910	82979.1
22.915	82981.1
22.920	82963.1
22.925	82970.1
22.930	82966.1
22.935	82974.1
22.940	82968.1
22.945	82984.1
22.950	82985.1
22.955	82958.1
22.960	82935.1
22.965	82979.1
22.970	82973.1
22.975	82982.1
22.980	82978.1
22.985	82976.1
22.990	82974.1
22.995	82975.1
23.000	82973.1
23.005	82975.1
23.010	82977.1
23.015	82976.1
23.020	82947.1
23.025	82933.1
23.030	82948.1
23.035	82977.1
23.040	82974.1
23.045	82972.1
23.050	82971.1
23.055	82967.1
23.060	82968.1
23.065	82970.1
23.070	82966.1
23.075	82982.1
23.080	82989.1
23.085	82961.1
23.090	82946.1
23.095	82938.1
23.100	82974.1
23.105	82982.1
23.110	82977.1
23.115	82979.1
23.120	82972.1
23.125	82982.1
23.130	82972.1
23.135	82974.1
23.140	82969.1
23.145	82981.1
23.150	82958.1
23.155	82941.1
23.160	82925.1
23.165	82963.1
23.170	82968.1
23.175	82971.1
23.180	82971.1
23.185	82963.1
23.190	82961.1
23.195	82961.1
23.200	82959.1
23.205	82973.1
23.210	82963.1
23.215	82975.1
23.220	82939.1
23.225	82940.1
23.230	82950.1
23.235	82975.1
23.240	82975.1
23.245	82976.1
23.250	82977.1
23.255	82971.1
23.260	82964.1
23.265	82973.1
23.270	82977.1
23.275	82974.1
23.280	82977.1
23.285	82949.1
23.290	82923.1
23.295	82939.1
23.300	82968.1
23.305	82969.1
23.310	82966.1
23.315	82961.1
23.320	82957.1
23.325	82956.1
23.330	82955.1
23.335	82967.1
23.340	82959.1
23.345	82966.1
23.350	82957.1
23.355	82943.1
23.360	82934.1
23.365	82969.1
23.370	82966.1
23.375	82974.1
23.380	82962.1
23.385	82973.1
23.390	82969.1
23.395	82968.1
23.400	82968.1
23.405	82971.1
23.410	82967.1
23.415	82959.1
23.420	82935.1
23.425	82930.1
23.430	82948.1
23.435	82962.1
23.440	82969.1
23.445	82967.1
23.450	82951.1
23.455	82958.1
23.460	82964.1
23.465	82963.1
23.470	82963.1
23.475	82965.1
23.480	82970.1
23.485	82962.1
23.490	82938.1
23.495	82950.1
23.500	82975.1
23.505	82970.1
23.510	82969.1
23.515	82971.1
23.520	82966.1
23.525	82971.1
23.530	82963.1
23.535	82978.1
23.540	82970.1
23.545	82980.1
23.550	82953.1
23.555	82934.1
23.560	82931.1
23.565	82966.1
23.570	82965.1
23.575	82960.1
23.580	82958.1
23.585	82964.1
23.590	82963.1
23.595	82968.1
23.600	82957.1
23.605	82971.1
23.610	82960.1
23.615	82970.1
23.620	82945.1
23.625	82938.1
23.630	82948.1
23.635	82982.1
23.640	82972.1
23.645	82977.1
23.650	82958.1
23.655	82971.1
23.660	82959.1
23.665	82963.1
23.670	82964.1
23.675	82972.1
23.680	82975.1
23.685	82942.1
23.690	82930.1
23.695	82935.1
23.700	82962.1
23.705	82967.1
23.710	82959.1
23.715	82963.1
23.720	82954.1
23.725	82962.1
23.730	82966.1
23.735	82961.1
23.740	82963.1
23.745	82972.1
23.750	82955.1
23.755	82934.1
23.760	82941.1
23.765	82966.1
23.770	82974.1
23.775	82974.1
23.780	82971.1
23.785	82973.1
23.790	82965.1
23.795	82966.1
23.800	82958.1
23.805	82967.1
23.810	82963.1
23.815	82968.1
23.820	82937.1
23.825	82929.1
23.830	82951.1
23.835	82960.1
23.840	82947.1
23.845	82949.1
23.850	82950.1
23.855	82950.1
23.860	82943.1
23.865	82945.1
23.870	82929.1
23.875	82933.1
23.880	82933.1
23.885	82915.1
23.890	82884.1
23.895	82898.1
23.900	82921.1
23.905	82936.1
23.910	82936.1
23.915	82945.1
23.920	82949.1
23.925	82952.1
23.930	82952.1
23.935	82955.1
23.940	82958.1
23.945	82965.1
23.950	82940.1
23.955	82933.1
23.960	82930.1
23.965	82962.1
23.970	82961.1
23.975	82952.1
23.980	82959.1
23.985	82953.1
23.990	82952.1
23.995	82956.1
24.000	82955.1
24.005	82963.1
24.010	82961.1
24.015	82965.1
24.020	82927.1
24.025	82927.1
24.030	82946.1
24.035	82958.1
24.040	82965.1
24.045	82969.1
24.050	82973.1
24.055	82967.1
24.060	82957.1
24.065	82961.1
24.070	82952.1
24.075	82965.1
24.080	82960.1
24.085	82947.1
24.090	82924.1
24.095	82942.1
24.100	82957.1
24.105	82959.1
24.110	82952.1
24.115	82953.1
24.120	82941.1
24.125	82956.1
24.130	82946.1
24.135	82961.1
24.140	82963.1
24.145	82970.1
24.150	82959.1
24.155	82933.1
24.160	82932.1
24.165	82958.1
24.170	82955.1
24.175	82964.1
24.180	82973.1
24.185	82967.1
24.190	82961.1
24.195	82959.1
24.200	82962.1
24.205	82953.1
24.210	82956.1
24.215	82959.1
24.220	82925.1
24.225	82924.1
24.230	82949.1
24.235	82959.1
24.240	82954.1
24.245	82953.1
24.250	82946.1
24.255	82948.1
24.260	82944.1
24.265	82945.1
24.270	82948.1
24.275	82965.1
24.280	82960.1
24.285	82948.1
24.290	82921.1
24.295	82934.1
24.300	82941.1
24.305	82959.1
24.310	82957.1
24.315	82968.1
24.320	82964.1
24.325	82957.1
24.330	82952.1
24.335	82950.1
24.340	82952.1
24.345	82953.1
24.350	82927.1
24.355	82918.1
24.360	82923.1
24.365	82959.1
24.370	82953.1
24.375	82948.1
24.380	82947.1
24.385	82935.1
24.390	82940.1
24.395	82946.1
24.400	82936.1
24.405	82960.1
24.410	82959.1
24.415	82958.1
24.420	82928.1
24.425	82919.1
24.430	82944.1
24.435	82957.1
24.440	82962.1
24.445	82957.1
24.450	82968.1
24.455	82962.1
24.460	82962.1
24.465	82967.1
24.470	82950.1
24.475	82960.1
24.480	82943.1
24.485	82924.1
24.490	82907.1
24.495	82933.1
24.500	82953.1
24.505	82954.1
24.510	82952.1
24.515	82951.1
24.520	82938.1
24.525	82944.1
24.530	82940.1
24.535	82951.1
24.540	82956.1
24.545	82970.1
24.550	82940.1
24.555	82929.1
24.560	82924.1
24.565	82959.1
24.570	82955.1
24.575	82952.1
24.580	82958.1
24.585	82954.1
24.590	82963.1
24.595	82962.1
24.600	82964.1
24.605	82952.1
24.610	82964.1
24.615	82941.1
24.620	82918.1
24.625	82904.1
24.630	82939.1
24.635	82949.1
24.640	82948.1
24.645	82946.1
24.650	82951.1
24.655	82948.1
24.660	82946.1
24.665	82939.1
24.670	82945.1
24.675	82953.1
24.680	82952.1
24.685	82938.1
24.690	82917.1
24.695	82934.1
24.700	82959.1
24.705	82959.1
24.710	82953.1
24.715	82952.1
24.720	82953.1
24.725	82953.1
24.730	82956.1
24.735	82956.1
24.740	82952.1
24.745	82957.1
24.750	82930.1
24.755	82914.1
24.760	82912.1
24.765	82951.1
24.770	82943.1
24.775	82950.1
24.780	82950.1
24.785	82955.1
24.790	82951.1
24.795	82946.1
24.800	82949.1
24.805	82948.1
24.810	82971.1
24.815	82957.1
24.820	82932.1
24.825	82920.1
24.830	82949.1
24.835	82964.1
24.840	82957.1
24.845	82953.1
24.850	82954.1
24.855	82955.1
24.860	82954.1
24.865	82964.1
24.870	82960.1
24.875	82968.1
24.880	82958.1
24.885	82925.1
24.890	82921.1
24.895	82929.1
24.900	82954.1
24.905	82953.1
24.910	82949.1
24.915	82955.1
24.920	82951.1
24.925	82949.1
24.930	82950.1
24.935	82960.1
24.940	82952.1
24.945	82961.1
24.950	82947.1
24.955	82924.1
24.960	82927.1
24.965	82960.1
24.970	82956.1
24.975	82962.1
24.980	82957.1
24.985	82958.1
24.990	82944.1
24.995	82954.1
25.000	82955.1
25.005	82964.1
25.010	82959.1
25.015	82947.1
25.020	82928.1
25.025	82911.1
25.030	82943.1
25.035	82946.1
25.040	82946.1
25.045	82953.1
25.050	82953.1
25.055	82955.1
25.060	82960.1
25.065	82960.1
25.070	82951.1
25.075	82964.1
25.080	82961.1
25.085	82938.1
25.090	82918.1
25.095	82944.1
25.100	82962.1
25.105	82960.1
25.110	82964.1
25.115	82958.1
25.120	82955.1
25.125	82947.1
25.130	82948.1
25.135	82951.1
25.140	82951.1
25.145	82963.1
25.150	82937.1
25.155	82930.1
25.160	82922.1
25.165	82947.1
25.170	82943.1
25.175	82956.1
25.180	82954.1
25.185	82959.1
25.190	82956.1
25.195	82949.1
25.200	82949.1
25.205	82954.1
25.210	82952.1
25.215	82953.1
25.220	82920.1
25.225	82924.1
25.230	82947.1
25.235	82959.1
25.240	82962.1
25.245	82968.1
25.250	82957.1
25.255	82958.1
25.260	82943.1
25.265	82952.1
25.270	82954.1
25.275	82958.1
25.280	82951.1
25.285	82927.1
25.290	82916.1
25.295	82936.1
25.300	82954.1
25.305	82948.1
25.310	82940.1
25.315	82937.1
25.320	82940.1
25.325	82949.1
25.330	82944.1
25.335	82956.1
25.340	82952.1
25.345	82956.1
25.350	82932.1
25.355	82921.1
25.360	82923.1
25.365	82949.1
25.370	82957.1
25.375	82960.1
25.380	82960.1
25.385	82960.1
25.390	82948.1
25.395	82946.1
25.400	82943.1
25.405	82950.1
25.410	82947.1
25.415	82942.1
25.420	82920.1
25.425	82918.1
25.430	82951.1
25.435	82955.1
25.440	82950.1
25.445	82948.1
25.450	82943.1
25.455	82943.1
25.460	82946.1
25.465	82951.1
25.470	82951.1
25.475	82959.1
25.480	82957.1
25.485	82925.1
25.490	82907.1
25.495	82933.1
25.500	82945.1
25.505	82954.1
25.510	82957.1
25.515	82958.1
25.520	82956.1
25.525	82950.1
25.530	82948.1
25.535	82945.1
25.540	82949.1
25.545	82949.1
25.550	82924.1
25.555	82909.1
25.560	82927.1
25.565	82949.1
25.570	82944.1
25.575	82947.1
25.580	82934.1
25.585	82931.1
25.590	82935.1
25.595	82942.1
25.600	82943.1
25.605	82956.1
25.610	82962.1
25.615	82948.1
25.620	82924.1
25.625	82912.1
25.630	82942.1
25.635	82945.1
25.640	82951.1
25.645	82966.1
25.650	82947.1
25.655	82949.1
25.660	82946.1
25.665	82949.1
25.670	82947.1
25.675	82953.1
25.680	82937.1
25.685	82927.1
25.690	82908.1
25.695	82935.1
25.700	82952.1
25.705	82947.1
25.710	82946.1
25.715	82931.1
25.720	82939.1
25.725	82940.1
25.730	82944.1
25.735	82950.1
25.740	82958.1
25.745	82955.1
25.750	82940.1
25.755	82911.1
25.760	82924.1
25.765	82953.1
25.770	82950.1
25.775	82954.1
25.780	82954.1
25.785	82950.1
25.790	82956.1
25.795	82949.1
25.800	82947.1
25.805	82942.1
25.810	82946.1
25.815	82924.1
25.820	82906.1
25.825	82906.1
25.830	82944.1
25.835	82953.1
25.840	82948.1
25.845	82944.1
25.850	82944.1
25.855	82944.1
25.860	82944.1
25.865	82950.1
25.870	82951.1
25.875	82959.1
25.880	82945.1
25.885	82926.1
25.890	82917.1
25.895	82939.1
25.900	82944.1
25.905	82955.1
25.910	82950.1
25.915	82947.1
25.920	82945.1
25.925	82942.1
25.930	82949.1
25.935	82954.1
25.940	82947.1
25.945	82941.1
25.950	82916.1
25.955	82913.1
25.960	82922.1
25.965	82952.1
25.970	82950.1
25.975	82948.1
25.980	82945.1
25.985	82946.1
25.990	82939.1
25.995	82934.1
26.000	82940.1
26.005	82944.1
26.010	82955.1
26.015	82947.1
26.020	82922.1
26.025	82927.1
26.030	82947.1
26.035	82941.1
26.040	82935.1
26.045	82949.1
26.050	82947.1
26.055	82954.1
26.060	82943.1
26.065	82950.1
26.070	82941.1
26.075	82949.1
26.080	82940.1
26.085	82915.1
26.090	82904.1
26.095	82934.1
26.100	82944.1
26.105	82947.1
26.110	82937.1
26.115	82938.1
26.120	82944.1
26.125	82940.1
26.130	82936.1
26.135	82936.1
26.140	82941.1
26.145	82958.1
26.150	82929.1
26.155	82921.1
26.160	82922.1
26.165	82950.1
26.170	82952.1
26.175	82948.1
26.180	82945.1
26.185	82941.1
26.190	82942.1
26.195	82943.1
26.200	82948.1
26.205	82948.1
26.210	82943.1
26.215	82923.1
26.220	82911.1
26.225	82912.1
26.230	82931.1
26.235	82934.1
26.240	82941.1
26.245	82941.1
26.250	82939.1
26.255	82939.1
26.260	82937.1
26.265	82943.1
26.270	82940.1
26.275	82953.1
26.280	82941.1
26.285	82925.1
26.290	82911.1
26.295	82945.1
26.300	82935.1
26.305	82945.1
26.310	82949.1
26.315	82948.1
26.320	82941.1
26.325	82944.1
26.330	82941.1
26.335	82950.1
26.340	82944.1
26.345	82944.1
26.350	82917.1
26.355	82909.1
26.360	82919.1
26.365	82945.1
26.370	82939.1
26.375	82940.1
26.380	82942.1
26.385	82937.1
26.390	82928.1
26.395	82928.1
26.400	82931.1
26.405	82937.1
26.410	82939.1
26.415	82937.1
26.420	82909.1
26.425	82913.1
26.430	82949.1
