PK2650 Power Data
Z Position (mm)	100.000	W Position (deg)	144.00
Preform ID	Diameter (mm)	Time Stamp	Start Time	Operator	Serial Number
Test 1	25	03-Nov-22 18:05:01	03-Nov-22 18:06:03	[no user]	266007708
Radius (mm)	Power
-26.275	82991.9
-26.270	83001.9
-26.265	82991.9
-26.260	82979.9
-26.255	82976.9
-26.250	83002.9
-26.245	83007.9
-26.240	83016.8
-26.235	83008.9
-26.230	83003.9
-26.225	83007.9
-26.220	82999.9
-26.215	82994.9
-26.210	83012.9
-26.205	83014.9
-26.200	83027.8
-26.195	83005.9
-26.190	82991.9
-26.185	83002.9
-26.180	83030.8
-26.175	83022.8
-26.170	83031.8
-26.165	83032.8
-26.160	83027.8
-26.155	83018.8
-26.150	83024.8
-26.145	83028.8
-26.140	83034.8
-26.135	83035.8
-26.130	83019.8
-26.125	82994.9
-26.120	83003.9
-26.115	83036.8
-26.110	83038.8
-26.105	83043.8
-26.100	83048.8
-26.095	83032.8
-26.090	83032.8
-26.085	83033.8
-26.080	83038.8
-26.075	83030.8
-26.070	83045.8
-26.065	83042.8
-26.060	83024.8
-26.055	83003.9
-26.050	83037.8
-26.045	83053.8
-26.040	83056.8
-26.035	83043.8
-26.030	83049.8
-26.025	83044.8
-26.020	83047.8
-26.015	83044.8
-26.010	83047.8
-26.005	83046.8
-26.000	83046.8
-25.995	83027.8
-25.990	83021.8
-25.985	83025.8
-25.980	83061.8
-25.975	83059.8
-25.970	83057.8
-25.965	83049.8
-25.960	83059.8
-25.955	83047.8
-25.950	83059.8
-25.945	83052.8
-25.940	83062.8
-25.935	83066.8
-25.930	83060.8
-25.925	83029.8
-25.920	83034.8
-25.915	83072.8
-25.910	83072.8
-25.905	83068.8
-25.900	83071.8
-25.895	83066.8
-25.890	83064.8
-25.885	83051.8
-25.880	83069.8
-25.875	83058.8
-25.870	83067.8
-25.865	83050.8
-25.860	83039.8
-25.855	83026.8
-25.850	83057.8
-25.845	83065.8
-25.840	83067.8
-25.835	83068.8
-25.830	83060.8
-25.825	83053.8
-25.820	83060.8
-25.815	83061.8
-25.810	83062.8
-25.805	83063.8
-25.800	83070.8
-25.795	83050.8
-25.790	83033.8
-25.785	83057.8
-25.780	83075.8
-25.775	83068.8
-25.770	83079.8
-25.765	83065.8
-25.760	83076.8
-25.755	83065.8
-25.750	83065.8
-25.745	83054.8
-25.740	83068.8
-25.735	83071.8
-25.730	83052.8
-25.725	83038.8
-25.720	83048.8
-25.715	83078.8
-25.710	83073.8
-25.705	83068.8
-25.700	83066.8
-25.695	83055.8
-25.690	83069.8
-25.685	83054.8
-25.680	83063.8
-25.675	83066.8
-25.670	83082.8
-25.665	83067.8
-25.660	83054.8
-25.655	83033.8
-25.650	83066.8
-25.645	83075.8
-25.640	83082.8
-25.635	83083.8
-25.630	83079.8
-25.625	83077.8
-25.620	83070.8
-25.615	83068.8
-25.610	83076.8
-25.605	83066.8
-25.600	83071.8
-25.595	83042.8
-25.590	83039.8
-25.585	83049.8
-25.580	83072.8
-25.575	83060.8
-25.570	83070.8
-25.565	83067.8
-25.560	83068.8
-25.555	83062.8
-25.550	83059.8
-25.545	83067.8
-25.540	83077.8
-25.535	83080.8
-25.530	83060.8
-25.525	83037.8
-25.520	83046.8
-25.515	83079.8
-25.510	83076.8
-25.505	83077.8
-25.500	83077.8
-25.495	83075.8
-25.490	83074.8
-25.485	83063.8
-25.480	83071.8
-25.475	83065.8
-25.470	83073.8
-25.465	83064.8
-25.460	83046.8
-25.455	83024.8
-25.450	83063.8
-25.445	83066.8
-25.440	83074.8
-25.435	83068.8
-25.430	83070.8
-25.425	83062.8
-25.420	83065.8
-25.415	83057.8
-25.410	83059.8
-25.405	83075.8
-25.400	83078.8
-25.395	83056.8
-25.390	83040.8
-25.385	83046.8
-25.380	83074.8
-25.375	83076.8
-25.370	83084.8
-25.365	83071.8
-25.360	83077.8
-25.355	83074.8
-25.350	83063.8
-25.345	83058.8
-25.340	83061.8
-25.335	83067.8
-25.330	83047.8
-25.325	83031.8
-25.320	83044.8
-25.315	83066.8
-25.310	83072.8
-25.305	83067.8
-25.300	83065.8
-25.295	83064.8
-25.290	83062.8
-25.285	83051.8
-25.280	83062.8
-25.275	83061.8
-25.270	83076.8
-25.265	83070.8
-25.260	83052.8
-25.255	83038.8
-25.250	83064.8
-25.245	83077.8
-25.240	83079.8
-25.235	83075.8
-25.230	83071.8
-25.225	83064.8
-25.220	83062.8
-25.215	83064.8
-25.210	83065.8
-25.205	83060.8
-25.200	83068.8
-25.195	83033.8
-25.190	83033.8
-25.185	83048.8
-25.180	83075.8
-25.175	83063.8
-25.170	83071.8
-25.165	83055.8
-25.160	83060.8
-25.155	83058.8
-25.150	83053.8
-25.145	83047.8
-25.140	83054.8
-25.135	83072.8
-25.130	83052.8
-25.125	83030.8
-25.120	83035.8
-25.115	83070.8
-25.110	83070.8
-25.105	83077.8
-25.100	83069.8
-25.095	83066.8
-25.090	83061.8
-25.085	83048.8
-25.080	83055.8
-25.075	83059.8
-25.070	83071.8
-25.065	83043.8
-25.060	83022.8
-25.055	83026.8
-25.050	83052.8
-25.045	83060.8
-25.040	83058.8
-25.035	83051.8
-25.030	83052.8
-25.025	83050.8
-25.020	83046.8
-25.015	83048.8
-25.010	83055.8
-25.005	83061.8
-25.000	83064.8
-24.995	83034.8
-24.990	83032.8
-24.985	83043.8
-24.980	83070.8
-24.975	83067.8
-24.970	83058.8
-24.965	83056.8
-24.960	83063.8
-24.955	83044.8
-24.950	83047.8
-24.945	83051.8
-24.940	83057.8
-24.935	83056.8
-24.930	83030.8
-24.925	83009.9
-24.920	83027.8
-24.915	83048.8
-24.910	83050.8
-24.905	83048.8
-24.900	83048.8
-24.895	83038.8
-24.890	83036.8
-24.885	83025.8
-24.880	83032.8
-24.875	83040.8
-24.870	83043.8
-24.865	83037.8
-24.860	83027.8
-24.855	83010.9
-24.850	83039.8
-24.845	83050.8
-24.840	83054.8
-24.835	83036.8
-24.830	83048.8
-24.825	83045.8
-24.820	83030.8
-24.815	83035.8
-24.810	83045.8
-24.805	83032.8
-24.800	83034.8
-24.795	83002.9
-24.790	82996.9
-24.785	83022.8
-24.780	83034.8
-24.775	83030.8
-24.770	83029.8
-24.765	83013.9
-24.760	83010.9
-24.755	83011.9
-24.750	83016.9
-24.745	83028.8
-24.740	83032.8
-24.735	83040.8
-24.730	83017.9
-24.725	82994.9
-24.720	83000.9
-24.715	83028.8
-24.710	83036.8
-24.705	83020.8
-24.700	83027.8
-24.695	83021.8
-24.690	83021.8
-24.685	83013.9
-24.680	83025.8
-24.675	83010.9
-24.670	83013.9
-24.665	82997.9
-24.660	82983.9
-24.655	82981.9
-24.650	83023.8
-24.645	83011.9
-24.640	83013.9
-24.635	83010.9
-24.630	83000.9
-24.625	82994.9
-24.620	82992.9
-24.615	83005.9
-24.610	83010.9
-24.605	83003.9
-24.600	83015.8
-24.595	82996.9
-24.590	82976.9
-24.585	83001.9
-24.580	83028.8
-24.575	83013.9
-24.570	83018.8
-24.565	83010.9
-24.560	83008.9
-24.555	83002.9
-24.550	83014.9
-24.545	82994.9
-24.540	83006.9
-24.535	83004.9
-24.530	82978.9
-24.525	82958.9
-24.520	82987.9
-24.515	83006.9
-24.510	83008.9
-24.505	82995.9
-24.500	82999.9
-24.495	82990.9
-24.490	82991.9
-24.485	82988.9
-24.480	82995.9
-24.475	82990.9
-24.470	83006.9
-24.465	82996.9
-24.460	82985.9
-24.455	82980.9
-24.450	83013.9
-24.445	83005.9
-24.440	83006.9
-24.435	83001.9
-24.430	83002.9
-24.425	82996.9
-24.420	82988.9
-24.415	82991.9
-24.410	82993.9
-24.405	82991.9
-24.400	82997.9
-24.395	82971.9
-24.390	82955.9
-24.385	82988.9
-24.380	82997.9
-24.375	82992.9
-24.370	82993.9
-24.365	82978.9
-24.360	82982.9
-24.355	82976.9
-24.350	82981.9
-24.345	82978.9
-24.340	82990.9
-24.335	83000.9
-24.330	82978.9
-24.325	82969.9
-24.320	82976.9
-24.315	82998.9
-24.310	83002.9
-24.305	82999.9
-24.300	83001.9
-24.295	82987.9
-24.290	82994.9
-24.285	82985.9
-24.280	82987.9
-24.275	82978.9
-24.270	82996.9
-24.265	82963.9
-24.260	82960.9
-24.255	82949.9
-24.250	82993.9
-24.245	82990.9
-24.240	82994.9
-24.235	82986.9
-24.230	82986.9
-24.225	82982.9
-24.220	82977.9
-24.215	82978.9
-24.210	82980.9
-24.205	82984.9
-24.200	82994.9
-24.195	82968.9
-24.190	82965.9
-24.185	82977.9
-24.180	82992.9
-24.175	82990.9
-24.170	82997.9
-24.165	82997.9
-24.160	82992.9
-24.155	82987.9
-24.150	82987.9
-24.145	82985.9
-24.140	82984.9
-24.135	82987.9
-24.130	82955.9
-24.125	82951.9
-24.120	82965.9
-24.115	82988.9
-24.110	82984.9
-24.105	82989.9
-24.100	82991.9
-24.095	82983.9
-24.090	82982.9
-24.085	82981.9
-24.080	82977.9
-24.075	82987.9
-24.070	82999.9
-24.065	82980.9
-24.060	82966.9
-24.055	82956.9
-24.050	82986.9
-24.045	82988.9
-24.040	83002.9
-24.035	82994.9
-24.030	83001.9
-24.025	82987.9
-24.020	82982.9
-24.015	82989.9
-24.010	82991.9
-24.005	82980.9
-24.000	82979.9
-23.995	82957.9
-23.990	82953.9
-23.985	82982.9
-23.980	83000.9
-23.975	82990.9
-23.970	82987.9
-23.965	82974.9
-23.960	82977.9
-23.955	82972.9
-23.950	82982.9
-23.945	82981.9
-23.940	82986.9
-23.935	82997.9
-23.930	82969.9
-23.925	82967.9
-23.920	82974.9
-23.915	83001.9
-23.910	82995.9
-23.905	83002.9
-23.900	82990.9
-23.895	82981.9
-23.890	82988.9
-23.885	82988.9
-23.880	82999.9
-23.875	82993.9
-23.870	82999.9
-23.865	82969.9
-23.860	82970.9
-23.855	82960.9
-23.850	83000.9
-23.845	83000.9
-23.840	82998.9
-23.835	82994.9
-23.830	82999.9
-23.825	82992.9
-23.820	82999.9
-23.815	83001.9
-23.810	82998.9
-23.805	82999.9
-23.800	83007.9
-23.795	82981.9
-23.790	82982.9
-23.785	83001.9
-23.780	83014.9
-23.775	83017.8
-23.770	83019.9
-23.765	83006.9
-23.760	83014.9
-23.755	83006.9
-23.750	83002.9
-23.745	83006.9
-23.740	83004.9
-23.735	83003.9
-23.730	82986.9
-23.725	82972.9
-23.720	82999.9
-23.715	83007.9
-23.710	83013.9
-23.705	83003.9
-23.700	83005.9
-23.695	82999.9
-23.690	82999.9
-23.685	83000.9
-23.680	82999.9
-23.675	82997.9
-23.670	83021.9
-23.665	83005.9
-23.660	82978.9
-23.655	82979.9
-23.650	83022.8
-23.645	83017.9
-23.640	83017.8
-23.635	83012.9
-23.630	83019.9
-23.625	83012.9
-23.620	83009.9
-23.615	83014.9
-23.610	83023.8
-23.605	83014.9
-23.600	83003.9
-23.595	82976.9
-23.590	82978.9
-23.585	83004.9
-23.580	83015.9
-23.575	83002.9
-23.570	83019.8
-23.565	83007.9
-23.560	83009.9
-23.555	82999.9
-23.550	83013.9
-23.545	83010.9
-23.540	83016.9
-23.535	83018.9
-23.530	83008.9
-23.525	82978.9
-23.520	83000.9
-23.515	83022.8
-23.510	83030.8
-23.505	83021.8
-23.500	83029.8
-23.495	83017.8
-23.490	83022.8
-23.485	83016.9
-23.480	83023.8
-23.475	83012.9
-23.470	83020.8
-23.465	83005.9
-23.460	82991.9
-23.455	82994.9
-23.450	83020.8
-23.445	83019.8
-23.440	83023.8
-23.435	83027.8
-23.430	83031.8
-23.425	83023.8
-23.420	83021.8
-23.415	83017.8
-23.410	83021.8
-23.405	83035.8
-23.400	83033.8
-23.395	83014.8
-23.390	83000.9
-23.385	83032.8
-23.380	83038.8
-23.375	83028.8
-23.370	83040.8
-23.365	83028.8
-23.360	83035.8
-23.355	83031.8
-23.350	83040.8
-23.345	83036.8
-23.340	83041.8
-23.335	83036.8
-23.330	83013.8
-23.325	83002.9
-23.320	83028.8
-23.315	83043.8
-23.310	83046.8
-23.305	83041.8
-23.300	83048.8
-23.295	83033.8
-23.290	83044.8
-23.285	83029.8
-23.280	83041.8
-23.275	83042.8
-23.270	83052.8
-23.265	83037.8
-23.260	83020.8
-23.255	83026.8
-23.250	83061.8
-23.245	83052.8
-23.240	83056.8
-23.235	83052.8
-23.230	83048.8
-23.225	83045.8
-23.220	83051.8
-23.215	83042.8
-23.210	83034.8
-23.205	83050.8
-23.200	83040.8
-23.195	83017.9
-23.190	83019.8
-23.185	83053.8
-23.180	83056.8
-23.175	83043.8
-23.170	83047.8
-23.165	83049.8
-23.160	83043.8
-23.155	83043.8
-23.150	83050.8
-23.145	83047.8
-23.140	83066.8
-23.135	83055.8
-23.130	83042.8
-23.125	83021.8
-23.120	83036.8
-23.115	83059.8
-23.110	83059.8
-23.105	83054.8
-23.100	83059.8
-23.095	83055.8
-23.090	83055.8
-23.085	83054.8
-23.080	83050.8
-23.075	83046.8
-23.070	83054.8
-23.065	83025.8
-23.060	83025.8
-23.055	83035.8
-23.050	83072.8
-23.045	83058.8
-23.040	83048.8
-23.035	83053.8
-23.030	83053.8
-23.025	83038.8
-23.020	83058.8
-23.015	83057.8
-23.010	83053.8
-23.005	83057.8
-23.000	83062.8
-22.995	83027.8
-22.990	83030.8
-22.985	83062.8
-22.980	83068.8
-22.975	83062.8
-22.970	83063.8
-22.965	83052.8
-22.960	83060.8
-22.955	83057.8
-22.950	83056.8
-22.945	83047.8
-22.940	83052.8
-22.935	83050.8
-22.930	83015.8
-22.925	83022.8
-22.920	83051.8
-22.915	83066.8
-22.910	83060.8
-22.905	83050.8
-22.900	83048.8
-22.895	83045.8
-22.890	83050.8
-22.885	83055.8
-22.880	83048.8
-22.875	83058.8
-22.870	83067.8
-22.865	83040.8
-22.860	83025.8
-22.855	83031.8
-22.850	83068.8
-22.845	83062.8
-22.840	83069.8
-22.835	83065.8
-22.830	83056.8
-22.825	83053.8
-22.820	83053.8
-22.815	83049.8
-22.810	83055.8
-22.805	83053.8
-22.800	83040.8
-22.795	83017.8
-22.790	83021.8
-22.785	83060.8
-22.780	83060.8
-22.775	83053.8
-22.770	83054.8
-22.765	83040.8
-22.760	83042.8
-22.755	83039.8
-22.750	83041.8
-22.745	83043.8
-22.740	83057.8
-22.735	83059.8
-22.730	83032.8
-22.725	83018.8
-22.720	83045.8
-22.715	83054.8
-22.710	83063.8
-22.705	83052.8
-22.700	83066.8
-22.695	83058.8
-22.690	83058.8
-22.685	83050.8
-22.680	83057.8
-22.675	83059.8
-22.670	83054.8
-22.665	83029.8
-22.660	83016.8
-22.655	83039.8
-22.650	83059.8
-22.645	83062.8
-22.640	83048.8
-22.635	83042.8
-22.630	83050.8
-22.625	83043.8
-22.620	83053.8
-22.615	83040.8
-22.610	83052.8
-22.605	83052.8
-22.600	83051.8
-22.595	83024.8
-22.590	83031.8
-22.585	83061.8
-22.580	83071.8
-22.575	83060.8
-22.570	83060.8
-22.565	83053.8
-22.560	83064.8
-22.555	83047.8
-22.550	83058.8
-22.545	83048.8
-22.540	83062.8
-22.535	83044.8
-22.530	83026.8
-22.525	83009.9
-22.520	83047.8
-22.515	83053.8
-22.510	83058.8
-22.505	83050.8
-22.500	83047.8
-22.495	83051.8
-22.490	83049.8
-22.485	83044.8
-22.480	83048.8
-22.475	83059.8
-22.470	83055.8
-22.465	83038.8
-22.460	83024.8
-22.455	83050.8
-22.450	83065.8
-22.445	83056.8
-22.440	83071.8
-22.435	83062.8
-22.430	83062.8
-22.425	83057.8
-22.420	83058.8
-22.415	83056.8
-22.410	83070.8
-22.405	83059.8
-22.400	83029.8
-22.395	83025.8
-22.390	83023.8
-22.385	83052.8
-22.380	83061.8
-22.375	83052.8
-22.370	83053.8
-22.365	83051.8
-22.360	83047.8
-22.355	83040.8
-22.350	83049.8
-22.345	83046.8
-22.340	83056.8
-22.335	83054.8
-22.330	83040.8
-22.325	83022.8
-22.320	83052.8
-22.315	83062.8
-22.310	83072.8
-22.305	83066.8
-22.300	83062.8
-22.295	83055.8
-22.290	83061.8
-22.285	83052.8
-22.280	83047.8
-22.275	83046.8
-22.270	83059.8
-22.265	83025.8
-22.260	83024.8
-22.255	83031.8
-22.250	83060.8
-22.245	83045.8
-22.240	83052.8
-22.235	83053.8
-22.230	83047.8
-22.225	83049.8
-22.220	83041.8
-22.215	83044.8
-22.210	83050.8
-22.205	83052.8
-22.200	83040.8
-22.195	83021.8
-22.190	83019.8
-22.185	83047.8
-22.180	83058.8
-22.175	83059.8
-22.170	83050.8
-22.165	83038.8
-22.160	83047.8
-22.155	83045.8
-22.150	83050.8
-22.145	83053.8
-22.140	83050.8
-22.135	83040.8
-22.130	83014.9
-22.125	83008.9
-22.120	83042.8
-22.115	83053.8
-22.110	83046.8
-22.105	83039.8
-22.100	83036.8
-22.095	83041.8
-22.090	83040.8
-22.085	83036.8
-22.080	83037.8
-22.075	83041.8
-22.070	83053.8
-22.065	83027.8
-22.060	83015.8
-22.055	83027.8
-22.050	83050.8
-22.045	83045.8
-22.040	83049.8
-22.035	83049.8
-22.030	83041.8
-22.025	83041.8
-22.020	83031.8
-22.015	83040.8
-22.010	83037.8
-22.005	83045.8
-22.000	83019.8
-21.995	83006.9
-21.990	83010.9
-21.985	83038.8
-21.980	83044.8
-21.975	83036.8
-21.970	83037.8
-21.965	83033.8
-21.960	83027.8
-21.955	83030.8
-21.950	83032.8
-21.945	83021.8
-21.940	83048.8
-21.935	83032.8
-21.930	83012.8
-21.925	83001.9
-21.920	83038.8
-21.915	83045.8
-21.910	83040.8
-21.905	83035.8
-21.900	83036.8
-21.895	83035.8
-21.890	83028.8
-21.885	83025.8
-21.880	83038.8
-21.875	83028.8
-21.870	83034.8
-21.865	83002.9
-21.860	82997.9
-21.855	83017.8
-21.850	83037.8
-21.845	83028.8
-21.840	83028.8
-21.835	83026.8
-21.830	83035.8
-21.825	83014.8
-21.820	83022.8
-21.815	83017.8
-21.810	83027.8
-21.805	83025.8
-21.800	83019.8
-21.795	83003.9
-21.790	82995.9
-21.785	83035.8
-21.780	83031.8
-21.775	83035.8
-21.770	83028.8
-21.765	83037.8
-21.760	83036.8
-21.755	83021.8
-21.750	83027.8
-21.745	83023.8
-21.740	83023.8
-21.735	83015.9
-21.730	82992.9
-21.725	82985.9
-21.720	83021.8
-21.715	83026.8
-21.710	83017.8
-21.705	83017.8
-21.700	83024.8
-21.695	83010.9
-21.690	83015.9
-21.685	83013.9
-21.680	83017.9
-21.675	83014.8
-21.670	83034.8
-21.665	82994.9
-21.660	82989.9
-21.655	83006.9
-21.650	83027.8
-21.645	83020.8
-21.640	83026.8
-21.635	83025.8
-21.630	83013.9
-21.625	83010.9
-21.620	83022.8
-21.615	83005.9
-21.610	83008.9
-21.605	83009.9
-21.600	82997.9
-21.595	82976.9
-21.590	82989.9
-21.585	83012.8
-21.580	83020.8
-21.575	83012.9
-21.570	83012.8
-21.565	83007.9
-21.560	82999.9
-21.555	83002.9
-21.550	83004.9
-21.545	83000.9
-21.540	83012.9
-21.535	83007.9
-21.530	82995.9
-21.525	82980.9
-21.520	83015.8
-21.515	83013.9
-21.510	83019.8
-21.505	83012.8
-21.500	83017.8
-21.495	83014.9
-21.490	83014.9
-21.485	83006.9
-21.480	83014.9
-21.475	83007.9
-21.470	83008.9
-21.465	82979.9
-21.460	82969.9
-21.455	82996.9
-21.450	83009.9
-21.445	83002.9
-21.440	83006.9
-21.435	83005.9
-21.430	83001.9
-21.425	82995.9
-21.420	82998.9
-21.415	82989.9
-21.410	83001.9
-21.405	82992.9
-21.400	82980.9
-21.395	82961.9
-21.390	82962.9
-21.385	82981.9
-21.380	82975.9
-21.375	82954.9
-21.370	82929.9
-21.365	82871.0
-21.360	82803.1
-21.355	82711.2
-21.350	82585.3
-21.345	82401.5
-21.340	82161.8
-21.335	81825.2
-21.330	81429.6
-21.325	80975.1
-21.320	80557.6
-21.315	80114.2
-21.310	79651.8
-21.305	79163.5
-21.300	78598.2
-21.295	77977.0
-21.290	77359.8
-21.285	76768.6
-21.280	76104.4
-21.275	75309.4
-21.270	74371.4
-21.265	73571.3
-21.260	73282.9
-21.255	73047.3
-21.250	72721.5
-21.245	73161.2
-21.240	73656.7
-21.235	73457.7
-21.230	73878.2
-21.225	74856.5
-21.220	75850.7
-21.215	76591.1
-21.210	76711.9
-21.205	75912.4
-21.200	74778.1
-21.195	74898.9
-21.190	75747.2
-21.185	75733.1
-21.180	75580.1
-21.175	76423.5
-21.170	75911.8
-21.165	74874.4
-21.160	76118.5
-21.155	77495.5
-21.150	77972.1
-21.145	78015.0
-21.140	77802.1
-21.135	77143.5
-21.130	75578.6
-21.125	75057.9
-21.120	76570.8
-21.115	77260.4
-21.110	77312.3
-21.105	77907.7
-21.100	78487.3
-21.095	78179.5
-21.090	76837.4
-21.085	75250.5
-21.080	75554.2
-21.075	77495.8
-21.070	77837.6
-21.065	75885.0
-21.060	74511.0
-21.055	75945.9
-21.050	78007.3
-21.045	78563.9
-21.040	78181.2
-21.035	77711.5
-21.030	77793.4
-21.025	77885.3
-21.020	77602.5
-21.015	77635.4
-21.010	78240.0
-21.005	78754.6
-21.000	78874.5
-20.995	78698.6
-20.990	78553.7
-20.985	78451.7
-20.980	78404.7
-20.975	78340.8
-20.970	78270.8
-20.965	78458.6
-20.960	78973.3
-20.955	79308.0
-20.950	79389.9
-20.945	79236.0
-20.940	78857.3
-20.935	78341.6
-20.930	78118.8
-20.925	78276.7
-20.920	78587.4
-20.915	78854.2
-20.910	78956.1
-20.905	78909.1
-20.900	78950.1
-20.895	79063.0
-20.890	79196.9
-20.885	79203.9
-20.880	79130.9
-20.875	79065.0
-20.870	79023.0
-20.865	78976.0
-20.860	79022.9
-20.855	79130.9
-20.850	79244.8
-20.845	79318.7
-20.840	79317.7
-20.835	79276.7
-20.830	79219.7
-20.825	79111.8
-20.820	79039.8
-20.815	78975.9
-20.810	78862.0
-20.805	78732.0
-20.800	78712.0
-20.795	78786.0
-20.790	78849.9
-20.785	78939.9
-20.780	79024.8
-20.775	79098.7
-20.770	79151.7
-20.765	79138.7
-20.760	79099.7
-20.755	79066.7
-20.750	79117.6
-20.745	79180.6
-20.740	79287.5
-20.735	79326.5
-20.730	79320.5
-20.725	79351.4
-20.720	79459.3
-20.715	79525.3
-20.710	79605.2
-20.705	79630.2
-20.700	79684.2
-20.695	79737.1
-20.690	79759.1
-20.685	79763.1
-20.680	79796.0
-20.675	79815.0
-20.670	79854.0
-20.665	79850.0
-20.660	79873.9
-20.655	79915.9
-20.650	79935.9
-20.645	79900.9
-20.640	79877.9
-20.635	79837.9
-20.630	79819.9
-20.625	79812.9
-20.620	79785.0
-20.615	79777.0
-20.610	79786.0
-20.605	79826.9
-20.600	79843.9
-20.595	79837.9
-20.590	79879.9
-20.585	79920.8
-20.580	79895.8
-20.575	79889.8
-20.570	79913.8
-20.565	79930.8
-20.560	79905.8
-20.555	79871.8
-20.550	79842.8
-20.545	79830.8
-20.540	79844.8
-20.535	79840.8
-20.530	79875.8
-20.525	79948.7
-20.520	80023.7
-20.515	80086.6
-20.510	80135.6
-20.505	80133.6
-20.500	80168.6
-20.495	80210.5
-20.490	80249.5
-20.485	80265.5
-20.480	80299.4
-20.475	80309.4
-20.470	80335.4
-20.465	80316.4
-20.460	80326.4
-20.455	80344.4
-20.450	80373.3
-20.445	80384.3
-20.440	80389.3
-20.435	80362.3
-20.430	80376.3
-20.425	80378.3
-20.420	80386.3
-20.415	80386.3
-20.410	80377.3
-20.405	80353.3
-20.400	80312.4
-20.395	80296.4
-20.390	80333.3
-20.385	80352.3
-20.380	80357.3
-20.375	80340.3
-20.370	80313.3
-20.365	80270.4
-20.360	80254.4
-20.355	80267.4
-20.350	80281.3
-20.345	80255.4
-20.340	80246.3
-20.335	80230.4
-20.330	80195.4
-20.325	80175.4
-20.320	80186.4
-20.315	80147.4
-20.310	80142.4
-20.305	80138.4
-20.300	80154.4
-20.295	80167.4
-20.290	80186.4
-20.285	80226.3
-20.280	80256.3
-20.275	80282.3
-20.270	80318.2
-20.265	80330.2
-20.260	80367.2
-20.255	80424.2
-20.250	80462.1
-20.245	80485.1
-20.240	80518.1
-20.235	80525.1
-20.230	80554.0
-20.225	80569.0
-20.220	80584.0
-20.215	80598.0
-20.210	80623.0
-20.205	80638.0
-20.200	80609.0
-20.195	80583.0
-20.190	80586.0
-20.185	80576.0
-20.180	80585.0
-20.175	80586.0
-20.170	80583.0
-20.165	80553.0
-20.160	80525.0
-20.155	80520.0
-20.150	80544.0
-20.145	80554.0
-20.140	80557.0
-20.135	80536.0
-20.130	80520.0
-20.125	80549.0
-20.120	80589.9
-20.115	80599.9
-20.110	80603.9
-20.105	80622.9
-20.100	80620.9
-20.095	80625.9
-20.090	80615.9
-20.085	80619.9
-20.080	80640.9
-20.075	80652.9
-20.070	80653.9
-20.065	80639.9
-20.060	80646.9
-20.055	80701.8
-20.050	80738.8
-20.045	80761.8
-20.040	80773.8
-20.035	80795.8
-20.030	80820.7
-20.025	80827.7
-20.020	80847.7
-20.015	80856.7
-20.010	80888.7
-20.005	80890.7
-20.000	80861.7
-19.995	80851.7
-19.990	80868.7
-19.985	80881.7
-19.980	80887.6
-19.975	80891.6
-19.970	80890.6
-19.965	80890.6
-19.960	80892.6
-19.955	80886.6
-19.950	80888.6
-19.945	80890.6
-19.940	80898.6
-19.935	80882.6
-19.930	80874.6
-19.925	80878.6
-19.920	80907.6
-19.915	80920.6
-19.910	80928.6
-19.905	80944.6
-19.900	80945.6
-19.895	80932.6
-19.890	80925.6
-19.885	80912.6
-19.880	80897.6
-19.875	80901.6
-19.870	80894.6
-19.865	80861.6
-19.860	80853.6
-19.855	80880.6
-19.850	80877.6
-19.845	80862.6
-19.840	80838.6
-19.835	80809.6
-19.830	80788.7
-19.825	80774.7
-19.820	80775.7
-19.815	80756.7
-19.810	80766.7
-19.805	80754.7
-19.800	80725.7
-19.795	80692.7
-19.790	80703.7
-19.785	80706.7
-19.780	80695.7
-19.775	80672.7
-19.770	80645.7
-19.765	80639.7
-19.760	80642.7
-19.755	80647.7
-19.750	80662.7
-19.745	80642.7
-19.740	80637.7
-19.735	80620.7
-19.730	80628.7
-19.725	80634.7
-19.720	80667.7
-19.715	80676.7
-19.710	80682.7
-19.705	80681.7
-19.700	80678.7
-19.695	80680.7
-19.690	80674.7
-19.685	80663.7
-19.680	80672.7
-19.675	80668.7
-19.670	80665.7
-19.665	80659.7
-19.660	80658.7
-19.655	80679.7
-19.650	80679.7
-19.645	80681.7
-19.640	80688.6
-19.635	80690.6
-19.630	80677.7
-19.625	80668.7
-19.620	80655.7
-19.615	80655.7
-19.610	80649.7
-19.605	80655.7
-19.600	80638.7
-19.595	80638.7
-19.590	80676.6
-19.585	80674.6
-19.580	80659.6
-19.575	80645.7
-19.570	80644.7
-19.565	80648.7
-19.560	80650.6
-19.555	80635.7
-19.550	80631.7
-19.545	80633.7
-19.540	80656.6
-19.535	80646.6
-19.530	80648.6
-19.525	80677.6
-19.520	80719.6
-19.515	80726.6
-19.510	80755.6
-19.505	80782.5
-19.500	80810.5
-19.495	80847.5
-19.490	80849.5
-19.485	80839.5
-19.480	80838.5
-19.475	80845.5
-19.470	80863.5
-19.465	80860.5
-19.460	80868.5
-19.455	80907.4
-19.450	80915.4
-19.445	80922.4
-19.440	80950.4
-19.435	80970.4
-19.430	80988.4
-19.425	81000.4
-19.420	81008.3
-19.415	81021.3
-19.410	81028.3
-19.405	81029.3
-19.400	80999.3
-19.395	80982.4
-19.390	80999.3
-19.385	81004.3
-19.380	81005.3
-19.375	80990.3
-19.370	80985.3
-19.365	80961.4
-19.360	80956.4
-19.355	80949.4
-19.350	80931.4
-19.345	80915.4
-19.340	80922.4
-19.335	80873.4
-19.330	80868.4
-19.325	80877.4
-19.320	80899.4
-19.315	80892.4
-19.310	80891.4
-19.305	80866.4
-19.300	80858.4
-19.295	80827.4
-19.290	80834.4
-19.285	80835.4
-19.280	80860.4
-19.275	80883.4
-19.270	80885.4
-19.265	80839.4
-19.260	80832.4
-19.255	80885.4
-19.250	80920.4
-19.245	80946.3
-19.240	80953.3
-19.235	80957.3
-19.230	80968.3
-19.225	80971.3
-19.220	80997.3
-19.215	81042.3
-19.210	81085.2
-19.205	81092.2
-19.200	81106.2
-19.195	81115.2
-19.190	81158.2
-19.185	81174.2
-19.180	81187.1
-19.175	81197.1
-19.170	81212.1
-19.165	81227.1
-19.160	81247.1
-19.155	81250.1
-19.150	81260.1
-19.145	81275.1
-19.140	81290.1
-19.135	81258.1
-19.130	81243.1
-19.125	81239.1
-19.120	81254.1
-19.115	81249.1
-19.110	81256.1
-19.105	81240.1
-19.100	81240.1
-19.095	81231.1
-19.090	81215.1
-19.085	81203.1
-19.080	81197.1
-19.075	81171.1
-19.070	81147.2
-19.065	81122.2
-19.060	81133.2
-19.055	81145.2
-19.050	81133.2
-19.045	81117.2
-19.040	81115.2
-19.035	81088.2
-19.030	81074.2
-19.025	81096.2
-19.020	81105.2
-19.015	81119.2
-19.010	81142.1
-19.005	81140.1
-19.000	81121.2
-18.995	81101.2
-18.990	81113.2
-18.985	81121.2
-18.980	81132.1
-18.975	81143.1
-18.970	81141.1
-18.965	81140.1
-18.960	81132.1
-18.955	81139.1
-18.950	81141.1
-18.945	81143.1
-18.940	81161.1
-18.935	81124.1
-18.930	81104.2
-18.925	81109.1
-18.920	81119.1
-18.915	81115.1
-18.910	81110.1
-18.905	81104.1
-18.900	81103.1
-18.895	81100.2
-18.890	81108.1
-18.885	81104.1
-18.880	81113.1
-18.875	81129.1
-18.870	81133.1
-18.865	81099.1
-18.860	81092.1
-18.855	81119.1
-18.850	81120.1
-18.845	81097.1
-18.840	81107.1
-18.835	81107.1
-18.830	81108.1
-18.825	81095.1
-18.820	81104.1
-18.815	81081.1
-18.810	81068.1
-18.805	81056.2
-18.800	81047.2
-18.795	81034.2
-18.790	81072.1
-18.785	81091.1
-18.780	81106.1
-18.775	81100.1
-18.770	81095.1
-18.765	81088.1
-18.760	81086.1
-18.755	81096.1
-18.750	81099.1
-18.745	81103.1
-18.740	81111.1
-18.735	81106.1
-18.730	81111.1
-18.725	81131.1
-18.720	81178.0
-18.715	81183.0
-18.710	81203.0
-18.705	81227.0
-18.700	81263.0
-18.695	81273.0
-18.690	81281.0
-18.685	81286.0
-18.680	81294.0
-18.675	81314.9
-18.670	81315.9
-18.665	81291.0
-18.660	81310.9
-18.655	81334.9
-18.650	81335.9
-18.645	81329.9
-18.640	81346.9
-18.635	81354.9
-18.630	81367.9
-18.625	81362.9
-18.620	81371.9
-18.615	81368.9
-18.610	81389.9
-18.605	81398.9
-18.600	81374.9
-18.595	81363.9
-18.590	81405.9
-18.585	81420.8
-18.580	81436.8
-18.575	81443.8
-18.570	81442.8
-18.565	81446.8
-18.560	81442.8
-18.555	81453.8
-18.550	81459.8
-18.545	81463.8
-18.540	81464.8
-18.535	81444.8
-18.530	81436.8
-18.525	81458.8
-18.520	81488.8
-18.515	81483.8
-18.510	81480.8
-18.505	81472.8
-18.500	81466.8
-18.495	81460.8
-18.490	81479.8
-18.485	81480.8
-18.480	81489.8
-18.475	81496.8
-18.470	81479.8
-18.465	81470.8
-18.460	81463.8
-18.455	81483.8
-18.450	81498.8
-18.445	81501.8
-18.440	81495.8
-18.435	81492.8
-18.430	81493.8
-18.425	81483.8
-18.420	81482.8
-18.415	81474.8
-18.410	81479.8
-18.405	81475.8
-18.400	81457.8
-18.395	81442.8
-18.390	81472.8
-18.385	81477.8
-18.380	81491.8
-18.375	81485.8
-18.370	81487.8
-18.365	81494.8
-18.360	81495.8
-18.355	81490.8
-18.350	81504.7
-18.345	81511.7
-18.340	81512.7
-18.335	81486.8
-18.330	81473.8
-18.325	81485.8
-18.320	81512.7
-18.315	81508.7
-18.310	81514.7
-18.305	81505.7
-18.300	81503.7
-18.295	81500.7
-18.290	81502.7
-18.285	81504.7
-18.280	81508.7
-18.275	81504.7
-18.270	81491.7
-18.265	81475.8
-18.260	81473.8
-18.255	81510.7
-18.250	81518.7
-18.245	81526.7
-18.240	81531.7
-18.235	81540.7
-18.230	81518.7
-18.225	81516.7
-18.220	81526.7
-18.215	81522.7
-18.210	81527.7
-18.205	81524.7
-18.200	81515.7
-18.195	81499.7
-18.190	81540.7
-18.185	81537.7
-18.180	81547.7
-18.175	81538.7
-18.170	81535.7
-18.165	81526.7
-18.160	81507.7
-18.155	81493.7
-18.150	81489.7
-18.145	81488.7
-18.140	81483.7
-18.135	81438.8
-18.130	81419.8
-18.125	81431.8
-18.120	81454.7
-18.115	81432.8
-18.110	81435.8
-18.105	81408.8
-18.100	81397.8
-18.095	81389.8
-18.090	81392.8
-18.085	81381.8
-18.080	81383.8
-18.075	81390.8
-18.070	81377.8
-18.065	81347.8
-18.060	81351.8
-18.055	81369.8
-18.050	81358.8
-18.045	81347.8
-18.040	81328.8
-18.035	81311.8
-18.030	81307.8
-18.025	81284.9
-18.020	81284.9
-18.015	81298.9
-18.010	81291.9
-18.005	81281.9
-18.000	81254.9
-17.995	81253.9
-17.990	81290.9
-17.985	81292.9
-17.980	81296.9
-17.975	81307.8
-17.970	81317.8
-17.965	81330.8
-17.960	81340.8
-17.955	81333.8
-17.950	81338.8
-17.945	81353.8
-17.940	81368.8
-17.935	81348.8
-17.930	81352.8
-17.925	81372.8
-17.920	81411.8
-17.915	81414.8
-17.910	81429.7
-17.905	81424.7
-17.900	81428.7
-17.895	81429.7
-17.890	81433.7
-17.885	81436.7
-17.880	81449.7
-17.875	81449.7
-17.870	81433.7
-17.865	81424.7
-17.860	81445.7
-17.855	81467.7
-17.850	81464.7
-17.845	81460.7
-17.840	81467.7
-17.835	81460.7
-17.830	81473.7
-17.825	81471.7
-17.820	81474.7
-17.815	81473.7
-17.810	81491.7
-17.805	81478.7
-17.800	81455.7
-17.795	81458.7
-17.790	81486.7
-17.785	81496.7
-17.780	81499.7
-17.775	81499.7
-17.770	81502.7
-17.765	81491.7
-17.760	81505.7
-17.755	81499.7
-17.750	81498.7
-17.745	81495.7
-17.740	81496.7
-17.735	81468.7
-17.730	81466.7
-17.725	81487.7
-17.720	81519.7
-17.715	81529.6
-17.710	81531.6
-17.705	81525.6
-17.700	81533.6
-17.695	81527.6
-17.690	81546.6
-17.685	81537.6
-17.680	81556.6
-17.675	81564.6
-17.670	81562.6
-17.665	81541.6
-17.660	81552.6
-17.655	81581.6
-17.650	81577.6
-17.645	81574.6
-17.640	81584.6
-17.635	81584.6
-17.630	81583.6
-17.625	81578.6
-17.620	81593.6
-17.615	81587.6
-17.610	81593.6
-17.605	81581.6
-17.600	81573.6
-17.595	81561.6
-17.590	81599.6
-17.585	81585.6
-17.580	81582.6
-17.575	81590.6
-17.570	81573.6
-17.565	81562.6
-17.560	81564.6
-17.555	81556.6
-17.550	81557.6
-17.545	81553.6
-17.540	81566.6
-17.535	81535.6
-17.530	81521.6
-17.525	81527.6
-17.520	81548.6
-17.515	81546.6
-17.510	81549.6
-17.505	81553.6
-17.500	81552.6
-17.495	81538.6
-17.490	81544.6
-17.485	81550.6
-17.480	81557.6
-17.475	81545.6
-17.470	81531.6
-17.465	81522.6
-17.460	81543.6
-17.455	81563.6
-17.450	81569.6
-17.445	81568.6
-17.440	81555.6
-17.435	81552.6
-17.430	81562.6
-17.425	81566.6
-17.420	81573.6
-17.415	81572.6
-17.410	81595.6
-17.405	81592.6
-17.400	81585.6
-17.395	81582.6
-17.390	81638.5
-17.385	81630.5
-17.380	81629.5
-17.375	81631.5
-17.370	81626.5
-17.365	81617.5
-17.360	81639.5
-17.355	81631.5
-17.350	81622.5
-17.345	81622.5
-17.340	81622.5
-17.335	81598.5
-17.330	81593.6
-17.325	81621.5
-17.320	81637.5
-17.315	81632.5
-17.310	81637.5
-17.305	81636.5
-17.300	81645.5
-17.295	81646.5
-17.290	81646.5
-17.285	81658.5
-17.280	81668.5
-17.275	81676.5
-17.270	81661.5
-17.265	81652.5
-17.260	81659.5
-17.255	81691.5
-17.250	81700.5
-17.245	81693.5
-17.240	81708.5
-17.235	81699.5
-17.230	81698.5
-17.225	81697.5
-17.220	81710.5
-17.215	81713.4
-17.210	81727.4
-17.205	81699.5
-17.200	81689.5
-17.195	81683.5
-17.190	81719.4
-17.185	81714.4
-17.180	81718.4
-17.175	81709.4
-17.170	81709.5
-17.165	81709.5
-17.160	81716.4
-17.155	81717.4
-17.150	81718.4
-17.145	81728.4
-17.140	81728.4
-17.135	81703.4
-17.130	81682.5
-17.125	81691.5
-17.120	81705.4
-17.115	81695.5
-17.110	81698.5
-17.105	81679.5
-17.100	81675.5
-17.095	81677.5
-17.090	81683.5
-17.085	81686.5
-17.080	81683.5
-17.075	81702.4
-17.070	81672.5
-17.065	81664.5
-17.060	81659.5
-17.055	81697.4
-17.050	81690.5
-17.045	81694.4
-17.040	81697.4
-17.035	81701.4
-17.030	81704.4
-17.025	81704.4
-17.020	81712.4
-17.015	81712.4
-17.010	81725.4
-17.005	81709.4
-17.000	81691.5
-16.995	81686.4
-16.990	81717.4
-16.985	81726.4
-16.980	81729.4
-16.975	81730.4
-16.970	81746.4
-16.965	81737.4
-16.960	81731.4
-16.955	81735.4
-16.950	81742.4
-16.945	81732.4
-16.940	81723.4
-16.935	81697.4
-16.930	81704.4
-16.925	81722.4
-16.920	81740.4
-16.915	81727.4
-16.910	81730.4
-16.905	81720.4
-16.900	81723.4
-16.895	81717.4
-16.890	81716.4
-16.885	81709.4
-16.880	81724.4
-16.875	81724.4
-16.870	81697.4
-16.865	81695.4
-16.860	81709.4
-16.855	81729.4
-16.850	81725.4
-16.845	81730.4
-16.840	81728.4
-16.835	81720.4
-16.830	81715.4
-16.825	81710.4
-16.820	81709.4
-16.815	81707.4
-16.810	81717.4
-16.805	81691.4
-16.800	81674.4
-16.795	81665.5
-16.790	81687.4
-16.785	81684.4
-16.780	81671.4
-16.775	81666.4
-16.770	81656.5
-16.765	81641.5
-16.760	81637.5
-16.755	81629.5
-16.750	81630.5
-16.745	81621.5
-16.740	81627.5
-16.735	81613.5
-16.730	81606.5
-16.725	81625.5
-16.720	81645.5
-16.715	81635.5
-16.710	81638.5
-16.705	81626.5
-16.700	81625.5
-16.695	81619.5
-16.690	81621.5
-16.685	81617.5
-16.680	81632.5
-16.675	81630.5
-16.670	81614.5
-16.665	81592.5
-16.660	81607.5
-16.655	81619.5
-16.650	81620.5
-16.645	81614.5
-16.640	81611.5
-16.635	81614.5
-16.630	81618.5
-16.625	81609.5
-16.620	81625.5
-16.615	81632.5
-16.610	81638.5
-16.605	81627.5
-16.600	81614.5
-16.595	81597.5
-16.590	81622.5
-16.585	81620.5
-16.580	81618.5
-16.575	81610.5
-16.570	81600.5
-16.565	81614.5
-16.560	81608.5
-16.555	81594.5
-16.550	81598.5
-16.545	81601.5
-16.540	81590.5
-16.535	81566.5
-16.530	81558.5
-16.525	81580.5
-16.520	81578.5
-16.515	81573.5
-16.510	81577.5
-16.505	81576.5
-16.500	81583.5
-16.495	81574.5
-16.490	81579.5
-16.485	81577.5
-16.480	81586.5
-16.475	81591.5
-16.470	81556.5
-16.465	81537.5
-16.460	81556.5
-16.455	81577.5
-16.450	81580.5
-16.445	81576.5
-16.440	81568.5
-16.435	81559.5
-16.430	81557.5
-16.425	81548.5
-16.420	81560.5
-16.415	81564.5
-16.410	81586.5
-16.405	81559.5
-16.400	81558.5
-16.395	81564.5
-16.390	81603.5
-16.385	81605.5
-16.380	81590.5
-16.375	81587.5
-16.370	81588.5
-16.365	81581.5
-16.360	81592.5
-16.355	81597.5
-16.350	81608.5
-16.345	81619.4
-16.340	81630.4
-16.335	81607.4
-16.330	81602.5
-16.325	81622.4
-16.320	81639.4
-16.315	81639.4
-16.310	81644.4
-16.305	81632.4
-16.300	81644.4
-16.295	81643.4
-16.290	81648.4
-16.285	81639.4
-16.280	81654.4
-16.275	81663.4
-16.270	81637.4
-16.265	81631.4
-16.260	81657.4
-16.255	81673.4
-16.250	81673.4
-16.245	81677.4
-16.240	81678.4
-16.235	81660.4
-16.230	81657.4
-16.225	81654.4
-16.220	81661.4
-16.215	81667.4
-16.210	81681.4
-16.205	81668.4
-16.200	81659.4
-16.195	81658.4
-16.190	81684.4
-16.185	81686.4
-16.180	81675.4
-16.175	81673.4
-16.170	81670.4
-16.165	81656.4
-16.160	81650.4
-16.155	81647.4
-16.150	81636.4
-16.145	81635.4
-16.140	81635.4
-16.135	81610.4
-16.130	81613.4
-16.125	81626.4
-16.120	81635.4
-16.115	81627.4
-16.110	81625.4
-16.105	81612.4
-16.100	81603.4
-16.095	81591.4
-16.090	81578.5
-16.085	81579.5
-16.080	81586.4
-16.075	81593.4
-16.070	81564.5
-16.065	81531.5
-16.060	81539.5
-16.055	81542.5
-16.050	81549.5
-16.045	81547.5
-16.040	81536.5
-16.035	81522.5
-16.030	81510.5
-16.025	81484.5
-16.020	81492.5
-16.015	81502.5
-16.010	81509.5
-16.005	81477.5
-16.000	81472.5
-15.995	81470.5
-15.990	81502.5
-15.985	81506.5
-15.980	81509.5
-15.975	81505.5
-15.970	81507.5
-15.965	81518.5
-15.960	81513.5
-15.955	81510.5
-15.950	81516.5
-15.945	81520.5
-15.940	81520.5
-15.935	81492.5
-15.930	81495.5
-15.925	81528.5
-15.920	81540.5
-15.915	81542.5
-15.910	81551.5
-15.905	81558.5
-15.900	81560.5
-15.895	81546.5
-15.890	81555.5
-15.885	81563.5
-15.880	81565.5
-15.875	81576.4
-15.870	81555.5
-15.865	81543.5
-15.860	81571.4
-15.855	81586.4
-15.850	81614.4
-15.845	81616.4
-15.840	81622.4
-15.835	81602.4
-15.830	81618.4
-15.825	81618.4
-15.820	81629.4
-15.815	81634.4
-15.810	81649.4
-15.805	81634.4
-15.800	81624.4
-15.795	81643.4
-15.790	81676.4
-15.785	81680.4
-15.780	81692.3
-15.775	81690.3
-15.770	81702.3
-15.765	81696.3
-15.760	81706.3
-15.755	81709.3
-15.750	81715.3
-15.745	81717.3
-15.740	81710.3
-15.735	81687.4
-15.730	81696.3
-15.725	81727.3
-15.720	81731.3
-15.715	81732.3
-15.710	81730.3
-15.705	81723.3
-15.700	81722.3
-15.695	81721.3
-15.690	81721.3
-15.685	81727.3
-15.680	81733.3
-15.675	81738.3
-15.670	81718.3
-15.665	81706.3
-15.660	81731.3
-15.655	81739.3
-15.650	81748.3
-15.645	81740.3
-15.640	81724.3
-15.635	81715.3
-15.630	81722.3
-15.625	81713.3
-15.620	81718.3
-15.615	81717.3
-15.610	81717.3
-15.605	81687.3
-15.600	81683.3
-15.595	81686.3
-15.590	81707.3
-15.585	81702.3
-15.580	81705.3
-15.575	81691.3
-15.570	81690.3
-15.565	81685.3
-15.560	81687.3
-15.555	81676.3
-15.550	81677.3
-15.545	81689.3
-15.540	81675.3
-15.535	81644.4
-15.530	81641.4
-15.525	81672.3
-15.520	81676.3
-15.515	81675.3
-15.510	81677.3
-15.505	81666.3
-15.500	81668.3
-15.495	81673.3
-15.490	81677.3
-15.485	81670.3
-15.480	81671.3
-15.475	81673.3
-15.470	81640.4
-15.465	81636.4
-15.460	81661.3
-15.455	81679.3
-15.450	81673.3
-15.445	81666.3
-15.440	81673.3
-15.435	81659.3
-15.430	81665.3
-15.425	81663.3
-15.420	81657.3
-15.415	81658.3
-15.410	81665.3
-15.405	81639.4
-15.400	81635.4
-15.395	81630.4
-15.390	81667.3
-15.385	81664.3
-15.380	81675.3
-15.375	81683.3
-15.370	81668.3
-15.365	81666.3
-15.360	81669.3
-15.355	81675.3
-15.350	81678.3
-15.345	81671.3
-15.340	81667.3
-15.335	81639.4
-15.330	81650.3
-15.325	81680.3
-15.320	81685.3
-15.315	81676.3
-15.310	81679.3
-15.305	81684.3
-15.300	81678.3
-15.295	81690.3
-15.290	81704.3
-15.285	81700.3
-15.280	81703.3
-15.275	81703.3
-15.270	81668.3
-15.265	81652.3
-15.260	81687.3
-15.255	81702.3
-15.250	81702.3
-15.245	81683.3
-15.240	81690.3
-15.235	81682.3
-15.230	81680.3
-15.225	81692.3
-15.220	81684.3
-15.215	81676.3
-15.210	81672.3
-15.205	81655.3
-15.200	81633.4
-15.195	81633.3
-15.190	81661.3
-15.185	81645.3
-15.180	81633.3
-15.175	81631.4
-15.170	81620.4
-15.165	81611.4
-15.160	81625.4
-15.155	81619.4
-15.150	81621.4
-15.145	81607.4
-15.140	81599.4
-15.135	81553.4
-15.130	81540.4
-15.125	81563.4
-15.120	81559.4
-15.115	81540.4
-15.110	81525.4
-15.105	81502.4
-15.100	81494.4
-15.095	81475.5
-15.090	81459.5
-15.085	81451.5
-15.080	81427.5
-15.075	81393.5
-15.070	81360.6
-15.065	81335.6
-15.060	81363.5
-15.055	81370.5
-15.050	81369.5
-15.045	81352.6
-15.040	81354.5
-15.035	81347.6
-15.030	81342.6
-15.025	81341.6
-15.020	81349.6
-15.015	81350.6
-15.010	81366.5
-15.005	81346.6
-15.000	81317.6
-14.995	81335.6
-14.990	81360.5
-14.985	81355.6
-14.980	81345.6
-14.975	81340.6
-14.970	81353.6
-14.965	81333.6
-14.960	81335.6
-14.955	81342.6
-14.950	81350.6
-14.945	81347.6
-14.940	81337.6
-14.935	81323.6
-14.930	81345.6
-14.925	81377.5
-14.920	81392.5
-14.915	81404.5
-14.910	81410.5
-14.905	81415.5
-14.900	81434.5
-14.895	81435.5
-14.890	81455.5
-14.885	81474.5
-14.880	81487.4
-14.875	81498.4
-14.870	81492.4
-14.865	81479.5
-14.860	81510.4
-14.855	81530.4
-14.850	81543.4
-14.845	81541.4
-14.840	81561.4
-14.835	81567.4
-14.830	81568.4
-14.825	81573.4
-14.820	81587.4
-14.815	81588.4
-14.810	81597.4
-14.805	81580.4
-14.800	81574.4
-14.795	81597.4
-14.790	81625.3
-14.785	81628.3
-14.780	81632.3
-14.775	81642.3
-14.770	81640.3
-14.765	81642.3
-14.760	81659.3
-14.755	81651.3
-14.750	81671.3
-14.745	81671.3
-14.740	81663.3
-14.735	81643.3
-14.730	81647.3
-14.725	81673.3
-14.720	81677.3
-14.715	81667.3
-14.710	81670.3
-14.705	81680.3
-14.700	81682.3
-14.695	81670.3
-14.690	81675.3
-14.685	81662.3
-14.680	81668.3
-14.675	81654.3
-14.670	81642.3
-14.665	81618.3
-14.660	81651.3
-14.655	81651.3
-14.650	81658.3
-14.645	81633.3
-14.640	81640.3
-14.635	81638.3
-14.630	81644.3
-14.625	81647.3
-14.620	81659.3
-14.615	81649.3
-14.610	81648.3
-14.605	81612.3
-14.600	81601.3
-14.595	81627.3
-14.590	81643.3
-14.585	81644.3
-14.580	81648.3
-14.575	81639.3
-14.570	81633.3
-14.565	81626.3
-14.560	81629.3
-14.555	81632.3
-14.550	81636.3
-14.545	81643.3
-14.540	81633.3
-14.535	81617.3
-14.530	81629.3
-14.525	81650.3
-14.520	81654.3
-14.515	81649.3
-14.510	81653.3
-14.505	81659.3
-14.500	81657.3
-14.495	81647.3
-14.490	81654.3
-14.485	81665.3
-14.480	81684.3
-14.475	81677.3
-14.470	81670.3
-14.465	81657.3
-14.460	81697.3
-14.455	81699.3
-14.450	81702.3
-14.445	81693.3
-14.440	81698.3
-14.435	81694.3
-14.430	81706.3
-14.425	81694.3
-14.420	81713.3
-14.415	81714.2
-14.410	81722.2
-14.405	81690.3
-14.400	81689.3
-14.395	81702.3
-14.390	81728.2
-14.385	81727.2
-14.380	81729.2
-14.375	81718.2
-14.370	81722.2
-14.365	81724.2
-14.360	81731.2
-14.355	81745.2
-14.350	81759.2
-14.345	81765.2
-14.340	81758.2
-14.335	81734.2
-14.330	81736.2
-14.325	81770.2
-14.320	81770.2
-14.315	81772.2
-14.310	81784.2
-14.305	81769.2
-14.300	81777.2
-14.295	81761.2
-14.290	81762.2
-14.285	81763.2
-14.280	81771.2
-14.275	81762.2
-14.270	81746.2
-14.265	81745.2
-14.260	81777.2
-14.255	81783.2
-14.250	81780.2
-14.245	81774.2
-14.240	81782.2
-14.235	81773.2
-14.230	81777.2
-14.225	81776.2
-14.220	81784.2
-14.215	81783.2
-14.210	81798.2
-14.205	81765.2
-14.200	81752.2
-14.195	81765.2
-14.190	81780.2
-14.185	81790.2
-14.180	81792.2
-14.175	81780.2
-14.170	81788.2
-14.165	81784.2
-14.160	81780.2
-14.155	81778.2
-14.150	81779.2
-14.145	81779.2
-14.140	81760.2
-14.135	81733.2
-14.130	81749.2
-14.125	81771.2
-14.120	81789.2
-14.115	81781.2
-14.110	81774.2
-14.105	81778.2
-14.100	81789.2
-14.095	81783.2
-14.090	81781.2
-14.085	81792.2
-14.080	81792.2
-14.075	81787.2
-14.070	81766.2
-14.065	81757.2
-14.060	81780.2
-14.055	81782.2
-14.050	81787.2
-14.045	81793.2
-14.040	81791.2
-14.035	81794.2
-14.030	81802.2
-14.025	81786.2
-14.020	81794.2
-14.015	81799.2
-14.010	81793.2
-14.005	81769.2
-14.000	81758.2
-13.995	81770.2
-13.990	81789.2
-13.985	81793.2
-13.980	81789.2
-13.975	81790.2
-13.970	81790.2
-13.965	81789.2
-13.960	81793.2
-13.955	81796.2
-13.950	81811.2
-13.945	81822.1
-13.940	81806.2
-13.935	81784.2
-13.930	81792.2
-13.925	81805.2
-13.920	81804.2
-13.915	81799.2
-13.910	81813.2
-13.905	81809.2
-13.900	81802.2
-13.895	81800.2
-13.890	81812.1
-13.885	81800.2
-13.880	81816.1
-13.875	81788.2
-13.870	81781.2
-13.865	81772.2
-13.860	81812.1
-13.855	81799.2
-13.850	81806.2
-13.845	81793.2
-13.840	81802.2
-13.835	81794.2
-13.830	81792.2
-13.825	81801.2
-13.820	81797.2
-13.815	81794.2
-13.810	81793.2
-13.805	81778.2
-13.800	81762.2
-13.795	81775.2
-13.790	81806.1
-13.785	81806.1
-13.780	81807.1
-13.775	81812.1
-13.770	81815.1
-13.765	81803.2
-13.760	81804.2
-13.755	81814.1
-13.750	81811.1
-13.745	81809.1
-13.740	81801.2
-13.735	81779.2
-13.730	81790.2
-13.725	81818.1
-13.720	81817.1
-13.715	81818.1
-13.710	81822.1
-13.705	81820.1
-13.700	81828.1
-13.695	81828.1
-13.690	81831.1
-13.685	81835.1
-13.680	81848.1
-13.675	81832.1
-13.670	81822.1
-13.665	81804.1
-13.660	81840.1
-13.655	81839.1
-13.650	81853.1
-13.645	81856.1
-13.640	81862.1
-13.635	81850.1
-13.630	81848.1
-13.625	81851.1
-13.620	81852.1
-13.615	81854.1
-13.610	81856.1
-13.605	81837.1
-13.600	81834.1
-13.595	81853.1
-13.590	81869.1
-13.585	81859.1
-13.580	81857.1
-13.575	81853.1
-13.570	81856.1
-13.565	81844.1
-13.560	81853.1
-13.555	81848.1
-13.550	81860.1
-13.545	81845.1
-13.540	81840.1
-13.535	81818.1
-13.530	81815.1
-13.525	81844.1
-13.520	81846.1
-13.515	81838.1
-13.510	81835.1
-13.505	81830.1
-13.500	81833.1
-13.495	81829.1
-13.490	81819.1
-13.485	81811.1
-13.480	81819.1
-13.475	81796.1
-13.470	81783.2
-13.465	81779.2
-13.460	81811.1
-13.455	81791.1
-13.450	81789.1
-13.445	81767.2
-13.440	81768.2
-13.435	81767.2
-13.430	81762.2
-13.425	81759.2
-13.420	81766.2
-13.415	81761.2
-13.410	81759.2
-13.405	81719.2
-13.400	81703.2
-13.395	81719.2
-13.390	81734.2
-13.385	81727.2
-13.380	81717.2
-13.375	81696.2
-13.370	81689.2
-13.365	81679.2
-13.360	81679.2
-13.355	81663.2
-13.350	81672.2
-13.345	81664.2
-13.340	81632.3
-13.335	81624.3
-13.330	81639.3
-13.325	81658.2
-13.320	81663.2
-13.315	81661.2
-13.310	81654.2
-13.305	81660.2
-13.300	81650.2
-13.295	81663.2
-13.290	81663.2
-13.285	81659.2
-13.280	81668.2
-13.275	81663.2
-13.270	81642.2
-13.265	81642.2
-13.260	81672.2
-13.255	81670.2
-13.250	81673.2
-13.245	81674.2
-13.240	81676.2
-13.235	81673.2
-13.230	81672.2
-13.225	81688.2
-13.220	81686.2
-13.215	81678.2
-13.210	81665.2
-13.205	81650.2
-13.200	81656.2
-13.195	81682.2
-13.190	81699.2
-13.185	81698.2
-13.180	81702.2
-13.175	81697.2
-13.170	81693.2
-13.165	81693.2
-13.160	81699.2
-13.155	81712.2
-13.150	81724.2
-13.145	81713.2
-13.140	81716.2
-13.135	81690.2
-13.130	81705.2
-13.125	81736.2
-13.120	81740.2
-13.115	81736.2
-13.110	81749.2
-13.105	81742.2
-13.100	81735.2
-13.095	81745.2
-13.090	81736.2
-13.085	81738.2
-13.080	81746.2
-13.075	81731.2
-13.070	81724.2
-13.065	81721.2
-13.060	81751.2
-13.055	81749.2
-13.050	81752.2
-13.045	81742.2
-13.040	81756.2
-13.035	81745.2
-13.030	81748.2
-13.025	81751.2
-13.020	81750.2
-13.015	81752.2
-13.010	81753.2
-13.005	81725.2
-13.000	81721.2
-12.995	81736.2
-12.990	81747.2
-12.985	81755.2
-12.980	81753.2
-12.975	81744.2
-12.970	81749.2
-12.965	81736.2
-12.960	81741.2
-12.955	81727.2
-12.950	81741.2
-12.945	81727.2
-12.940	81711.2
-12.935	81684.2
-12.930	81713.2
-12.925	81724.2
-12.920	81722.2
-12.915	81718.2
-12.910	81723.2
-12.905	81715.2
-12.900	81713.2
-12.895	81711.2
-12.890	81716.2
-12.885	81713.2
-12.880	81727.2
-12.875	81712.2
-12.870	81696.2
-12.865	81686.2
-12.860	81712.2
-12.855	81718.2
-12.850	81724.2
-12.845	81715.2
-12.840	81716.2
-12.835	81717.2
-12.830	81714.2
-12.825	81710.2
-12.820	81713.2
-12.815	81723.2
-12.810	81706.2
-12.805	81684.2
-12.800	81681.2
-12.795	81703.2
-12.790	81713.2
-12.785	81716.2
-12.780	81721.2
-12.775	81727.2
-12.770	81727.2
-12.765	81718.2
-12.760	81725.2
-12.755	81726.2
-12.750	81744.2
-12.745	81743.2
-12.740	81732.2
-12.735	81711.2
-12.730	81729.2
-12.725	81750.1
-12.720	81761.1
-12.715	81752.1
-12.710	81759.1
-12.705	81755.1
-12.700	81754.1
-12.695	81749.1
-12.690	81756.1
-12.685	81761.1
-12.680	81765.1
-12.675	81735.2
-12.670	81747.1
-12.665	81733.2
-12.660	81762.1
-12.655	81760.1
-12.650	81755.1
-12.645	81745.1
-12.640	81747.1
-12.635	81743.1
-12.630	81743.1
-12.625	81764.1
-12.620	81765.1
-12.615	81760.1
-12.610	81768.1
-12.605	81740.1
-12.600	81745.1
-12.595	81768.1
-12.590	81787.1
-12.585	81788.1
-12.580	81786.1
-12.575	81790.1
-12.570	81787.1
-12.565	81791.1
-12.560	81785.1
-12.555	81779.1
-12.550	81793.1
-12.545	81780.1
-12.540	81760.1
-12.535	81752.1
-12.530	81768.1
-12.525	81787.1
-12.520	81789.1
-12.515	81792.1
-12.510	81788.1
-12.505	81791.1
-12.500	81789.1
-12.495	81781.1
-12.490	81784.1
-12.485	81785.1
-12.480	81798.1
-12.475	81782.1
-12.470	81770.1
-12.465	81757.1
-12.460	81803.1
-12.455	81795.1
-12.450	81811.1
-12.445	81798.1
-12.440	81805.1
-12.435	81799.1
-12.430	81791.1
-12.425	81797.1
-12.420	81793.1
-12.415	81793.1
-12.410	81781.1
-12.405	81758.1
-12.400	81755.1
-12.395	81783.1
-12.390	81795.1
-12.385	81787.1
-12.380	81790.1
-12.375	81792.1
-12.370	81791.1
-12.365	81781.1
-12.360	81791.1
-12.355	81809.1
-12.350	81816.1
-12.345	81809.1
-12.340	81792.1
-12.335	81782.1
-12.330	81789.1
-12.325	81801.1
-12.320	81803.1
-12.315	81805.1
-12.310	81810.1
-12.305	81798.1
-12.300	81815.1
-12.295	81815.1
-12.290	81812.1
-12.285	81806.1
-12.280	81813.1
-12.275	81787.1
-12.270	81779.1
-12.265	81791.1
-12.260	81821.1
-12.255	81817.1
-12.250	81819.1
-12.245	81810.1
-12.240	81828.1
-12.235	81806.1
-12.230	81817.1
-12.225	81822.1
-12.220	81829.1
-12.215	81831.1
-12.210	81835.1
-12.205	81817.1
-12.200	81805.1
-12.195	81830.1
-12.190	81840.1
-12.185	81839.1
-12.180	81847.0
-12.175	81840.1
-12.170	81847.0
-12.165	81835.1
-12.160	81841.1
-12.155	81837.1
-12.150	81852.0
-12.145	81847.0
-12.140	81822.1
-12.135	81808.1
-12.130	81842.1
-12.125	81858.0
-12.120	81860.0
-12.115	81857.0
-12.110	81863.0
-12.105	81851.0
-12.100	81857.0
-12.095	81859.0
-12.090	81863.0
-12.085	81868.0
-12.080	81887.0
-12.075	81870.0
-12.070	81847.0
-12.065	81856.0
-12.060	81889.0
-12.055	81896.0
-12.050	81895.0
-12.045	81893.0
-12.040	81892.0
-12.035	81889.0
-12.030	81894.0
-12.025	81905.0
-12.020	81897.0
-12.015	81908.0
-12.010	81891.0
-12.005	81868.0
-12.000	81864.0
-11.995	81904.0
-11.990	81904.0
-11.985	81908.0
-11.980	81908.0
-11.975	81902.0
-11.970	81907.0
-11.965	81907.0
-11.960	81914.0
-11.955	81906.0
-11.950	81932.0
-11.945	81922.0
-11.940	81909.0
-11.935	81891.0
-11.930	81907.0
-11.925	81928.0
-11.920	81934.0
-11.915	81933.0
-11.910	81923.0
-11.905	81928.0
-11.900	81924.0
-11.895	81932.0
-11.890	81925.0
-11.885	81925.0
-11.880	81920.0
-11.875	81901.0
-11.870	81897.0
-11.865	81892.0
-11.860	81930.0
-11.855	81925.0
-11.850	81923.0
-11.845	81919.0
-11.840	81921.0
-11.835	81919.0
-11.830	81929.0
-11.825	81925.0
-11.820	81927.0
-11.815	81937.0
-11.810	81936.0
-11.805	81925.0
-11.800	81914.0
-11.795	81948.0
-11.790	81954.0
-11.785	81943.0
-11.780	81947.0
-11.775	81949.0
-11.770	81948.0
-11.765	81933.0
-11.760	81940.0
-11.755	81936.0
-11.750	81950.0
-11.745	81931.0
-11.740	81919.0
-11.735	81895.0
-11.730	81924.0
-11.725	81929.0
-11.720	81926.0
-11.715	81935.0
-11.710	81932.0
-11.705	81928.0
-11.700	81926.0
-11.695	81923.0
-11.690	81921.0
-11.685	81925.0
-11.680	81933.0
-11.675	81912.0
-11.670	81904.0
-11.665	81895.0
-11.660	81934.0
-11.655	81927.0
-11.650	81937.0
-11.645	81915.0
-11.640	81912.0
-11.635	81920.0
-11.630	81911.0
-11.625	81913.0
-11.620	81913.0
-11.615	81913.0
-11.610	81894.0
-11.605	81871.0
-11.600	81873.0
-11.595	81900.0
-11.590	81906.0
-11.585	81899.0
-11.580	81909.0
-11.575	81899.0
-11.570	81901.0
-11.565	81898.0
-11.560	81891.0
-11.555	81885.0
-11.550	81895.0
-11.545	81892.0
-11.540	81882.0
-11.535	81860.0
-11.530	81888.0
-11.525	81900.0
-11.520	81909.0
-11.515	81908.0
-11.510	81902.0
-11.505	81896.0
-11.500	81900.0
-11.495	81888.0
-11.490	81896.0
-11.485	81883.0
-11.480	81892.0
-11.475	81857.0
-11.470	81849.0
-11.465	81845.0
-11.460	81875.0
-11.455	81860.0
-11.450	81869.0
-11.445	81861.0
-11.440	81867.0
-11.435	81856.0
-11.430	81858.0
-11.425	81858.0
-11.420	81867.0
-11.415	81866.0
-11.410	81857.0
-11.405	81845.0
-11.400	81833.0
-11.395	81879.0
-11.390	81875.0
-11.385	81874.0
-11.380	81872.0
-11.375	81872.0
-11.370	81857.0
-11.365	81852.0
-11.360	81857.0
-11.355	81852.0
-11.350	81862.0
-11.345	81855.0
-11.340	81834.0
-11.335	81830.0
-11.330	81858.0
-11.325	81866.0
-11.320	81858.0
-11.315	81860.0
-11.310	81863.0
-11.305	81856.0
-11.300	81867.0
-11.295	81850.0
-11.290	81847.0
-11.285	81835.0
-11.280	81859.0
-11.275	81844.0
-11.270	81838.0
-11.265	81843.0
-11.260	81864.0
-11.255	81867.0
-11.250	81868.0
-11.245	81865.0
-11.240	81876.0
-11.235	81858.0
-11.230	81870.0
-11.225	81858.0
-11.220	81866.0
-11.215	81869.0
-11.210	81848.0
-11.205	81829.0
-11.200	81839.0
-11.195	81860.0
-11.190	81863.0
-11.185	81860.0
-11.180	81859.0
-11.175	81847.0
-11.170	81851.0
-11.165	81848.0
-11.160	81854.0
-11.155	81853.0
-11.150	81869.0
-11.145	81869.0
-11.140	81844.0
-11.135	81819.0
-11.130	81853.0
-11.125	81869.0
-11.120	81876.0
-11.115	81870.0
-11.110	81869.0
-11.105	81867.0
-11.100	81859.0
-11.095	81853.0
-11.090	81859.0
-11.085	81859.0
-11.080	81866.0
-11.075	81829.0
-11.070	81824.0
-11.065	81843.0
-11.060	81873.0
-11.055	81863.0
-11.050	81864.0
-11.045	81849.0
-11.040	81853.0
-11.035	81851.0
-11.030	81856.0
-11.025	81854.0
-11.020	81861.0
-11.015	81869.0
-11.010	81860.0
-11.005	81822.0
-11.000	81826.0
-10.995	81858.0
-10.990	81862.0
-10.985	81861.0
-10.980	81870.0
-10.975	81861.0
-10.970	81864.0
-10.965	81859.0
-10.960	81861.0
-10.955	81862.0
-10.950	81858.0
-10.945	81859.0
-10.940	81829.0
-10.935	81829.0
-10.930	81862.0
-10.925	81867.0
-10.920	81860.0
-10.915	81863.0
-10.910	81856.0
-10.905	81856.0
-10.900	81858.0
-10.895	81850.0
-10.890	81863.0
-10.885	81869.0
-10.880	81880.0
-10.875	81847.0
-10.870	81845.0
-10.865	81847.0
-10.860	81869.0
-10.855	81877.0
-10.850	81874.0
-10.845	81861.0
-10.840	81869.0
-10.835	81852.0
-10.830	81853.0
-10.825	81854.0
-10.820	81872.0
-10.815	81884.0
-10.810	81870.0
-10.805	81852.0
-10.800	81869.0
-10.795	81894.0
-10.790	81908.0
-10.785	81902.0
-10.780	81907.0
-10.775	81905.0
-10.770	81909.0
-10.765	81901.0
-10.760	81908.0
-10.755	81913.0
-10.750	81925.9
-10.745	81922.9
-10.740	81903.0
-10.735	81890.0
-10.730	81919.9
-10.725	81918.9
-10.720	81937.9
-10.715	81930.9
-10.710	81934.9
-10.705	81926.9
-10.700	81937.9
-10.695	81924.9
-10.690	81934.9
-10.685	81923.9
-10.680	81936.9
-10.675	81902.0
-10.670	81898.0
-10.665	81917.9
-10.660	81930.9
-10.655	81928.9
-10.650	81938.9
-10.645	81914.9
-10.640	81916.9
-10.635	81925.9
-10.630	81926.9
-10.625	81923.9
-10.620	81937.9
-10.615	81941.9
-10.610	81923.9
-10.605	81905.0
-10.600	81898.0
-10.595	81911.9
-10.590	81924.9
-10.585	81925.9
-10.580	81925.9
-10.575	81915.9
-10.570	81922.9
-10.565	81911.9
-10.560	81919.9
-10.555	81919.9
-10.550	81917.9
-10.545	81907.9
-10.540	81881.0
-10.535	81875.0
-10.530	81908.9
-10.525	81912.9
-10.520	81912.9
-10.515	81906.9
-10.510	81904.0
-10.505	81889.0
-10.500	81889.0
-10.495	81882.0
-10.490	81889.0
-10.485	81883.0
-10.480	81892.0
-10.475	81857.0
-10.470	81839.0
-10.465	81866.0
-10.460	81887.0
-10.455	81884.0
-10.450	81884.0
-10.445	81886.0
-10.440	81874.0
-10.435	81871.0
-10.430	81870.0
-10.425	81856.0
-10.420	81863.0
-10.415	81875.0
-10.410	81843.0
-10.405	81825.0
-10.400	81848.0
-10.395	81874.0
-10.390	81875.0
-10.385	81876.0
-10.380	81878.0
-10.375	81874.0
-10.370	81867.0
-10.365	81869.0
-10.360	81874.0
-10.355	81865.0
-10.350	81886.0
-10.345	81872.0
-10.340	81853.0
-10.335	81853.0
-10.330	81890.0
-10.325	81893.0
-10.320	81886.0
-10.315	81881.0
-10.310	81878.0
-10.305	81880.0
-10.300	81884.0
-10.295	81872.0
-10.290	81882.0
-10.285	81864.0
-10.280	81869.0
-10.275	81839.0
-10.270	81837.0
-10.265	81846.0
-10.260	81880.0
-10.255	81872.0
-10.250	81876.0
-10.245	81869.0
-10.240	81871.0
-10.235	81876.0
-10.230	81879.0
-10.225	81882.0
-10.220	81900.0
-10.215	81895.0
-10.210	81881.0
-10.205	81863.0
-10.200	81865.0
-10.195	81901.9
-10.190	81907.9
-10.185	81903.9
-10.180	81899.9
-10.175	81888.0
-10.170	81895.0
-10.165	81890.0
-10.160	81892.0
-10.155	81900.9
-10.150	81889.0
-10.145	81879.0
-10.140	81855.0
-10.135	81858.0
-10.130	81890.0
-10.125	81894.9
-10.120	81890.0
-10.115	81889.0
-10.110	81881.0
-10.105	81886.0
-10.100	81897.9
-10.095	81891.0
-10.090	81898.9
-10.085	81898.9
-10.080	81905.9
-10.075	81876.0
-10.070	81868.0
-10.065	81891.0
-10.060	81910.9
-10.055	81899.9
-10.050	81905.9
-10.045	81898.9
-10.040	81899.9
-10.035	81891.9
-10.030	81900.9
-10.025	81893.9
-10.020	81901.9
-10.015	81912.9
-10.010	81884.0
-10.005	81857.0
-10.000	81875.0
-9.995	81899.9
-9.990	81895.9
-9.985	81890.9
-9.980	81897.9
-9.975	81890.9
-9.970	81887.0
-9.965	81892.0
-9.960	81889.9
-9.955	81900.9
-9.950	81906.9
-9.945	81893.9
-9.940	81872.0
-9.935	81874.0
-9.930	81901.9
-9.925	81896.9
-9.920	81893.9
-9.915	81898.9
-9.910	81898.9
-9.905	81884.0
-9.900	81888.0
-9.895	81887.9
-9.890	81889.9
-9.885	81898.9
-9.880	81893.9
-9.875	81858.0
-9.870	81864.0
-9.865	81877.0
-9.860	81891.9
-9.855	81891.9
-9.850	81891.9
-9.845	81875.0
-9.840	81884.0
-9.835	81885.9
-9.830	81885.0
-9.825	81883.9
-9.820	81893.9
-9.815	81890.9
-9.810	81871.0
-9.805	81858.0
-9.800	81857.0
-9.795	81879.0
-9.790	81889.9
-9.785	81882.9
-9.780	81883.9
-9.775	81870.0
-9.770	81878.9
-9.765	81868.0
-9.760	81873.0
-9.755	81873.0
-9.750	81882.9
-9.745	81867.0
-9.740	81848.0
-9.735	81852.0
-9.730	81885.9
-9.725	81883.9
-9.720	81875.0
-9.715	81870.0
-9.710	81878.9
-9.705	81875.9
-9.700	81879.9
-9.695	81879.9
-9.690	81889.9
-9.685	81878.9
-9.680	81884.9
-9.675	81853.0
-9.670	81860.0
-9.665	81875.9
-9.660	81889.9
-9.655	81885.9
-9.650	81880.9
-9.645	81883.9
-9.640	81891.9
-9.635	81876.9
-9.630	81876.9
-9.625	81880.9
-9.620	81888.9
-9.615	81893.9
-9.610	81858.0
-9.605	81858.0
-9.600	81861.0
-9.595	81881.9
-9.590	81890.9
-9.585	81871.9
-9.580	81880.9
-9.575	81872.9
-9.570	81881.9
-9.565	81865.9
-9.560	81878.9
-9.555	81873.9
-9.550	81883.9
-9.545	81875.9
-9.540	81859.9
-9.535	81844.9
-9.530	81877.9
-9.525	81893.9
-9.520	81871.8
-9.515	81864.8
-9.510	81827.7
-9.505	81754.6
-9.500	81681.4
-9.495	81583.3
-9.490	81489.0
-9.485	81360.8
-9.480	81192.6
-9.475	80965.4
-9.470	80681.2
-9.465	80356.0
-9.460	80012.8
-9.455	79520.8
-9.450	78951.8
-9.445	78648.5
-9.440	78735.0
-9.435	78971.4
-9.430	79099.2
-9.425	79097.2
-9.420	79152.5
-9.415	79423.7
-9.410	79724.9
-9.405	79825.2
-9.400	79841.5
-9.395	79907.7
-9.390	80105.7
-9.385	80406.7
-9.380	80708.6
-9.375	80958.5
-9.370	81118.5
-9.365	81218.5
-9.360	81310.5
-9.355	81338.6
-9.350	81317.6
-9.345	81264.8
-9.340	81252.8
-9.335	81290.9
-9.330	81419.8
-9.325	81482.8
-9.320	81504.8
-9.315	81508.9
-9.310	81520.9
-9.305	81540.0
-9.300	81557.0
-9.295	81552.0
-9.290	81584.0
-9.285	81623.0
-9.280	81646.1
-9.275	81647.1
-9.270	81663.1
-9.265	81678.1
-9.260	81691.1
-9.255	81681.2
-9.250	81703.2
-9.245	81698.2
-9.240	81664.3
-9.235	81661.3
-9.230	81672.3
-9.225	81673.3
-9.220	81695.3
-9.215	81722.3
-9.210	81702.4
-9.205	81703.4
-9.200	81724.4
-9.195	81735.4
-9.190	81732.4
-9.185	81724.4
-9.180	81725.5
-9.175	81718.5
-9.170	81722.5
-9.165	81728.5
-9.160	81722.5
-9.155	81730.5
-9.150	81728.5
-9.145	81694.6
-9.140	81665.6
-9.135	81620.7
-9.130	81639.7
-9.125	81656.6
-9.120	81703.6
-9.115	81719.6
-9.110	81726.6
-9.105	81727.6
-9.100	81733.7
-9.095	81739.7
-9.090	81692.7
-9.085	81674.7
-9.080	81685.7
-9.075	81691.7
-9.070	81719.7
-9.065	81743.7
-9.060	81712.8
-9.055	81693.8
-9.050	81732.8
-9.045	81746.8
-9.040	81745.8
-9.035	81701.8
-9.030	81671.8
-9.025	81705.8
-9.020	81754.8
-9.015	81771.8
-9.010	81750.8
-9.005	81741.8
-9.000	81755.8
-8.995	81773.8
-8.990	81773.8
-8.985	81783.8
-8.980	81804.8
-8.975	81784.8
-8.970	81769.9
-8.965	81776.9
-8.960	81784.9
-8.955	81787.9
-8.950	81801.9
-8.945	81776.9
-8.940	81746.9
-8.935	81755.9
-8.930	81788.9
-8.925	81791.9
-8.920	81792.9
-8.915	81788.9
-8.910	81785.9
-8.905	81779.9
-8.900	81791.9
-8.895	81782.9
-8.890	81799.9
-8.885	81807.9
-8.880	81809.9
-8.875	81784.0
-8.870	81784.0
-8.865	81803.0
-8.860	81812.9
-8.855	81821.9
-8.850	81828.0
-8.845	81820.0
-8.840	81835.0
-8.835	81823.0
-8.830	81827.0
-8.825	81816.0
-8.820	81806.0
-8.815	81821.0
-8.810	81811.0
-8.805	81791.0
-8.800	81814.0
-8.795	81839.0
-8.790	81832.0
-8.785	81833.0
-8.780	81840.0
-8.775	81833.0
-8.770	81845.0
-8.765	81855.0
-8.760	81849.0
-8.755	81849.0
-8.750	81856.0
-8.745	81847.0
-8.740	81824.0
-8.735	81819.0
-8.730	81856.0
-8.725	81852.0
-8.720	81851.0
-8.715	81863.0
-8.710	81866.0
-8.705	81853.0
-8.700	81848.1
-8.695	81853.1
-8.690	81865.1
-8.685	81838.1
-8.680	81816.1
-8.675	81728.2
-8.670	81651.2
-8.665	81530.3
-8.660	81215.6
-8.655	80748.9
-8.650	80511.1
-8.645	80808.9
-8.640	81376.5
-8.635	81734.2
-8.630	81838.1
-8.625	81872.1
-8.620	81891.1
-8.615	81897.1
-8.610	81874.1
-8.605	81849.1
-8.600	81873.1
-8.595	81888.1
-8.590	81910.1
-8.585	81900.1
-8.580	81901.1
-8.575	81897.1
-8.570	81900.1
-8.565	81893.1
-8.560	81903.1
-8.555	81899.1
-8.550	81914.1
-8.545	81895.1
-8.540	81885.1
-8.535	81880.1
-8.530	81909.1
-8.525	81920.1
-8.520	81920.1
-8.515	81915.1
-8.510	81913.1
-8.505	81918.1
-8.500	81921.1
-8.495	81924.1
-8.490	81929.1
-8.485	81927.1
-8.480	81912.1
-8.475	81897.2
-8.470	81895.2
-8.465	81917.1
-8.460	81930.1
-8.455	81933.1
-8.450	81933.1
-8.445	81937.1
-8.440	81942.1
-8.435	81939.1
-8.430	81936.1
-8.425	81935.1
-8.420	81937.1
-8.415	81924.2
-8.410	81905.2
-8.405	81900.2
-8.400	81922.2
-8.395	81934.2
-8.390	81931.2
-8.385	81940.2
-8.380	81947.2
-8.375	81944.2
-8.370	81955.1
-8.365	81956.2
-8.360	81962.1
-8.355	81958.2
-8.350	81972.1
-8.345	81945.2
-8.340	81930.2
-8.335	81921.2
-8.330	81950.2
-8.325	81952.2
-8.320	81959.2
-8.315	81970.2
-8.310	81963.2
-8.305	81961.2
-8.300	81956.2
-8.295	81953.2
-8.290	81954.2
-8.285	81952.2
-8.280	81945.2
-8.275	81910.2
-8.270	81911.2
-8.265	81943.2
-8.260	81950.2
-8.255	81934.2
-8.250	81938.2
-8.245	81941.2
-8.240	81945.2
-8.235	81949.2
-8.230	81948.2
-8.225	81951.2
-8.220	81953.2
-8.215	81956.2
-8.210	81940.2
-8.205	81924.2
-8.200	81943.2
-8.195	81955.2
-8.190	81965.2
-8.185	81951.2
-8.180	81954.2
-8.175	81944.2
-8.170	81944.2
-8.165	81940.2
-8.160	81947.2
-8.155	81945.2
-8.150	81941.2
-8.145	81922.3
-8.140	81903.3
-8.135	81913.3
-8.130	81946.2
-8.125	81941.2
-8.120	81933.3
-8.115	81930.3
-8.110	81933.3
-8.105	81928.3
-8.100	81927.3
-8.095	81932.3
-8.090	81928.3
-8.085	81938.3
-8.080	81930.3
-8.075	81909.3
-8.070	81896.3
-8.065	81929.3
-8.060	81938.3
-8.055	81934.3
-8.050	81944.3
-8.045	81943.3
-8.040	81936.3
-8.035	81925.3
-8.030	81922.3
-8.025	81923.3
-8.020	81929.3
-8.015	81912.3
-8.010	81898.3
-8.005	81894.3
-8.000	81917.3
-7.995	81924.3
-7.990	81929.3
-7.985	81911.3
-7.980	81910.3
-7.975	81908.3
-7.970	81922.3
-7.965	81911.3
-7.960	81911.3
-7.955	81917.3
-7.950	81930.3
-7.945	81900.3
-7.940	81890.3
-7.935	81899.3
-7.930	81925.3
-7.925	81919.3
-7.920	81926.3
-7.915	81912.3
-7.910	81919.3
-7.905	81903.3
-7.900	81911.3
-7.895	81907.3
-7.890	81920.3
-7.885	81918.3
-7.880	81906.3
-7.875	81877.4
-7.870	81888.3
-7.865	81917.3
-7.860	81926.3
-7.855	81912.3
-7.850	81910.3
-7.845	81903.3
-7.840	81903.3
-7.835	81905.3
-7.830	81911.3
-7.825	81897.3
-7.820	81914.3
-7.815	81907.3
-7.810	81888.4
-7.805	81877.4
-7.800	81904.3
-7.795	81905.3
-7.790	81912.3
-7.785	81908.4
-7.780	81908.3
-7.775	81903.4
-7.770	81907.4
-7.765	81910.3
-7.760	81909.4
-7.755	81900.4
-7.750	81904.4
-7.745	81878.4
-7.740	81880.4
-7.735	81893.4
-7.730	81914.4
-7.725	81920.4
-7.720	81923.3
-7.715	81910.4
-7.710	81913.4
-7.705	81906.4
-7.700	81905.4
-7.695	81910.4
-7.690	81911.4
-7.685	81909.4
-7.680	81893.4
-7.675	81851.4
-7.670	81825.4
-7.665	81828.4
-7.660	81809.4
-7.655	81778.5
-7.650	81716.5
-7.645	81664.6
-7.640	81623.6
-7.635	81579.6
-7.630	81546.7
-7.625	81543.7
-7.620	81548.7
-7.615	81552.7
-7.610	81537.7
-7.605	81542.7
-7.600	81615.6
-7.595	81670.6
-7.590	81714.5
-7.585	81748.5
-7.580	81772.5
-7.575	81798.5
-7.570	81822.5
-7.565	81826.5
-7.560	81832.5
-7.555	81835.4
-7.550	81831.5
-7.545	81810.5
-7.540	81787.5
-7.535	81783.5
-7.530	81796.5
-7.525	81782.5
-7.520	81778.5
-7.515	81762.5
-7.510	81773.5
-7.505	81768.5
-7.500	81779.5
-7.495	81767.5
-7.490	81786.5
-7.485	81780.5
-7.480	81770.5
-7.475	81750.5
-7.470	81758.5
-7.465	81800.5
-7.460	81799.5
-7.455	81795.5
-7.450	81802.5
-7.445	81800.5
-7.440	81801.5
-7.435	81793.5
-7.430	81811.5
-7.425	81798.5
-7.420	81809.5
-7.415	81818.5
-7.410	81806.5
-7.405	81777.5
-7.400	81801.5
-7.395	81817.5
-7.390	81811.5
-7.385	81815.5
-7.380	81818.5
-7.375	81802.5
-7.370	81808.5
-7.365	81799.5
-7.360	81794.5
-7.355	81786.5
-7.350	81784.5
-7.345	81759.5
-7.340	81750.5
-7.335	81765.5
-7.330	81778.5
-7.325	81772.5
-7.320	81767.5
-7.315	81769.5
-7.310	81772.5
-7.305	81764.5
-7.300	81774.5
-7.295	81778.5
-7.290	81788.5
-7.285	81797.5
-7.280	81796.5
-7.275	81789.5
-7.270	81801.5
-7.265	81839.5
-7.260	81851.5
-7.255	81855.5
-7.250	81856.5
-7.245	81847.5
-7.240	81867.5
-7.235	81860.5
-7.230	81861.5
-7.225	81860.5
-7.220	81870.5
-7.215	81847.5
-7.210	81848.5
-7.205	81844.5
-7.200	81876.5
-7.195	81876.5
-7.190	81871.5
-7.185	81871.5
-7.180	81878.5
-7.175	81860.5
-7.170	81875.5
-7.165	81875.5
-7.160	81883.5
-7.155	81886.5
-7.150	81882.5
-7.145	81857.5
-7.140	81846.5
-7.135	81860.5
-7.130	81882.5
-7.125	81891.5
-7.120	81896.5
-7.115	81893.5
-7.110	81900.5
-7.105	81893.5
-7.100	81914.5
-7.095	81911.5
-7.090	81916.5
-7.085	81909.5
-7.080	81903.5
-7.075	81897.5
-7.070	81898.5
-7.065	81936.4
-7.060	81933.4
-7.055	81925.4
-7.050	81924.4
-7.045	81936.4
-7.040	81932.4
-7.035	81935.4
-7.030	81938.4
-7.025	81945.4
-7.020	81953.4
-7.015	81942.4
-7.010	81939.4
-7.005	81922.5
-7.000	81949.4
-6.995	81963.4
-6.990	81962.4
-6.985	81965.4
-6.980	81970.4
-6.975	81961.4
-6.970	81978.4
-6.965	81970.4
-6.960	81973.4
-6.955	81986.4
-6.950	81989.4
-6.945	81961.4
-6.940	81962.4
-6.935	81988.4
-6.930	82007.4
-6.925	82004.4
-6.920	81995.4
-6.915	82004.4
-6.910	82003.4
-6.905	82003.4
-6.900	82015.4
-6.895	81999.4
-6.890	82010.4
-6.885	82009.4
-6.880	81999.4
-6.875	81975.4
-6.870	81976.4
-6.865	81998.4
-6.860	82004.4
-6.855	81993.4
-6.850	81991.4
-6.845	81998.4
-6.840	81993.4
-6.835	81991.4
-6.830	81995.4
-6.825	81994.4
-6.820	81995.4
-6.815	81975.4
-6.810	81963.4
-6.805	81956.4
-6.800	81993.4
-6.795	81993.4
-6.790	81986.4
-6.785	81976.4
-6.780	81989.4
-6.775	81976.4
-6.770	81970.4
-6.765	81966.4
-6.760	81980.4
-6.755	81971.4
-6.750	81970.4
-6.745	81948.4
-6.740	81933.5
-6.735	81945.4
-6.730	81968.4
-6.725	81962.4
-6.720	81974.4
-6.715	81967.4
-6.710	81965.4
-6.705	81964.4
-6.700	81960.4
-6.695	81956.4
-6.690	81964.4
-6.685	81957.4
-6.680	81928.5
-6.675	81907.5
-6.670	81921.5
-6.665	81934.5
-6.660	81946.4
-6.655	81939.5
-6.650	81940.5
-6.645	81941.5
-6.640	81929.5
-6.635	81926.5
-6.630	81924.5
-6.625	81925.5
-6.620	81928.5
-6.615	81935.5
-6.610	81907.5
-6.605	81908.5
-6.600	81935.5
-6.595	81925.5
-6.590	81943.5
-6.585	81923.5
-6.580	81922.5
-6.575	81916.5
-6.570	81914.5
-6.565	81910.5
-6.560	81910.5
-6.555	81909.5
-6.550	81898.5
-6.545	81864.5
-6.540	81850.5
-6.535	81856.5
-6.530	81868.5
-6.525	81852.5
-6.520	81840.5
-6.515	81824.6
-6.510	81816.6
-6.505	81811.6
-6.500	81801.6
-6.495	81792.6
-6.490	81798.6
-6.485	81800.6
-6.480	81792.6
-6.475	81769.6
-6.470	81773.6
-6.465	81799.6
-6.460	81807.6
-6.455	81802.6
-6.450	81801.6
-6.445	81796.6
-6.440	81811.6
-6.435	81807.6
-6.430	81814.6
-6.425	81811.6
-6.420	81822.6
-6.415	81812.6
-6.410	81792.6
-6.405	81793.6
-6.400	81831.6
-6.395	81821.6
-6.390	81822.6
-6.385	81827.6
-6.380	81826.6
-6.375	81813.6
-6.370	81814.6
-6.365	81801.6
-6.360	81802.6
-6.355	81808.6
-6.350	81817.6
-6.345	81787.6
-6.340	81779.6
-6.335	81795.6
-6.330	81805.6
-6.325	81809.6
-6.320	81804.6
-6.315	81796.6
-6.310	81800.6
-6.305	81795.6
-6.300	81801.6
-6.295	81791.6
-6.290	81800.6
-6.285	81804.6
-6.280	81785.6
-6.275	81775.6
-6.270	81781.6
-6.265	81799.6
-6.260	81804.6
-6.255	81795.6
-6.250	81797.6
-6.245	81802.6
-6.240	81803.6
-6.235	81791.6
-6.230	81797.6
-6.225	81793.6
-6.220	81804.6
-6.215	81795.6
-6.210	81782.6
-6.205	81771.6
-6.200	81803.6
-6.195	81806.6
-6.190	81806.6
-6.185	81812.6
-6.180	81818.6
-6.175	81828.6
-6.170	81830.6
-6.165	81817.6
-6.160	81820.6
-6.155	81825.6
-6.150	81829.6
-6.145	81807.6
-6.140	81803.6
-6.135	81827.6
-6.130	81842.6
-6.125	81847.6
-6.120	81849.6
-6.115	81837.6
-6.110	81842.6
-6.105	81845.6
-6.100	81857.6
-6.095	81861.6
-6.090	81863.6
-6.085	81863.6
-6.080	81848.6
-6.075	81827.6
-6.070	81840.6
-6.065	81859.6
-6.060	81869.6
-6.055	81863.6
-6.050	81874.6
-6.045	81866.6
-6.040	81863.6
-6.035	81852.6
-6.030	81859.6
-6.025	81871.6
-6.020	81883.5
-6.015	81854.6
-6.010	81847.6
-6.005	81840.6
-6.000	81875.6
-5.995	81862.6
-5.990	81872.6
-5.985	81868.6
-5.980	81879.6
-5.975	81871.6
-5.970	81867.6
-5.965	81866.6
-5.960	81873.6
-5.955	81882.6
-5.950	81882.6
-5.945	81857.6
-5.940	81853.6
-5.935	81871.6
-5.930	81881.6
-5.925	81883.6
-5.920	81888.6
-5.915	81887.6
-5.910	81887.6
-5.905	81882.6
-5.900	81883.6
-5.895	81889.6
-5.890	81890.6
-5.885	81892.6
-5.880	81878.6
-5.875	81852.6
-5.870	81867.6
-5.865	81887.6
-5.860	81893.6
-5.855	81893.6
-5.850	81893.6
-5.845	81895.6
-5.840	81891.6
-5.835	81887.6
-5.830	81891.6
-5.825	81891.6
-5.820	81900.6
-5.815	81881.6
-5.810	81870.6
-5.805	81859.6
-5.800	81891.6
-5.795	81890.6
-5.790	81902.6
-5.785	81896.6
-5.780	81889.6
-5.775	81881.6
-5.770	81878.6
-5.765	81870.6
-5.760	81875.5
-5.755	81872.5
-5.750	81868.5
-5.745	81830.5
-5.740	81818.5
-5.735	81833.5
-5.730	81855.5
-5.725	81843.5
-5.720	81835.5
-5.715	81837.5
-5.710	81844.5
-5.705	81836.5
-5.700	81842.5
-5.695	81849.5
-5.690	81859.4
-5.685	81858.5
-5.680	81842.5
-5.675	81823.5
-5.670	81842.5
-5.665	81865.5
-5.660	81874.5
-5.655	81866.5
-5.650	81867.5
-5.645	81869.6
-5.640	81862.6
-5.635	81858.6
-5.630	81860.6
-5.625	81850.6
-5.620	81863.6
-5.615	81844.6
-5.610	81839.6
-5.605	81835.6
-5.600	81870.6
-5.595	81853.6
-5.590	81860.6
-5.585	81857.6
-5.580	81861.6
-5.575	81855.6
-5.570	81869.6
-5.565	81855.6
-5.560	81866.6
-5.555	81872.6
-5.550	81861.6
-5.545	81829.6
-5.540	81833.6
-5.535	81842.6
-5.530	81855.6
-5.525	81865.6
-5.520	81868.6
-5.515	81860.6
-5.510	81865.6
-5.505	81847.6
-5.500	81851.6
-5.495	81839.6
-5.490	81847.6
-5.485	81845.6
-5.480	81814.6
-5.475	81797.7
-5.470	81819.6
-5.465	81838.6
-5.460	81835.6
-5.455	81833.6
-5.450	81825.6
-5.445	81813.7
-5.440	81798.7
-5.435	81785.7
-5.430	81753.8
-5.425	81733.0
-5.420	81712.2
-5.415	81644.4
-5.410	81513.8
-5.405	81407.3
-5.400	81359.7
-5.395	81266.2
-5.390	81157.8
-5.385	81053.5
-5.380	80934.2
-5.375	80770.0
-5.370	80676.8
-5.365	80624.4
-5.360	80567.0
-5.355	80453.8
-5.350	80359.5
-5.345	80389.8
-5.340	80589.7
-5.335	80851.2
-5.330	81045.6
-5.325	81185.0
-5.320	81320.5
-5.315	81418.1
-5.310	81495.7
-5.305	81539.4
-5.300	81585.1
-5.295	81617.9
-5.290	81653.7
-5.285	81665.5
-5.280	81667.3
-5.275	81655.2
-5.270	81668.1
-5.265	81675.0
-5.260	81677.9
-5.255	81687.8
-5.250	81704.7
-5.245	81714.6
-5.240	81730.5
-5.235	81736.4
-5.230	81747.3
-5.225	81758.3
-5.220	81751.2
-5.215	81714.2
-5.210	81704.1
-5.205	81712.1
-5.200	81778.0
-5.195	81796.9
-5.190	81836.8
-5.185	81847.7
-5.180	81856.7
-5.175	81859.6
-5.170	81850.6
-5.165	81851.5
-5.160	81875.5
-5.155	81888.4
-5.150	81884.4
-5.145	81847.4
-5.140	81840.4
-5.135	81876.3
-5.130	81887.3
-5.125	81897.2
-5.120	81912.2
-5.115	81930.2
-5.110	81923.1
-5.105	81919.1
-5.100	81918.1
-5.095	81921.1
-5.090	81926.1
-5.085	81936.0
-5.080	81922.0
-5.075	81913.0
-5.070	81937.0
-5.065	81941.0
-5.060	81938.9
-5.055	81936.9
-5.050	81927.9
-5.045	81932.9
-5.040	81945.8
-5.035	81946.8
-5.030	81953.8
-5.025	81974.7
-5.020	81997.7
-5.015	81979.7
-5.010	81966.7
-5.005	81965.7
-5.000	81991.7
-4.995	82009.6
-4.990	82010.6
-4.985	82008.6
-4.980	81997.6
-4.975	81994.6
-4.970	81988.6
-4.965	81992.5
-4.960	81991.5
-4.955	81993.5
-4.950	81986.5
-4.945	81976.5
-4.940	81980.5
-4.935	82006.4
-4.930	82010.4
-4.925	82001.4
-4.920	81997.4
-4.915	82001.4
-4.910	81996.4
-4.905	81993.4
-4.900	82011.4
-4.895	82027.3
-4.890	82048.3
-4.885	82051.3
-4.880	82049.3
-4.875	82028.3
-4.870	82043.3
-4.865	82056.3
-4.860	82055.3
-4.855	82045.3
-4.850	82052.3
-4.845	82044.3
-4.840	82037.3
-4.835	82030.3
-4.830	82046.2
-4.825	82040.2
-4.820	82052.2
-4.815	82027.2
-4.810	81999.2
-4.805	81991.2
-4.800	82013.2
-4.795	82015.2
-4.790	82020.2
-4.785	82015.2
-4.780	82025.1
-4.775	82016.1
-4.770	82022.1
-4.765	82003.1
-4.760	82015.1
-4.755	82031.1
-4.750	82033.1
-4.745	82007.1
-4.740	82008.1
-4.735	82037.0
-4.730	82063.0
-4.725	82065.0
-4.720	82061.0
-4.715	82021.0
-4.710	82016.0
-4.705	82025.0
-4.700	82040.0
-4.695	82022.0
-4.690	82014.0
-4.685	82015.0
-4.680	81998.0
-4.675	81988.0
-4.670	82019.0
-4.665	82022.0
-4.660	82021.0
-4.655	82020.0
-4.650	82021.0
-4.645	82029.9
-4.640	82022.9
-4.635	82005.9
-4.630	82007.9
-4.625	82011.9
-4.620	82024.9
-4.615	82019.9
-4.610	82005.9
-4.605	81994.9
-4.600	82029.9
-4.595	82031.9
-4.590	82042.9
-4.585	82034.9
-4.580	82036.9
-4.575	82025.9
-4.570	82031.9
-4.565	82035.9
-4.560	82043.8
-4.555	82044.8
-4.550	82017.9
-4.545	81985.9
-4.540	81957.9
-4.535	82000.9
-4.530	82021.8
-4.525	82012.9
-4.520	81968.9
-4.515	81934.9
-4.510	81963.8
-4.505	82006.8
-4.500	82034.8
-4.495	82037.8
-4.490	82065.7
-4.485	82063.7
-4.480	82048.8
-4.475	82035.8
-4.470	82054.7
-4.465	82057.7
-4.460	82051.7
-4.455	82059.7
-4.450	82059.7
-4.445	82062.7
-4.440	82072.7
-4.435	82081.7
-4.430	82074.7
-4.425	82063.7
-4.420	82063.7
-4.415	82020.7
-4.410	81997.7
-4.405	81986.7
-4.400	82020.7
-4.395	82010.7
-4.390	81994.7
-4.385	81969.7
-4.380	81959.7
-4.375	81938.7
-4.370	81945.7
-4.365	81944.7
-4.360	81930.7
-4.355	81899.8
-4.350	81899.8
-4.345	81872.8
-4.340	81876.8
-4.335	81869.8
-4.330	81835.8
-4.325	81766.8
-4.320	81737.9
-4.315	81724.9
-4.310	81703.9
-4.305	81667.9
-4.300	81646.9
-4.295	81627.9
-4.290	81621.9
-4.285	81619.9
-4.280	81612.9
-4.275	81638.9
-4.270	81683.9
-4.265	81693.8
-4.260	81673.9
-4.255	81625.9
-4.250	81620.9
-4.245	81672.8
-4.240	81747.8
-4.235	81810.8
-4.230	81852.7
-4.225	81870.7
-4.220	81914.7
-4.215	81892.7
-4.210	81876.7
-4.205	81897.7
-4.200	81930.7
-4.195	81950.6
-4.190	81986.6
-4.185	81981.6
-4.180	81991.6
-4.175	81987.6
-4.170	82001.6
-4.165	82010.5
-4.160	82028.5
-4.155	82020.5
-4.150	81993.5
-4.145	81979.5
-4.140	81978.4
-4.135	81998.3
-4.130	81991.2
-4.125	81972.1
-4.120	81964.9
-4.115	81948.6
-4.110	81935.3
-4.105	81906.9
-4.100	81873.4
-4.095	81828.9
-4.090	81780.4
-4.085	81709.8
-4.080	81615.2
-4.075	81549.6
-4.070	81525.9
-4.065	81488.2
-4.060	81450.6
-4.055	81363.1
-4.050	81324.6
-4.045	81376.3
-4.040	81450.1
-4.035	81502.2
-4.030	81543.5
-4.025	81617.9
-4.020	81686.3
-4.015	81713.8
-4.010	81785.1
-4.005	81867.4
-4.000	81946.6
-3.995	81970.9
-3.990	82008.0
-3.985	82039.2
-3.980	82053.4
-3.975	82026.5
-3.970	81961.7
-3.965	81746.0
-3.960	81332.5
-3.955	81032.8
-3.950	81120.8
-3.945	81439.7
-3.940	81709.5
-3.935	81861.5
-3.930	81915.5
-3.925	81925.6
-3.920	81921.7
-3.915	81935.7
-3.910	81960.7
-3.905	81965.8
-3.900	81932.9
-3.895	81906.9
-3.890	81897.0
-3.885	81883.1
-3.880	81879.1
-3.875	81870.2
-3.870	81916.2
-3.865	81897.2
-3.860	81898.3
-3.855	81873.3
-3.850	81860.4
-3.845	81857.4
-3.840	81839.5
-3.835	81834.5
-3.830	81817.6
-3.825	81833.6
-3.820	81832.6
-3.815	81830.6
-3.810	81826.7
-3.805	81833.7
-3.800	81851.7
-3.795	81846.7
-3.790	81853.8
-3.785	81865.8
-3.780	81878.8
-3.775	81882.8
-3.770	81886.8
-3.765	81886.9
-3.760	81890.9
-3.755	81880.9
-3.750	81868.0
-3.745	81863.0
-3.740	81871.0
-3.735	81908.0
-3.730	81904.0
-3.725	81905.0
-3.720	81894.1
-3.715	81898.1
-3.710	81887.1
-3.705	81873.1
-3.700	81865.1
-3.695	81851.2
-3.690	81860.2
-3.685	81854.2
-3.680	81844.2
-3.675	81834.2
-3.670	81868.2
-3.665	81869.2
-3.660	81857.3
-3.655	81853.3
-3.650	81854.3
-3.645	81848.3
-3.640	81851.3
-3.635	81853.3
-3.630	81876.3
-3.625	81875.3
-3.620	81868.4
-3.615	81824.4
-3.610	81800.4
-3.605	81808.5
-3.600	81849.4
-3.595	81852.5
-3.590	81857.5
-3.585	81853.5
-3.580	81833.5
-3.575	81788.6
-3.570	81768.6
-3.565	81765.7
-3.560	81776.7
-3.555	81784.7
-3.550	81750.8
-3.545	81714.9
-3.540	81724.0
-3.535	81755.0
-3.530	81798.0
-3.525	81872.0
-3.520	81933.0
-3.515	81971.1
-3.510	81992.1
-3.505	81982.2
-3.500	81956.3
-3.495	81940.4
-3.490	81939.5
-3.485	81922.5
-3.480	81918.6
-3.475	81928.6
-3.470	81960.7
-3.465	81978.7
-3.460	81970.7
-3.455	81985.7
-3.450	81996.7
-3.445	81993.7
-3.440	82006.7
-3.435	81994.7
-3.430	81990.7
-3.425	81990.7
-3.420	82003.7
-3.415	82005.7
-3.410	82025.7
-3.405	81997.8
-3.400	81970.9
-3.395	81960.9
-3.390	82016.0
-3.385	82088.0
-3.380	82103.1
-3.375	82073.2
-3.370	82049.3
-3.365	82054.4
-3.360	82073.5
-3.355	82093.6
-3.350	82078.8
-3.345	82036.9
-3.340	82025.0
-3.335	82040.0
-3.330	82047.0
-3.325	82037.9
-3.320	82028.8
-3.315	82030.8
-3.310	82043.7
-3.305	82039.7
-3.300	82045.7
-3.295	82036.6
-3.290	82037.6
-3.285	82011.6
-3.280	81969.7
-3.275	81966.6
-3.270	82012.6
-3.265	82024.6
-3.260	82028.6
-3.255	82025.6
-3.250	82015.6
-3.245	81991.6
-3.240	81971.6
-3.235	81968.6
-3.230	81979.6
-3.225	81995.6
-3.220	81996.6
-3.215	81978.7
-3.210	81987.7
-3.205	82014.7
-3.200	82025.7
-3.195	82010.7
-3.190	82010.7
-3.185	81997.7
-3.180	82007.7
-3.175	82006.8
-3.170	82016.8
-3.165	82002.8
-3.160	82000.8
-3.155	82007.8
-3.150	82006.8
-3.145	82006.8
-3.140	82037.8
-3.135	82030.8
-3.130	82018.8
-3.125	82013.8
-3.120	82011.8
-3.115	82011.9
-3.110	82024.9
-3.105	82006.9
-3.100	82000.9
-3.095	81999.9
-3.090	82004.9
-3.085	82000.9
-3.080	81973.9
-3.075	81950.0
-3.070	81975.9
-3.065	81964.0
-3.060	81956.0
-3.055	81945.0
-3.050	81951.0
-3.045	81946.0
-3.040	81962.0
-3.035	81952.0
-3.030	81943.0
-3.025	81950.0
-3.020	81975.0
-3.015	81961.1
-3.010	81940.1
-3.005	81941.1
-3.000	81943.1
-2.995	81924.1
-2.990	81917.1
-2.985	81936.1
-2.980	81940.1
-2.975	81951.1
-2.970	81951.1
-2.965	81943.2
-2.960	81939.2
-2.955	81924.2
-2.950	81899.2
-2.945	81909.2
-2.940	81918.2
-2.935	81946.2
-2.930	81951.2
-2.925	81938.2
-2.920	81945.3
-2.915	81954.3
-2.910	81950.3
-2.905	81937.3
-2.900	81910.3
-2.895	81864.3
-2.890	81843.4
-2.885	81863.4
-2.880	81896.4
-2.875	81885.4
-2.870	81925.3
-2.865	81934.4
-2.860	81947.4
-2.855	81952.4
-2.850	81980.4
-2.845	81989.4
-2.840	81966.4
-2.835	81940.4
-2.830	81930.4
-2.825	81919.4
-2.820	81901.4
-2.815	81865.5
-2.810	81849.5
-2.805	81876.4
-2.800	81895.4
-2.795	81881.4
-2.790	81873.4
-2.785	81900.4
-2.780	81926.4
-2.775	81925.4
-2.770	81931.4
-2.765	81933.4
-2.760	81961.4
-2.755	81962.4
-2.750	81930.5
-2.745	81900.5
-2.740	81906.5
-2.735	81945.5
-2.730	81972.5
-2.725	81971.5
-2.720	81964.5
-2.715	81944.6
-2.710	81922.6
-2.705	81899.6
-2.700	81901.6
-2.695	81906.6
-2.690	81935.6
-2.685	81914.6
-2.680	81899.6
-2.675	81906.6
-2.670	81948.6
-2.665	81939.6
-2.660	81962.6
-2.655	81968.6
-2.650	81985.6
-2.645	81980.6
-2.640	81970.6
-2.635	81955.7
-2.630	81951.7
-2.625	81957.7
-2.620	81954.7
-2.615	81932.7
-2.610	81913.7
-2.605	81930.7
-2.600	81965.7
-2.595	81965.7
-2.590	81968.7
-2.585	81963.7
-2.580	81946.7
-2.575	81923.7
-2.570	81915.7
-2.565	81926.7
-2.560	81928.7
-2.555	81924.7
-2.550	81902.7
-2.545	81879.7
-2.540	81888.7
-2.535	81915.7
-2.530	81904.7
-2.525	81903.7
-2.520	81913.7
-2.515	81920.7
-2.510	81920.7
-2.505	81922.8
-2.500	81910.8
-2.495	81903.8
-2.490	81905.8
-2.485	81888.8
-2.480	81896.8
-2.475	81890.8
-2.470	81918.8
-2.465	81908.8
-2.460	81921.8
-2.455	81935.8
-2.450	81937.8
-2.445	81936.8
-2.440	81927.8
-2.435	81886.8
-2.430	81824.8
-2.425	81782.9
-2.420	81814.9
-2.415	81840.9
-2.410	81891.8
-2.405	81931.8
-2.400	81960.8
-2.395	81970.8
-2.390	81968.8
-2.385	81953.8
-2.380	81947.8
-2.375	81934.9
-2.370	81941.9
-2.365	81951.9
-2.360	81984.9
-2.355	81994.9
-2.350	81966.9
-2.345	81926.9
-2.340	81940.9
-2.335	81978.9
-2.330	81990.9
-2.325	81979.9
-2.320	81948.9
-2.315	81925.9
-2.310	81915.9
-2.305	81917.9
-2.300	81930.9
-2.295	81938.8
-2.290	81953.8
-2.285	81934.8
-2.280	81920.8
-2.275	81943.8
-2.270	81986.8
-2.265	81986.8
-2.260	81994.8
-2.255	81988.8
-2.250	82000.8
-2.245	81986.8
-2.240	81989.8
-2.235	81966.8
-2.230	81959.8
-2.225	81978.8
-2.220	81986.8
-2.215	81972.8
-2.210	81962.9
-2.205	81973.9
-2.200	81976.9
-2.195	81988.8
-2.190	82000.8
-2.185	81991.8
-2.180	81983.8
-2.175	81975.8
-2.170	81968.8
-2.165	81972.8
-2.160	81985.8
-2.155	81979.8
-2.150	81958.8
-2.145	81938.8
-2.140	81988.8
-2.135	82027.7
-2.130	82051.7
-2.125	82058.7
-2.120	82060.7
-2.115	82054.8
-2.110	82038.8
-2.105	82023.8
-2.100	82018.8
-2.095	82007.9
-2.090	81985.9
-2.085	81975.9
-2.080	81960.9
-2.075	81966.9
-2.070	82021.9
-2.065	82027.9
-2.060	82013.9
-2.055	81989.9
-2.050	81975.9
-2.045	81982.9
-2.040	81980.9
-2.035	81989.9
-2.030	81990.9
-2.025	81963.9
-2.020	81932.9
-2.015	81906.9
-2.010	81895.9
-2.005	81937.9
-2.000	81949.9
-1.995	81950.9
-1.990	81940.9
-1.985	81932.9
-1.980	81938.9
-1.975	81940.8
-1.970	81958.8
-1.965	81973.8
-1.960	81990.8
-1.955	81987.8
-1.950	81966.8
-1.945	81939.9
-1.940	81947.8
-1.935	81965.8
-1.930	81975.8
-1.925	81968.8
-1.920	81963.8
-1.915	81965.8
-1.910	81986.8
-1.905	81983.8
-1.900	81986.8
-1.895	81986.8
-1.890	81980.8
-1.885	81947.8
-1.880	81943.8
-1.875	81939.8
-1.870	81979.8
-1.865	81952.8
-1.860	81925.8
-1.855	81897.9
-1.850	81895.8
-1.845	81884.8
-1.840	81880.8
-1.835	81870.8
-1.830	81868.8
-1.825	81886.8
-1.820	81888.8
-1.815	81869.8
-1.810	81863.8
-1.805	81888.8
-1.800	81882.8
-1.795	81850.8
-1.790	81830.9
-1.785	81805.9
-1.780	81785.9
-1.775	81782.9
-1.770	81790.9
-1.765	81794.9
-1.760	81790.9
-1.755	81796.9
-1.750	81773.9
-1.745	81762.9
-1.740	81774.8
-1.735	81783.8
-1.730	81771.8
-1.725	81768.8
-1.720	81770.8
-1.715	81783.8
-1.710	81796.8
-1.705	81823.8
-1.700	81849.8
-1.695	81866.8
-1.690	81885.8
-1.685	81878.8
-1.680	81876.8
-1.675	81882.8
-1.670	81925.7
-1.665	81924.7
-1.660	81924.7
-1.655	81909.7
-1.650	81911.7
-1.645	81913.7
-1.640	81927.7
-1.635	81914.7
-1.630	81930.7
-1.625	81934.7
-1.620	81928.7
-1.615	81903.7
-1.610	81888.7
-1.605	81915.7
-1.600	81916.7
-1.595	81902.7
-1.590	81899.7
-1.585	81891.7
-1.580	81890.7
-1.575	81884.7
-1.570	81888.7
-1.565	81897.7
-1.560	81907.6
-1.555	81901.6
-1.550	81883.6
-1.545	81875.6
-1.540	81903.6
-1.535	81922.6
-1.530	81919.6
-1.525	81902.6
-1.520	81909.6
-1.515	81896.6
-1.510	81889.6
-1.505	81898.6
-1.500	81919.6
-1.495	81918.6
-1.490	81925.6
-1.485	81888.6
-1.480	81885.6
-1.475	81903.6
-1.470	81932.5
-1.465	81942.5
-1.460	81960.5
-1.455	81977.5
-1.450	82000.4
-1.445	82004.4
-1.440	82018.4
-1.435	82014.4
-1.430	82029.4
-1.425	82038.4
-1.420	82046.4
-1.415	82033.4
-1.410	82031.4
-1.405	82070.4
-1.400	82095.3
-1.395	82099.3
-1.390	82114.3
-1.385	82126.3
-1.380	82123.3
-1.375	82123.3
-1.370	82129.3
-1.365	82124.3
-1.360	82120.3
-1.355	82114.3
-1.350	82082.3
-1.345	82074.3
-1.340	82095.2
-1.335	82100.2
-1.330	82092.2
-1.325	82089.2
-1.320	82061.2
-1.315	82058.2
-1.310	82059.2
-1.305	82054.2
-1.300	82049.2
-1.295	82052.2
-1.290	82052.2
-1.285	82021.3
-1.280	82000.3
-1.275	82005.3
-1.270	82041.3
-1.265	82038.3
-1.260	82032.3
-1.255	82023.3
-1.250	82019.3
-1.245	81994.3
-1.240	81989.3
-1.235	81985.3
-1.230	81984.3
-1.225	81992.3
-1.220	81984.3
-1.215	81969.3
-1.210	81985.3
-1.205	82020.2
-1.200	82029.2
-1.195	82026.2
-1.190	82023.2
-1.185	82011.2
-1.180	82012.2
-1.175	82011.2
-1.170	82012.2
-1.165	82016.2
-1.160	82019.2
-1.155	82022.2
-1.150	81995.2
-1.145	81981.2
-1.140	82001.2
-1.135	82014.2
-1.130	82013.2
-1.125	82015.1
-1.120	82005.1
-1.115	82015.1
-1.110	82012.1
-1.105	82008.1
-1.100	82011.1
-1.095	82007.1
-1.090	81993.1
-1.085	81956.1
-1.080	81943.1
-1.075	81943.1
-1.070	81970.0
-1.065	81967.0
-1.060	81978.0
-1.055	81974.0
-1.050	81994.0
-1.045	81990.0
-1.040	82002.0
-1.035	81998.0
-1.030	81998.0
-1.025	82014.0
-1.020	81991.0
-1.015	81962.1
-1.010	81957.1
-1.005	81977.1
-1.000	81976.1
-0.995	81965.1
-0.990	81965.1
-0.985	81944.1
-0.980	81954.1
-0.975	81937.1
-0.970	81936.1
-0.965	81933.1
-0.960	81925.1
-0.955	81911.1
-0.950	81880.1
-0.945	81870.1
-0.940	81887.1
-0.935	81894.1
-0.930	81886.0
-0.925	81881.0
-0.920	81873.0
-0.915	81865.0
-0.910	81859.0
-0.905	81854.0
-0.900	81867.0
-0.895	81872.0
-0.890	81873.0
-0.885	81850.0
-0.880	81830.0
-0.875	81827.0
-0.870	81843.0
-0.865	81846.0
-0.860	81840.0
-0.855	81824.0
-0.850	81814.0
-0.845	81813.9
-0.840	81816.9
-0.835	81808.9
-0.830	81797.9
-0.825	81800.9
-0.820	81786.9
-0.815	81768.9
-0.810	81769.9
-0.805	81786.9
-0.800	81786.9
-0.795	81767.9
-0.790	81769.9
-0.785	81759.9
-0.780	81768.8
-0.775	81741.9
-0.770	81743.8
-0.765	81730.8
-0.760	81736.8
-0.755	81717.8
-0.750	81699.8
-0.745	81673.8
-0.740	81705.8
-0.735	81702.8
-0.730	81710.8
-0.725	81712.8
-0.720	81719.8
-0.715	81725.8
-0.710	81728.8
-0.705	81718.8
-0.700	81724.8
-0.695	81723.8
-0.690	81734.8
-0.685	81693.8
-0.680	81675.8
-0.675	81672.8
-0.670	81689.8
-0.665	81661.8
-0.660	81652.8
-0.655	81648.8
-0.650	81629.8
-0.645	81618.8
-0.640	81624.8
-0.635	81615.8
-0.630	81626.8
-0.625	81631.8
-0.620	81636.8
-0.615	81619.8
-0.610	81638.8
-0.605	81678.7
-0.600	81696.7
-0.595	81696.7
-0.590	81711.7
-0.585	81705.7
-0.580	81711.7
-0.575	81703.7
-0.570	81703.7
-0.565	81694.7
-0.560	81701.7
-0.555	81703.7
-0.550	81701.6
-0.545	81683.7
-0.540	81723.6
-0.535	81734.6
-0.530	81742.6
-0.525	81735.6
-0.520	81742.6
-0.515	81748.5
-0.510	81744.5
-0.505	81757.5
-0.500	81766.5
-0.495	81772.5
-0.490	81799.5
-0.485	81773.5
-0.480	81770.5
-0.475	81785.4
-0.470	81824.4
-0.465	81838.4
-0.460	81846.4
-0.455	81854.4
-0.450	81849.4
-0.445	81835.4
-0.440	81835.4
-0.435	81831.3
-0.430	81833.3
-0.425	81836.3
-0.420	81820.3
-0.415	81796.4
-0.410	81810.3
-0.405	81823.3
-0.400	81825.3
-0.395	81814.3
-0.390	81821.3
-0.385	81820.3
-0.380	81813.3
-0.375	81803.3
-0.370	81809.3
-0.365	81842.3
-0.360	81857.3
-0.355	81858.3
-0.350	81835.3
-0.345	81815.3
-0.340	81842.3
-0.335	81839.3
-0.330	81839.2
-0.325	81839.2
-0.320	81850.2
-0.315	81851.2
-0.310	81844.2
-0.305	81821.2
-0.300	81791.2
-0.295	81767.2
-0.290	81777.2
-0.285	81730.2
-0.280	81715.2
-0.275	81722.2
-0.270	81752.2
-0.265	81769.2
-0.260	81806.2
-0.255	81833.1
-0.250	81844.1
-0.245	81824.1
-0.240	81806.1
-0.235	81801.1
-0.230	81812.1
-0.225	81815.1
-0.220	81790.1
-0.215	81730.1
-0.210	81726.1
-0.205	81767.1
-0.200	81786.1
-0.195	81778.1
-0.190	81788.1
-0.185	81776.1
-0.180	81768.1
-0.175	81755.1
-0.170	81743.1
-0.165	81754.0
-0.160	81775.0
-0.155	81776.0
-0.150	81737.0
-0.145	81744.0
-0.140	81776.0
-0.135	81785.0
-0.130	81791.0
-0.125	81819.0
-0.120	81839.0
-0.115	81810.1
-0.110	81800.1
-0.105	81816.1
-0.100	81822.1
-0.095	81822.1
-0.090	81821.1
-0.085	81796.1
-0.080	81771.0
-0.075	81765.0
-0.070	81786.9
-0.065	81814.7
-0.060	81816.6
-0.055	81758.5
-0.050	81737.4
-0.045	81730.4
-0.040	81675.3
-0.035	81612.3
-0.030	81662.3
-0.025	81787.2
-0.020	81824.3
-0.015	81789.5
-0.010	81823.6
-0.005	81889.8
0.000	81872.0
0.005	81842.2
0.010	81884.3
0.015	81915.4
0.020	81909.4
0.025	81844.4
0.030	81815.4
0.035	81790.2
0.040	81785.1
0.045	81764.9
0.050	81775.7
0.055	81823.5
0.060	81903.4
0.065	81916.3
0.070	81899.3
0.075	81891.3
0.080	81877.3
0.085	81865.4
0.090	81857.4
0.095	81870.5
0.100	81912.5
0.105	81927.5
0.110	81936.5
0.115	81898.5
0.120	81863.6
0.125	81863.6
0.130	81880.6
0.135	81867.6
0.140	81860.6
0.145	81867.5
0.150	81888.5
0.155	81888.5
0.160	81892.5
0.165	81901.5
0.170	81933.4
0.175	81942.4
0.180	81900.4
0.185	81810.5
0.190	81782.5
0.195	81825.5
0.200	81862.4
0.205	81869.4
0.210	81890.4
0.215	81889.4
0.220	81883.4
0.225	81881.4
0.230	81867.4
0.235	81846.4
0.240	81831.4
0.245	81814.4
0.250	81785.4
0.255	81797.4
0.260	81840.4
0.265	81846.3
0.270	81851.3
0.275	81852.3
0.280	81876.3
0.285	81893.3
0.290	81901.2
0.295	81887.3
0.300	81888.2
0.305	81907.2
0.310	81913.2
0.315	81888.2
0.320	81887.2
0.325	81914.2
0.330	81929.2
0.335	81930.2
0.340	81893.2
0.345	81867.2
0.350	81840.2
0.355	81818.2
0.360	81809.2
0.365	81813.2
0.370	81808.2
0.375	81816.2
0.380	81813.2
0.385	81814.2
0.390	81830.2
0.395	81865.1
0.400	81890.1
0.405	81899.1
0.410	81899.1
0.415	81882.1
0.420	81881.1
0.425	81871.1
0.430	81889.1
0.435	81883.1
0.440	81895.1
0.445	81891.1
0.450	81868.1
0.455	81859.1
0.460	81895.0
0.465	81895.0
0.470	81915.0
0.475	81909.0
0.480	81895.0
0.485	81893.0
0.490	81894.0
0.495	81893.0
0.500	81895.0
0.505	81894.0
0.510	81885.0
0.515	81846.0
0.520	81828.0
0.525	81861.0
0.530	81888.0
0.535	81886.0
0.540	81892.9
0.545	81894.9
0.550	81921.9
0.555	81941.9
0.560	81965.9
0.565	81966.9
0.570	81979.8
0.575	81966.8
0.580	81936.8
0.585	81881.9
0.590	81847.9
0.595	81838.9
0.600	81814.9
0.605	81792.9
0.610	81780.9
0.615	81760.0
0.620	81753.9
0.625	81738.0
0.630	81742.9
0.635	81752.9
0.640	81775.9
0.645	81761.9
0.650	81754.9
0.655	81771.9
0.660	81820.9
0.665	81842.8
0.670	81868.8
0.675	81885.8
0.680	81884.8
0.685	81889.8
0.690	81885.8
0.695	81864.8
0.700	81860.8
0.705	81841.8
0.710	81831.8
0.715	81785.8
0.720	81765.8
0.725	81778.8
0.730	81798.8
0.735	81800.8
0.740	81820.7
0.745	81838.7
0.750	81856.7
0.755	81870.7
0.760	81884.6
0.765	81886.6
0.770	81892.6
0.775	81892.6
0.780	81870.6
0.785	81857.6
0.790	81887.6
0.795	81896.5
0.800	81877.5
0.805	81848.6
0.810	81822.6
0.815	81809.6
0.820	81795.6
0.825	81769.6
0.830	81751.6
0.835	81729.6
0.840	81711.7
0.845	81698.7
0.850	81671.7
0.855	81648.7
0.860	81697.7
0.865	81714.7
0.870	81732.6
0.875	81750.6
0.880	81771.6
0.885	81788.6
0.890	81804.5
0.895	81811.5
0.900	81837.5
0.905	81839.5
0.910	81838.5
0.915	81812.5
0.920	81801.5
0.925	81836.5
0.930	81849.4
0.935	81848.4
0.940	81835.4
0.945	81820.4
0.950	81811.4
0.955	81823.4
0.960	81828.4
0.965	81818.4
0.970	81825.4
0.975	81813.4
0.980	81807.4
0.985	81786.4
0.990	81821.4
0.995	81860.3
1.000	81888.3
1.005	81905.3
1.010	81905.3
1.015	81905.3
1.020	81894.3
1.025	81882.3
1.030	81875.3
1.035	81862.3
1.040	81856.3
1.045	81830.3
1.050	81794.3
1.055	81787.3
1.060	81810.3
1.065	81792.3
1.070	81782.3
1.075	81744.3
1.080	81737.3
1.085	81720.3
1.090	81704.3
1.095	81694.3
1.100	81697.3
1.105	81714.3
1.110	81698.3
1.115	81665.3
1.120	81661.3
1.125	81704.3
1.130	81742.2
1.135	81746.2
1.140	81771.2
1.145	81775.3
1.150	81816.2
1.155	81836.2
1.160	81866.2
1.165	81882.2
1.170	81887.2
1.175	81893.2
1.180	81885.2
1.185	81861.2
1.190	81885.2
1.195	81889.2
1.200	81897.2
1.205	81897.1
1.210	81897.1
1.215	81878.1
1.220	81854.1
1.225	81847.1
1.230	81834.1
1.235	81829.1
1.240	81844.1
1.245	81846.1
1.250	81846.1
1.255	81829.1
1.260	81849.1
1.265	81840.1
1.270	81844.1
1.275	81849.1
1.280	81839.1
1.285	81819.1
1.290	81827.1
1.295	81832.1
1.300	81820.1
1.305	81815.1
1.310	81783.1
1.315	81748.1
1.320	81733.1
1.325	81766.1
1.330	81794.1
1.335	81796.0
1.340	81785.0
1.345	81771.1
1.350	81769.1
1.355	81754.1
1.360	81763.0
1.365	81756.0
1.370	81778.0
1.375	81770.0
1.380	81736.0
1.385	81717.1
1.390	81726.1
1.395	81752.1
1.400	81777.0
1.405	81797.0
1.410	81803.0
1.415	81804.1
1.420	81802.1
1.425	81797.1
1.430	81817.1
1.435	81817.1
1.440	81812.0
1.445	81785.0
1.450	81794.0
1.455	81812.0
1.460	81841.9
1.465	81822.9
1.470	81822.9
1.475	81818.9
1.480	81843.9
1.485	81828.9
1.490	81817.9
1.495	81806.9
1.500	81837.8
1.505	81858.8
1.510	81861.8
1.515	81826.8
1.520	81775.9
1.525	81767.9
1.530	81759.8
1.535	81742.9
1.540	81733.9
1.545	81725.9
1.550	81720.9
1.555	81693.9
1.560	81673.9
1.565	81696.8
1.570	81713.8
1.575	81721.8
1.580	81696.8
1.585	81663.8
1.590	81650.9
1.595	81649.9
1.600	81639.9
1.605	81632.9
1.610	81646.9
1.615	81623.9
1.620	81648.9
1.625	81667.9
1.630	81710.9
1.635	81739.9
1.640	81764.8
1.645	81763.8
1.650	81775.8
1.655	81780.8
1.660	81811.8
1.665	81790.8
1.670	81774.8
1.675	81751.8
1.680	81743.8
1.685	81761.8
1.690	81766.8
1.695	81752.8
1.700	81755.8
1.705	81743.8
1.710	81745.8
1.715	81728.8
1.720	81740.7
1.725	81800.7
1.730	81872.6
1.735	81899.6
1.740	81905.6
1.745	81844.6
1.750	81737.8
1.755	81655.9
1.760	81635.9
1.765	81720.8
1.770	81797.6
1.775	81890.6
1.780	81976.5
1.785	81976.6
1.790	81916.6
1.795	81819.6
1.800	81749.7
1.805	81698.8
1.810	81674.9
1.815	81665.9
1.820	81704.9
1.825	81728.8
1.830	81757.8
1.835	81771.8
1.840	81783.7
1.845	81764.7
1.850	81710.8
1.855	81677.8
1.860	81684.8
1.865	81721.7
1.870	81791.7
1.875	81832.6
1.880	81840.6
1.885	81820.7
1.890	81789.7
1.895	81772.7
1.900	81753.7
1.905	81745.7
1.910	81735.7
1.915	81704.7
1.920	81705.7
1.925	81769.7
1.930	81826.6
1.935	81873.5
1.940	81872.5
1.945	81854.5
1.950	81844.5
1.955	81823.6
1.960	81821.6
1.965	81805.6
1.970	81762.6
1.975	81746.6
1.980	81756.6
1.985	81772.6
1.990	81806.6
1.995	81822.6
2.000	81803.6
2.005	81785.6
2.010	81782.6
2.015	81793.6
2.020	81845.6
2.025	81886.6
2.030	81917.5
2.035	81918.5
2.040	81912.5
2.045	81880.5
2.050	81858.6
2.055	81859.5
2.060	81928.5
2.065	81936.5
2.070	81938.5
2.075	81932.5
2.080	81907.5
2.085	81877.5
2.090	81872.5
2.095	81876.5
2.100	81885.5
2.105	81861.5
2.110	81808.6
2.115	81764.6
2.120	81750.7
2.125	81785.6
2.130	81822.6
2.135	81840.6
2.140	81874.6
2.145	81893.6
2.150	81924.5
2.155	81932.5
2.160	81927.5
2.165	81917.5
2.170	81909.6
2.175	81878.6
2.180	81797.7
2.185	81694.7
2.190	81672.7
2.195	81669.7
2.200	81709.7
2.205	81746.7
2.210	81747.7
2.215	81734.7
2.220	81743.7
2.225	81797.7
2.230	81852.6
2.235	81857.6
2.240	81863.6
2.245	81783.6
2.250	81675.7
2.255	81638.8
2.260	81697.7
2.265	81783.7
2.270	81858.6
2.275	81863.6
2.280	81828.6
2.285	81764.7
2.290	81714.7
2.295	81687.8
2.300	81701.7
2.305	81698.7
2.310	81724.7
2.315	81737.7
2.320	81723.7
2.325	81709.7
2.330	81694.7
2.335	81652.7
2.340	81656.7
2.345	81660.7
2.350	81710.7
2.355	81772.6
2.360	81801.6
2.365	81821.6
2.370	81834.6
2.375	81785.6
2.380	81709.7
2.385	81641.7
2.390	81636.7
2.395	81644.7
2.400	81660.8
2.405	81691.8
2.410	81720.7
2.415	81741.7
2.420	81748.7
2.425	81747.7
2.430	81730.8
2.435	81722.8
2.440	81726.8
2.445	81711.8
2.450	81720.8
2.455	81748.8
2.460	81788.7
2.465	81781.7
2.470	81769.7
2.475	81751.8
2.480	81752.8
2.485	81759.8
2.490	81762.8
2.495	81752.8
2.500	81753.8
2.505	81765.8
2.510	81776.8
2.515	81766.8
2.520	81789.7
2.525	81827.7
2.530	81836.7
2.535	81836.7
2.540	81836.7
2.545	81819.7
2.550	81799.8
2.555	81776.8
2.560	81756.8
2.565	81718.8
2.570	81731.8
2.575	81708.9
2.580	81683.9
2.585	81689.9
2.590	81735.9
2.595	81789.8
2.600	81840.8
2.605	81859.8
2.610	81828.8
2.615	81798.8
2.620	81775.8
2.625	81737.8
2.630	81741.8
2.635	81744.8
2.640	81751.8
2.645	81734.9
2.650	81705.9
2.655	81717.9
2.660	81750.9
2.665	81733.9
2.670	81722.9
2.675	81723.9
2.680	81739.9
2.685	81738.9
2.690	81742.0
2.695	81753.0
2.700	81762.0
2.705	81770.0
2.710	81784.0
2.715	81762.0
2.720	81742.0
2.725	81758.0
2.730	81751.0
2.735	81746.0
2.740	81748.1
2.745	81733.1
2.750	81729.1
2.755	81734.1
2.760	81737.1
2.765	81741.1
2.770	81769.1
2.775	81763.1
2.780	81728.1
2.785	81679.1
2.790	81701.1
2.795	81746.1
2.800	81798.1
2.805	81814.1
2.810	81804.1
2.815	81767.1
2.820	81753.1
2.825	81776.1
2.830	81798.1
2.835	81835.1
2.840	81846.1
2.845	81800.1
2.850	81758.2
2.855	81746.2
2.860	81767.1
2.865	81746.2
2.870	81711.2
2.875	81668.3
2.880	81646.3
2.885	81634.3
2.890	81640.3
2.895	81646.3
2.900	81670.3
2.905	81683.3
2.910	81691.3
2.915	81677.3
2.920	81659.3
2.925	81674.3
2.930	81706.3
2.935	81742.3
2.940	81773.3
2.945	81799.3
2.950	81814.3
2.955	81797.3
2.960	81769.4
2.965	81760.4
2.970	81774.4
2.975	81774.4
2.980	81757.4
2.985	81733.4
2.990	81758.4
2.995	81766.4
3.000	81783.4
3.005	81777.4
3.010	81788.4
3.015	81789.4
3.020	81802.4
3.025	81821.4
3.030	81814.4
3.035	81831.4
3.040	81850.4
3.045	81811.5
3.050	81795.5
3.055	81801.5
3.060	81821.5
3.065	81812.5
3.070	81829.5
3.075	81829.5
3.080	81865.5
3.085	81881.5
3.090	81911.5
3.095	81915.5
3.100	81922.5
3.105	81918.5
3.110	81895.5
3.115	81852.6
3.120	81831.6
3.125	81866.6
3.130	81881.6
3.135	81883.6
3.140	81873.6
3.145	81856.6
3.150	81837.6
3.155	81818.6
3.160	81810.7
3.165	81828.7
3.170	81877.6
3.175	81901.6
3.180	81876.7
3.185	81838.7
3.190	81842.7
3.195	81871.7
3.200	81874.7
3.205	81888.7
3.210	81890.7
3.215	81906.7
3.220	81898.7
3.225	81880.8
3.230	81874.8
3.235	81876.8
3.240	81916.7
3.245	81913.7
3.250	81909.7
3.255	81899.7
3.260	81912.7
3.265	81906.7
3.270	81906.7
3.275	81900.7
3.280	81891.7
3.285	81875.7
3.290	81867.7
3.295	81870.7
3.300	81865.6
3.305	81861.6
3.310	81865.6
3.315	81884.5
3.320	81901.5
3.325	81918.5
3.330	81874.5
3.335	81791.6
3.340	81752.6
3.345	81770.7
3.350	81848.7
3.355	81921.7
3.360	81956.8
3.365	81943.9
3.370	81920.0
3.375	81871.2
3.380	81820.4
3.385	81843.5
3.390	81950.6
3.395	81973.6
3.400	81927.7
3.405	81877.7
3.410	81856.7
3.415	81833.7
3.420	81845.7
3.425	81844.7
3.430	81854.7
3.435	81850.7
3.440	81857.7
3.445	81833.7
3.450	81823.7
3.455	81845.7
3.460	81885.7
3.465	81884.8
3.470	81894.8
3.475	81888.8
3.480	81890.9
3.485	81893.0
3.490	81911.0
3.495	81910.1
3.500	81936.1
3.505	81953.2
3.510	81920.3
3.515	81879.4
3.520	81879.5
3.525	81899.5
3.530	81926.6
3.535	81939.6
3.540	81959.7
3.545	81957.7
3.550	81953.8
3.555	81950.8
3.560	81950.8
3.565	81945.9
3.570	81952.9
3.575	81951.9
3.580	81952.9
3.585	81949.0
3.590	81954.0
3.595	81941.0
3.600	81921.0
3.605	81908.1
3.610	81909.1
3.615	81898.1
3.620	81895.1
3.625	81896.1
3.630	81899.1
3.635	81893.1
3.640	81894.2
3.645	81872.2
3.650	81858.2
3.655	81878.2
3.660	81905.2
3.665	81900.2
3.670	81895.2
3.675	81895.3
3.680	81888.3
3.685	81887.3
3.690	81892.3
3.695	81887.3
3.700	81885.3
3.705	81888.4
3.710	81849.4
3.715	81829.4
3.720	81843.4
3.725	81887.4
3.730	81895.4
3.735	81900.5
3.740	81913.5
3.745	81897.5
3.750	81895.5
3.755	81896.6
3.760	81909.6
3.765	81920.6
3.770	81936.6
3.775	81914.6
3.780	81878.7
3.785	81865.7
3.790	81905.7
3.795	81929.7
3.800	81957.7
3.805	81959.8
3.810	81969.8
3.815	81971.8
3.820	81971.9
3.825	81973.9
3.830	81977.9
3.835	81980.0
3.840	81971.0
3.845	81952.1
3.850	81935.1
3.855	81948.1
3.860	81950.2
3.865	81931.2
3.870	81927.3
3.875	81918.3
3.880	81897.4
3.885	81884.4
3.890	81879.5
3.895	81869.6
3.900	81884.6
3.905	81874.7
3.910	81855.7
3.915	81842.8
3.920	81832.9
3.925	81841.9
3.930	81835.0
3.935	81803.1
3.940	81776.2
3.945	81723.3
3.950	81706.4
3.955	81689.6
3.960	81720.7
3.965	81500.0
3.970	81023.4
3.975	80791.8
3.980	81048.8
3.985	81397.7
3.990	81622.8
3.995	81736.0
4.000	81698.3
4.005	81443.8
4.010	81193.2
4.015	81195.5
4.020	81346.7
4.025	81393.9
4.030	81345.1
4.035	81281.3
4.040	81249.4
4.045	81208.4
4.050	81141.2
4.055	81093.0
4.060	81084.6
4.065	81107.1
4.070	81170.4
4.075	81254.5
4.080	81347.5
4.085	81447.5
4.090	81559.6
4.095	81653.7
4.100	81711.1
4.105	81738.7
4.110	81727.4
4.115	81725.3
4.120	81760.1
4.125	81790.0
4.130	81778.0
4.135	81766.0
4.140	81763.0
4.145	81750.0
4.150	81753.9
4.155	81758.9
4.160	81771.9
4.165	81773.9
4.170	81790.8
4.175	81776.9
4.180	81749.9
4.185	81733.9
4.190	81750.9
4.195	81735.9
4.200	81749.9
4.205	81756.9
4.210	81773.8
4.215	81776.8
4.220	81784.8
4.225	81760.8
4.230	81757.8
4.235	81740.9
4.240	81752.9
4.245	81716.9
4.250	81708.9
4.255	81736.9
4.260	81754.8
4.265	81740.8
4.270	81739.8
4.275	81744.8
4.280	81749.8
4.285	81745.8
4.290	81750.8
4.295	81750.8
4.300	81753.8
4.305	81753.8
4.310	81722.8
4.315	81709.8
4.320	81728.8
4.325	81768.8
4.330	81801.7
4.335	81786.7
4.340	81788.7
4.345	81783.7
4.350	81767.8
4.355	81742.8
4.360	81743.8
4.365	81758.8
4.370	81783.7
4.375	81786.7
4.380	81773.7
4.385	81757.7
4.390	81773.7
4.395	81768.7
4.400	81766.7
4.405	81772.7
4.410	81789.7
4.415	81773.7
4.420	81762.7
4.425	81745.7
4.430	81753.7
4.435	81763.7
4.440	81800.7
4.445	81788.7
4.450	81778.7
4.455	81801.7
4.460	81815.6
4.465	81801.7
4.470	81795.7
4.475	81785.7
4.480	81784.7
4.485	81780.6
4.490	81797.6
4.495	81799.6
4.500	81801.6
4.505	81790.6
4.510	81771.6
4.515	81751.6
4.520	81759.6
4.525	81770.6
4.530	81771.6
4.535	81779.6
4.540	81790.6
4.545	81790.6
4.550	81780.6
4.555	81783.6
4.560	81794.6
4.565	81803.5
4.570	81825.5
4.575	81809.5
4.580	81782.5
4.585	81760.6
4.590	81782.5
4.595	81778.5
4.600	81762.5
4.605	81776.5
4.610	81786.5
4.615	81784.5
4.620	81804.5
4.625	81811.5
4.630	81817.5
4.635	81802.5
4.640	81797.5
4.645	81760.5
4.650	81748.5
4.655	81767.5
4.660	81774.5
4.665	81769.4
4.670	81774.4
4.675	81791.4
4.680	81794.4
4.685	81793.4
4.690	81801.4
4.695	81797.4
4.700	81811.4
4.705	81808.4
4.710	81791.4
4.715	81759.4
4.720	81780.4
4.725	81809.4
4.730	81805.4
4.735	81800.4
4.740	81777.4
4.745	81713.5
4.750	81581.5
4.755	81517.5
4.760	81617.4
4.765	81739.3
4.770	81802.3
4.775	81781.3
4.780	81774.3
4.785	81762.3
4.790	81789.2
4.795	81794.2
4.800	81812.2
4.805	81807.2
4.810	81812.2
4.815	81814.2
4.820	81820.2
4.825	81820.2
4.830	81795.2
4.835	81785.2
4.840	81760.2
4.845	81739.2
4.850	81733.2
4.855	81754.2
4.860	81787.1
4.865	81785.1
4.870	81804.1
4.875	81811.1
4.880	81833.1
4.885	81821.1
4.890	81819.1
4.895	81807.1
4.900	81806.1
4.905	81804.1
4.910	81769.1
4.915	81749.1
4.920	81788.0
4.925	81811.0
4.930	81806.0
4.935	81797.0
4.940	81784.0
4.945	81786.0
4.950	81807.9
4.955	81804.9
4.960	81783.9
4.965	81789.9
4.970	81798.9
4.975	81777.9
4.980	81754.9
4.985	81744.9
4.990	81793.8
4.995	81799.8
5.000	81814.8
5.005	81800.8
5.010	81791.8
5.015	81805.7
5.020	81818.7
5.025	81848.7
5.030	81871.6
5.035	81868.6
5.040	81835.6
5.045	81775.6
5.050	81756.6
5.055	81784.6
5.060	81798.5
5.065	81779.5
5.070	81752.5
5.075	81731.5
5.080	81710.5
5.085	81710.5
5.090	81742.5
5.095	81765.4
5.100	81797.4
5.105	81800.3
5.110	81785.3
5.115	81766.3
5.120	81796.3
5.125	81812.2
5.130	81810.2
5.135	81787.2
5.140	81790.2
5.145	81788.1
5.150	81787.1
5.155	81781.1
5.160	81792.0
5.165	81804.0
5.170	81828.9
5.175	81803.9
5.180	81778.8
5.185	81784.8
5.190	81832.7
5.195	81814.7
5.200	81808.6
5.205	81811.6
5.210	81818.5
5.215	81816.4
5.220	81829.4
5.225	81846.3
5.230	81844.2
5.235	81840.1
5.240	81817.1
5.245	81788.0
5.250	81766.0
5.255	81776.9
5.260	81793.7
5.265	81803.6
5.270	81802.5
5.275	81788.4
5.280	81765.3
5.285	81743.1
5.290	81717.0
5.295	81699.8
5.300	81658.5
5.305	81620.3
5.310	81540.1
5.315	81456.8
5.320	81374.6
5.325	81325.4
5.330	81226.2
5.335	81152.2
5.340	81074.1
5.345	80985.2
5.350	80954.3
5.355	80912.5
5.360	80888.8
5.365	80900.2
5.370	80956.7
5.375	80940.3
5.380	80959.9
5.385	81031.8
5.390	81234.7
5.395	81457.5
5.400	81665.1
5.405	81810.4
5.410	81882.6
5.415	81910.8
5.420	81924.8
5.425	81925.8
5.430	81935.8
5.435	81941.8
5.440	81929.8
5.445	81901.9
5.450	81906.9
5.455	81920.8
5.460	81930.8
5.465	81927.8
5.470	81912.8
5.475	81911.8
5.480	81918.8
5.485	81910.8
5.490	81909.8
5.495	81916.8
5.500	81922.8
5.505	81923.8
5.510	81907.8
5.515	81887.9
5.520	81898.9
5.525	81917.8
5.530	81919.8
5.535	81915.8
5.540	81923.8
5.545	81923.8
5.550	81912.8
5.555	81913.8
5.560	81915.8
5.565	81906.8
5.570	81910.8
5.575	81877.9
5.580	81868.9
5.585	81855.9
5.590	81890.8
5.595	81889.9
5.600	81897.8
5.605	81887.9
5.610	81891.9
5.615	81876.9
5.620	81896.9
5.625	81884.9
5.630	81896.9
5.635	81910.9
5.640	81903.9
5.645	81874.9
5.650	81870.9
5.655	81909.9
5.660	81914.9
5.665	81915.9
5.670	81915.0
5.675	81919.0
5.680	81922.0
5.685	81925.0
5.690	81922.0
5.695	81915.0
5.700	81918.0
5.705	81903.0
5.710	81889.0
5.715	81873.0
5.720	81891.0
5.725	81903.0
5.730	81907.0
5.735	81900.0
5.740	81896.9
5.745	81896.9
5.750	81885.9
5.755	81874.9
5.760	81880.9
5.765	81897.9
5.770	81904.9
5.775	81898.9
5.780	81882.9
5.785	81869.9
5.790	81885.9
5.795	81878.9
5.800	81897.9
5.805	81883.9
5.810	81893.9
5.815	81889.9
5.820	81897.9
5.825	81906.9
5.830	81897.9
5.835	81892.9
5.840	81876.9
5.845	81837.9
5.850	81838.9
5.855	81862.9
5.860	81874.9
5.865	81878.9
5.870	81879.9
5.875	81875.9
5.880	81876.9
5.885	81869.9
5.890	81869.9
5.895	81871.9
5.900	81876.9
5.905	81886.9
5.910	81863.9
5.915	81847.9
5.920	81865.9
5.925	81871.9
5.930	81875.9
5.935	81888.9
5.940	81880.9
5.945	81874.9
5.950	81879.9
5.955	81869.9
5.960	81879.9
5.965	81870.9
5.970	81872.9
5.975	81837.9
5.980	81826.0
5.985	81831.9
5.990	81862.9
5.995	81855.9
6.000	81851.9
6.005	81844.9
6.010	81846.9
6.015	81854.9
6.020	81852.9
6.025	81852.9
6.030	81855.9
6.035	81849.9
6.040	81850.9
6.045	81835.0
6.050	81827.0
6.055	81840.9
6.060	81847.9
6.065	81841.9
6.070	81846.9
6.075	81830.0
6.080	81823.0
6.085	81816.0
6.090	81833.0
6.095	81839.9
6.100	81834.0
6.105	81832.0
6.110	81808.0
6.115	81795.0
6.120	81812.0
6.125	81824.0
6.130	81816.0
6.135	81821.0
6.140	81816.0
6.145	81796.0
6.150	81805.0
6.155	81798.0
6.160	81812.0
6.165	81806.0
6.170	81821.0
6.175	81795.0
6.180	81783.0
6.185	81787.0
6.190	81819.0
6.195	81810.0
6.200	81811.0
6.205	81812.0
6.210	81814.0
6.215	81807.0
6.220	81819.0
6.225	81815.0
6.230	81815.0
6.235	81809.0
6.240	81798.0
6.245	81772.0
6.250	81779.0
6.255	81807.0
6.260	81805.0
6.265	81807.0
6.270	81808.0
6.275	81807.0
6.280	81802.0
6.285	81806.0
6.290	81805.0
6.295	81801.0
6.300	81824.0
6.305	81823.0
6.310	81802.0
6.315	81783.0
6.320	81809.0
6.325	81813.0
6.330	81818.0
6.335	81819.0
6.340	81822.0
6.345	81816.0
6.350	81827.0
6.355	81836.0
6.360	81837.0
6.365	81831.0
6.370	81844.0
6.375	81813.0
6.380	81796.0
6.385	81815.0
6.390	81842.0
6.395	81836.0
6.400	81839.0
6.405	81846.0
6.410	81847.0
6.415	81848.0
6.420	81857.0
6.425	81853.0
6.430	81869.0
6.435	81862.0
6.440	81869.9
6.445	81845.0
6.450	81847.0
6.455	81875.9
6.460	81878.9
6.465	81882.9
6.470	81885.9
6.475	81874.9
6.480	81891.9
6.485	81894.9
6.490	81894.9
6.495	81895.9
6.500	81902.9
6.505	81896.9
6.510	81871.0
6.515	81861.0
6.520	81882.9
6.525	81891.9
6.530	81895.9
6.535	81897.9
6.540	81898.9
6.545	81893.9
6.550	81905.9
6.555	81897.9
6.560	81894.9
6.565	81923.9
6.570	81915.9
6.575	81907.9
6.580	81887.9
6.585	81891.9
6.590	81929.9
6.595	81927.9
6.600	81942.9
6.605	81941.9
6.610	81936.9
6.615	81931.9
6.620	81935.9
6.625	81927.9
6.630	81943.9
6.635	81943.9
6.640	81916.9
6.645	81904.9
6.650	81904.9
6.655	81928.9
6.660	81937.9
6.665	81928.9
6.670	81929.9
6.675	81931.9
6.680	81932.9
6.685	81931.9
6.690	81933.9
6.695	81935.9
6.700	81952.9
6.705	81939.9
6.710	81911.9
6.715	81884.0
6.720	81928.9
6.725	81933.9
6.730	81942.9
6.735	81937.9
6.740	81942.9
6.745	81933.9
6.750	81936.9
6.755	81923.9
6.760	81936.9
6.765	81933.9
6.770	81931.9
6.775	81902.0
6.780	81893.0
6.785	81909.0
6.790	81941.9
6.795	81932.9
6.800	81936.9
6.805	81946.9
6.810	81955.9
6.815	81956.9
6.820	81957.9
6.825	81955.9
6.830	81964.9
6.835	81970.9
6.840	81956.9
6.845	81944.9
6.850	81944.9
6.855	81976.9
6.860	81990.9
6.865	82009.9
6.870	82001.9
6.875	82011.9
6.880	82018.9
6.885	82020.9
6.890	82022.9
6.895	82028.9
6.900	82022.9
6.905	82020.9
6.910	81995.9
6.915	81992.9
6.920	82022.9
6.925	82037.9
6.930	82029.9
6.935	82023.9
6.940	82026.9
6.945	82024.9
6.950	82025.9
6.955	82020.9
6.960	82026.9
6.965	82033.9
6.970	82039.9
6.975	82013.9
6.980	82004.9
6.985	82001.9
6.990	82032.9
6.995	82022.9
7.000	82033.9
7.005	82030.9
7.010	82030.9
7.015	82026.9
7.020	82029.9
7.025	82021.9
7.030	82015.9
7.035	82013.9
7.040	81996.9
7.045	81981.9
7.050	81985.9
7.055	82014.9
7.060	82007.9
7.065	82003.9
7.070	82002.9
7.075	81985.9
7.080	81989.9
7.085	81984.9
7.090	81985.9
7.095	81984.9
7.100	81988.9
7.105	81989.9
7.110	81957.9
7.115	81937.9
7.120	81961.9
7.125	81970.9
7.130	81961.9
7.135	81956.9
7.140	81967.9
7.145	81948.9
7.150	81958.9
7.155	81950.9
7.160	81950.9
7.165	81942.0
7.170	81943.0
7.175	81919.0
7.180	81900.0
7.185	81913.0
7.190	81935.0
7.195	81935.0
7.200	81939.0
7.205	81928.0
7.210	81924.0
7.215	81912.0
7.220	81930.0
7.225	81926.0
7.230	81934.0
7.235	81935.0
7.240	81911.0
7.245	81885.0
7.250	81886.0
7.255	81917.0
7.260	81912.0
7.265	81909.0
7.270	81907.0
7.275	81888.0
7.280	81891.0
7.285	81883.0
7.290	81886.0
7.295	81894.0
7.300	81890.0
7.305	81882.0
7.310	81860.0
7.315	81852.0
7.320	81888.0
7.325	81886.0
7.330	81882.0
7.335	81873.0
7.340	81860.0
7.345	81866.0
7.350	81866.0
7.355	81866.0
7.360	81872.0
7.365	81886.0
7.370	81892.0
7.375	81869.0
7.380	81866.0
7.385	81865.0
7.390	81896.0
7.395	81889.0
7.400	81890.0
7.405	81881.0
7.410	81887.0
7.415	81885.0
7.420	81889.0
7.425	81883.0
7.430	81894.0
7.435	81878.0
7.440	81857.1
7.445	81845.1
7.450	81856.1
7.455	81868.0
7.460	81878.0
7.465	81872.0
7.470	81874.0
7.475	81862.1
7.480	81864.1
7.485	81867.1
7.490	81867.1
7.495	81883.0
7.500	81896.0
7.505	81881.0
7.510	81857.1
7.515	81845.1
7.520	81873.1
7.525	81877.0
7.530	81892.0
7.535	81886.0
7.540	81884.0
7.545	81881.0
7.550	81884.0
7.555	81881.1
7.560	81886.0
7.565	81883.0
7.570	81887.0
7.575	81865.1
7.580	81856.1
7.585	81862.1
7.590	81894.0
7.595	81887.0
7.600	81884.1
7.605	81883.1
7.610	81888.1
7.615	81890.1
7.620	81897.0
7.625	81899.0
7.630	81900.0
7.635	81897.1
7.640	81891.1
7.645	81874.1
7.650	81887.1
7.655	81910.0
7.660	81915.0
7.665	81916.0
7.670	81919.0
7.675	81908.0
7.680	81913.0
7.685	81908.1
7.690	81921.0
7.695	81920.0
7.700	81931.0
7.705	81906.1
7.710	81899.1
7.715	81891.1
7.720	81921.0
7.725	81927.0
7.730	81928.0
7.735	81933.0
7.740	81935.0
7.745	81935.0
7.750	81935.0
7.755	81939.0
7.760	81940.0
7.765	81945.0
7.770	81944.0
7.775	81925.1
7.780	81917.1
7.785	81937.0
7.790	81961.0
7.795	81960.0
7.800	81952.0
7.805	81951.0
7.810	81950.0
7.815	81952.0
7.820	81954.0
7.825	81960.0
7.830	81963.0
7.835	81965.0
7.840	81938.1
7.845	81916.1
7.850	81926.1
7.855	81950.1
7.860	81955.0
7.865	81942.1
7.870	81952.1
7.875	81945.1
7.880	81951.1
7.885	81952.1
7.890	81948.1
7.895	81952.1
7.900	81960.1
7.905	81947.1
7.910	81928.1
7.915	81918.1
7.920	81959.1
7.925	81960.1
7.930	81962.1
7.935	81963.1
7.940	81955.1
7.945	81950.1
7.950	81959.1
7.955	81965.1
7.960	81963.1
7.965	81964.1
7.970	81968.1
7.975	81939.1
7.980	81931.1
7.985	81954.1
7.990	81976.1
7.995	81968.1
8.000	81962.1
8.005	81958.1
8.010	81962.1
8.015	81967.1
8.020	81965.1
8.025	81955.1
8.030	81963.1
8.035	81971.1
8.040	81946.1
8.045	81923.1
8.050	81932.1
8.055	81965.1
8.060	81973.1
8.065	81984.1
8.070	81986.1
8.075	81985.1
8.080	81986.1
8.085	81990.1
8.090	82002.1
8.095	81992.1
8.100	82001.1
8.105	81975.1
8.110	81969.1
8.115	81967.1
8.120	82004.1
8.125	81997.1
8.130	81986.1
8.135	81993.1
8.140	81995.1
8.145	81994.1
8.150	81999.1
8.155	81994.1
8.160	82002.1
8.165	82003.1
8.170	82006.1
8.175	81978.1
8.180	81969.1
8.185	81985.1
8.190	82008.1
8.195	82015.1
8.200	82012.1
8.205	82012.1
8.210	82007.1
8.215	82000.1
8.220	81998.1
8.225	82001.1
8.230	82001.1
8.235	81990.1
8.240	81962.1
8.245	81935.2
8.250	81948.2
8.255	81971.1
8.260	81967.1
8.265	81962.1
8.270	81970.1
8.275	81986.1
8.280	81986.1
8.285	81994.1
8.290	81999.1
8.295	81993.1
8.300	82007.1
8.305	81986.1
8.310	81964.2
8.315	81942.2
8.320	81974.2
8.325	81963.2
8.330	81957.2
8.335	81955.2
8.340	81959.2
8.345	81954.2
8.350	81967.2
8.355	81980.2
8.360	81974.2
8.365	81966.2
8.370	81968.2
8.375	81937.2
8.380	81937.2
8.385	81941.2
8.390	81957.2
8.395	81940.2
8.400	81939.2
8.405	81928.2
8.410	81919.2
8.415	81904.3
8.420	81907.2
8.425	81896.3
8.430	81888.3
8.435	81894.3
8.440	81861.3
8.445	81840.3
8.450	81840.3
8.455	81852.3
8.460	81852.3
8.465	81850.3
8.470	81854.3
8.475	81840.3
8.480	81841.3
8.485	81833.3
8.490	81821.3
8.495	81811.4
8.500	81808.4
8.505	81778.4
8.510	81753.4
8.515	81734.4
8.520	81770.4
8.525	81750.4
8.530	81745.4
8.535	81734.4
8.540	81709.5
8.545	81706.5
8.550	81726.4
8.555	81746.4
8.560	81778.4
8.565	81796.4
8.570	81799.4
8.575	81779.4
8.580	81788.4
8.585	81810.4
8.590	81828.4
8.595	81818.4
8.600	81811.4
8.605	81797.4
8.610	81810.4
8.615	81793.4
8.620	81789.4
8.625	81793.4
8.630	81804.4
8.635	81808.4
8.640	81791.4
8.645	81767.5
8.650	81785.5
8.655	81798.5
8.660	81800.5
8.665	81791.5
8.670	81792.5
8.675	81792.5
8.680	81782.5
8.685	81790.5
8.690	81782.5
8.695	81769.5
8.700	81778.5
8.705	81754.5
8.710	81723.5
8.715	81712.6
8.720	81740.5
8.725	81724.6
8.730	81702.6
8.735	81658.6
8.740	81555.7
8.745	81475.7
8.750	81521.7
8.755	81581.7
8.760	81647.6
8.765	81664.6
8.770	81678.6
8.775	81657.6
8.780	81665.6
8.785	81699.6
8.790	81702.6
8.795	81694.6
8.800	81682.6
8.805	81672.7
8.810	81663.7
8.815	81654.7
8.820	81640.7
8.825	81639.7
8.830	81634.7
8.835	81620.7
8.840	81610.7
8.845	81574.8
8.850	81583.8
8.855	81592.8
8.860	81578.8
8.865	81549.8
8.870	81551.8
8.875	81540.8
8.880	81560.8
8.885	81590.8
8.890	81578.8
8.895	81556.8
8.900	81542.8
8.905	81520.9
8.910	81497.9
8.915	81480.9
8.920	81549.9
8.925	81627.8
8.930	81682.8
8.935	81718.7
8.940	81748.7
8.945	81754.7
8.950	81766.7
8.955	81757.7
8.960	81753.8
8.965	81758.8
8.970	81765.8
8.975	81754.8
8.980	81754.8
8.985	81781.8
8.990	81794.8
8.995	81752.8
9.000	81565.9
9.005	81475.9
9.010	81654.8
9.015	81770.8
9.020	81792.8
9.025	81800.8
9.030	81802.8
9.035	81803.8
9.040	81777.9
9.045	81750.9
9.050	81758.9
9.055	81783.9
9.060	81763.9
9.065	81720.9
9.070	81703.0
9.075	81189.4
9.080	79539.6
9.085	77934.7
9.090	77887.7
9.095	79301.7
9.100	80832.6
9.105	81523.1
9.110	81734.0
9.115	81777.0
9.120	81815.0
9.125	81809.0
9.130	81770.1
9.135	81624.2
9.140	81518.2
9.145	81601.2
9.150	81721.1
9.155	81797.1
9.160	81808.1
9.165	81812.1
9.170	81807.1
9.175	81778.2
9.180	81766.2
9.185	81784.2
9.190	81793.2
9.195	81784.2
9.200	81791.2
9.205	81789.2
9.210	81794.3
9.215	81798.3
9.220	81811.3
9.225	81810.3
9.230	81829.3
9.235	81832.3
9.240	81823.4
9.245	81805.4
9.250	81826.4
9.255	81845.4
9.260	81853.5
9.265	81851.5
9.270	81850.5
9.275	81835.6
9.280	81838.6
9.285	81841.6
9.290	81847.6
9.295	81848.7
9.300	81849.7
9.305	81826.8
9.310	81818.8
9.315	81805.9
9.320	81823.9
9.325	81766.0
9.330	81705.1
9.335	81659.2
9.340	81522.3
9.345	81399.4
9.350	81272.6
9.355	81240.7
9.360	81377.6
9.365	81471.7
9.370	81445.8
9.375	81335.0
9.380	81213.2
9.385	81255.3
9.390	81223.5
9.395	81147.7
9.400	81309.8
9.405	81266.1
9.410	80924.7
9.415	80522.2
9.420	80400.5
9.425	80574.6
9.430	80830.6
9.435	81018.6
9.440	81074.6
9.445	81031.7
9.450	80988.6
9.455	80961.4
9.460	80995.1
9.465	81063.7
9.470	81143.2
9.475	81231.5
9.480	81354.7
9.485	81463.8
9.490	81570.1
9.495	81641.5
9.500	81711.1
9.505	81718.9
9.510	81731.7
9.515	81735.7
9.520	81782.6
9.525	81791.6
9.530	81800.6
9.535	81796.6
9.540	81790.6
9.545	81791.6
9.550	81795.6
9.555	81788.6
9.560	81792.6
9.565	81788.6
9.570	81779.6
9.575	81755.6
9.580	81766.6
9.585	81789.6
9.590	81798.6
9.595	81794.6
9.600	81784.6
9.605	81783.6
9.610	81784.6
9.615	81788.6
9.620	81800.6
9.625	81795.6
9.630	81804.6
9.635	81808.6
9.640	81784.6
9.645	81766.6
9.650	81786.6
9.655	81811.5
9.660	81815.6
9.665	81815.5
9.670	81811.5
9.675	81809.6
9.680	81814.6
9.685	81810.6
9.690	81822.5
9.695	81815.5
9.700	81822.5
9.705	81784.6
9.710	81769.6
9.715	81781.6
9.720	81810.6
9.725	81811.5
9.730	81807.6
9.735	81808.6
9.740	81814.5
9.745	81807.6
9.750	81804.6
9.755	81809.5
9.760	81814.5
9.765	81821.5
9.770	81824.5
9.775	81779.6
9.780	81785.6
9.785	81814.5
9.790	81823.5
9.795	81821.5
9.800	81824.5
9.805	81809.5
9.810	81802.6
9.815	81807.6
9.820	81809.5
9.825	81809.5
9.830	81815.5
9.835	81804.5
9.840	81781.6
9.845	81766.6
9.850	81801.6
9.855	81809.5
9.860	81810.5
9.865	81794.6
9.870	81797.6
9.875	81783.6
9.880	81785.6
9.885	81788.6
9.890	81786.6
9.895	81788.6
9.900	81783.6
9.905	81766.6
9.910	81744.6
9.915	81747.6
9.920	81765.6
9.925	81759.6
9.930	81759.6
9.935	81748.6
9.940	81745.6
9.945	81736.6
9.950	81739.6
9.955	81741.6
9.960	81739.6
9.965	81733.6
9.970	81710.6
9.975	81689.6
9.980	81696.6
9.985	81723.6
9.990	81716.6
9.995	81713.6
10.000	81709.6
10.005	81701.6
10.010	81693.6
10.015	81681.6
10.020	81682.6
10.025	81679.6
10.030	81697.6
10.035	81692.6
10.040	81671.6
10.045	81653.7
10.050	81683.6
10.055	81687.6
10.060	81687.6
10.065	81676.6
10.070	81661.7
10.075	81652.7
10.080	81649.7
10.085	81644.7
10.090	81648.7
10.095	81656.7
10.100	81657.7
10.105	81618.7
10.110	81608.7
10.115	81619.7
10.120	81650.7
10.125	81638.7
10.130	81642.7
10.135	81637.7
10.140	81634.7
10.145	81626.7
10.150	81623.7
10.155	81621.7
10.160	81624.7
10.165	81612.7
10.170	81603.7
10.175	81577.7
10.180	81568.7
10.185	81600.7
10.190	81610.7
10.195	81598.7
10.200	81610.7
10.205	81601.7
10.210	81599.7
10.215	81588.7
10.220	81596.7
10.225	81591.7
10.230	81596.7
10.235	81588.7
10.240	81563.7
10.245	81548.7
10.250	81575.7
10.255	81582.7
10.260	81589.7
10.265	81584.7
10.270	81587.7
10.275	81580.7
10.280	81589.7
10.285	81587.7
10.290	81593.7
10.295	81592.7
10.300	81611.7
10.305	81586.7
10.310	81564.7
10.315	81574.7
10.320	81606.7
10.325	81610.7
10.330	81630.7
10.335	81628.7
10.340	81638.7
10.345	81638.7
10.350	81625.7
10.355	81637.7
10.360	81647.7
10.365	81644.7
10.370	81644.7
10.375	81625.7
10.380	81632.7
10.385	81656.6
10.390	81650.7
10.395	81657.6
10.400	81658.6
10.405	81647.7
10.410	81662.6
10.415	81661.6
10.420	81671.6
10.425	81674.6
10.430	81689.6
10.435	81680.6
10.440	81662.6
10.445	81659.6
10.450	81694.6
10.455	81701.6
10.460	81715.6
10.465	81707.6
10.470	81711.6
10.475	81703.6
10.480	81719.6
10.485	81716.6
10.490	81714.6
10.495	81708.6
10.500	81706.6
10.505	81674.6
10.510	81679.6
10.515	81690.6
10.520	81711.6
10.525	81709.6
10.530	81710.6
10.535	81707.6
10.540	81716.6
10.545	81730.6
10.550	81727.6
10.555	81730.6
10.560	81747.6
10.565	81759.6
10.570	81753.6
10.575	81730.6
10.580	81723.6
10.585	81742.6
10.590	81743.6
10.595	81754.6
10.600	81762.6
10.605	81763.6
10.610	81770.6
10.615	81760.6
10.620	81759.6
10.625	81768.6
10.630	81765.6
10.635	81763.6
10.640	81737.6
10.645	81734.6
10.650	81772.5
10.655	81771.5
10.660	81774.5
10.665	81766.6
10.670	81767.6
10.675	81758.6
10.680	81752.6
10.685	81760.6
10.690	81762.6
10.695	81766.6
10.700	81775.5
10.705	81750.6
10.710	81737.6
10.715	81749.6
10.720	81784.5
10.725	81779.5
10.730	81789.5
10.735	81776.5
10.740	81777.5
10.745	81770.5
10.750	81771.5
10.755	81767.5
10.760	81777.5
10.765	81773.5
10.770	81754.6
10.775	81733.6
10.780	81752.6
10.785	81772.5
10.790	81775.5
10.795	81766.5
10.800	81764.5
10.805	81767.5
10.810	81768.5
10.815	81781.5
10.820	81776.5
10.825	81773.5
10.830	81778.5
10.835	81783.5
10.840	81765.5
10.845	81756.6
10.850	81788.5
10.855	81793.5
10.860	81796.5
10.865	81785.5
10.870	81789.5
10.875	81779.5
10.880	81774.5
10.885	81774.5
10.890	81787.5
10.895	81782.5
10.900	81777.5
10.905	81754.6
10.910	81755.5
10.915	81767.5
10.920	81791.5
10.925	81779.5
10.930	81791.5
10.935	81773.5
10.940	81768.5
10.945	81752.6
10.950	81759.5
10.955	81763.5
10.960	81773.5
10.965	81771.5
10.970	81767.5
10.975	81738.6
10.980	81740.6
10.985	81763.5
10.990	81769.5
10.995	81758.5
11.000	81767.5
11.005	81760.5
11.010	81762.5
11.015	81758.5
11.020	81758.5
11.025	81753.5
11.030	81742.6
11.035	81733.6
11.040	81709.6
11.045	81693.6
11.050	81737.6
11.055	81742.6
11.060	81735.6
11.065	81738.6
11.070	81742.6
11.075	81735.6
11.080	81728.6
11.085	81737.6
11.090	81744.6
11.095	81749.5
11.100	81742.6
11.105	81715.6
11.110	81699.6
11.115	81718.6
11.120	81744.5
11.125	81745.6
11.130	81739.5
11.135	81736.6
11.140	81731.6
11.145	81711.6
11.150	81721.6
11.155	81717.6
11.160	81717.6
11.165	81712.6
11.170	81686.6
11.175	81666.6
11.180	81667.6
11.185	81683.6
11.190	81691.6
11.195	81688.6
11.200	81682.6
11.205	81667.6
11.210	81665.6
11.215	81657.6
11.220	81665.6
11.225	81675.6
11.230	81678.6
11.235	81662.6
11.240	81646.6
11.245	81638.6
11.250	81668.6
11.255	81663.6
11.260	81665.6
11.265	81680.6
11.270	81667.6
11.275	81652.6
11.280	81654.6
11.285	81651.6
11.290	81664.6
11.295	81659.6
11.300	81657.6
11.305	81624.6
11.310	81610.6
11.315	81634.6
11.320	81649.6
11.325	81646.6
11.330	81615.6
11.335	81609.6
11.340	81625.6
11.345	81631.6
11.350	81632.6
11.355	81636.6
11.360	81660.6
11.365	81652.6
11.370	81646.6
11.375	81612.6
11.380	81618.6
11.385	81643.6
11.390	81653.6
11.395	81647.6
11.400	81653.6
11.405	81656.6
11.410	81654.6
11.415	81645.6
11.420	81652.6
11.425	81648.6
11.430	81651.6
11.435	81638.6
11.440	81635.6
11.445	81614.6
11.450	81652.6
11.455	81647.6
11.460	81661.6
11.465	81648.6
11.470	81655.6
11.475	81655.6
11.480	81652.6
11.485	81658.6
11.490	81660.6
11.495	81670.6
11.500	81678.6
11.505	81649.6
11.510	81629.6
11.515	81651.6
11.520	81673.6
11.525	81672.6
11.530	81672.6
11.535	81678.6
11.540	81691.6
11.545	81678.6
11.550	81674.6
11.555	81684.6
11.560	81674.6
11.565	81677.6
11.570	81663.6
11.575	81637.6
11.580	81650.6
11.585	81667.6
11.590	81667.6
11.595	81671.6
11.600	81670.6
11.605	81655.6
11.610	81661.6
11.615	81655.6
11.620	81664.6
11.625	81672.6
11.630	81684.6
11.635	81669.6
11.640	81653.6
11.645	81639.6
11.650	81671.6
11.655	81672.6
11.660	81674.6
11.665	81673.6
11.670	81679.6
11.675	81673.6
11.680	81682.6
11.685	81678.6
11.690	81680.6
11.695	81677.6
11.700	81689.6
11.705	81659.6
11.710	81643.6
11.715	81664.6
11.720	81682.6
11.725	81672.6
11.730	81670.6
11.735	81672.6
11.740	81671.6
11.745	81674.6
11.750	81673.6
11.755	81667.6
11.760	81667.6
11.765	81678.6
11.770	81662.6
11.775	81633.6
11.780	81645.6
11.785	81674.6
11.790	81680.6
11.795	81686.6
11.800	81683.6
11.805	81677.6
11.810	81676.6
11.815	81677.6
11.820	81671.6
11.825	81662.6
11.830	81658.6
11.835	81641.6
11.840	81626.6
11.845	81619.6
11.850	81658.6
11.855	81644.6
11.860	81649.6
11.865	81654.6
11.870	81649.6
11.875	81650.6
11.880	81653.6
11.885	81650.6
11.890	81659.6
11.895	81662.6
11.900	81660.6
11.905	81633.6
11.910	81612.6
11.915	81631.6
11.920	81650.6
11.925	81650.6
11.930	81653.6
11.935	81649.6
11.940	81660.6
11.945	81659.6
11.950	81655.6
11.955	81648.6
11.960	81649.6
11.965	81637.6
11.970	81620.6
11.975	81607.6
11.980	81626.6
11.985	81639.6
11.990	81638.6
11.995	81641.6
12.000	81635.6
12.005	81636.6
12.010	81645.6
12.015	81640.6
12.020	81640.6
12.025	81645.6
12.030	81652.6
12.035	81643.6
12.040	81616.6
12.045	81600.6
12.050	81632.6
12.055	81628.6
12.060	81637.6
12.065	81633.6
12.070	81638.6
12.075	81630.6
12.080	81636.6
12.085	81629.6
12.090	81630.6
12.095	81629.6
12.100	81624.6
12.105	81594.6
12.110	81584.6
12.115	81602.6
12.120	81625.6
12.125	81612.6
12.130	81619.6
12.135	81608.6
12.140	81624.6
12.145	81621.6
12.150	81626.6
12.155	81634.6
12.160	81634.6
12.165	81644.6
12.170	81627.6
12.175	81611.6
12.180	81627.6
12.185	81647.6
12.190	81655.6
12.195	81644.6
12.200	81655.6
12.205	81653.6
12.210	81649.6
12.215	81650.6
12.220	81663.6
12.225	81649.6
12.230	81655.6
12.235	81631.6
12.240	81611.6
12.245	81616.6
12.250	81654.6
12.255	81659.6
12.260	81646.6
12.265	81652.6
12.270	81649.6
12.275	81650.6
12.280	81650.6
12.285	81651.6
12.290	81662.6
12.295	81674.6
12.300	81667.6
12.305	81629.6
12.310	81643.6
12.315	81668.6
12.320	81677.6
12.325	81681.6
12.330	81685.6
12.335	81693.5
12.340	81695.5
12.345	81696.5
12.350	81694.5
12.355	81700.5
12.360	81704.5
12.365	81699.5
12.370	81674.6
12.375	81663.6
12.380	81690.6
12.385	81702.5
12.390	81708.5
12.395	81701.5
12.400	81714.5
12.405	81719.5
12.410	81728.5
12.415	81728.5
12.420	81732.5
12.425	81731.5
12.430	81740.5
12.435	81729.5
12.440	81714.5
12.445	81712.5
12.450	81751.5
12.455	81754.5
12.460	81749.5
12.465	81751.5
12.470	81756.5
12.475	81754.5
12.480	81759.5
12.485	81758.5
12.490	81772.5
12.495	81774.5
12.500	81773.5
12.505	81749.5
12.510	81742.5
12.515	81765.5
12.520	81775.5
12.525	81783.5
12.530	81788.5
12.535	81784.5
12.540	81791.5
12.545	81798.5
12.550	81799.5
12.555	81801.5
12.560	81818.4
12.565	81809.5
12.570	81788.5
12.575	81772.5
12.580	81798.5
12.585	81821.4
12.590	81828.4
12.595	81835.4
12.600	81830.4
12.605	81826.4
12.610	81829.4
12.615	81830.4
12.620	81840.4
12.625	81833.4
12.630	81843.4
12.635	81818.4
12.640	81814.4
12.645	81817.4
12.650	81856.4
12.655	81845.4
12.660	81853.4
12.665	81854.4
12.670	81860.4
12.675	81849.4
12.680	81855.4
12.685	81854.4
12.690	81858.4
12.695	81859.4
12.700	81865.4
12.705	81837.4
12.710	81835.4
12.715	81870.4
12.720	81881.4
12.725	81878.4
12.730	81881.4
12.735	81880.4
12.740	81886.4
12.745	81882.4
12.750	81891.4
12.755	81883.4
12.760	81887.4
12.765	81889.4
12.770	81872.4
12.775	81847.4
12.780	81872.4
12.785	81901.4
12.790	81896.4
12.795	81890.4
12.800	81896.4
12.805	81890.4
12.810	81902.4
12.815	81901.4
12.820	81906.4
12.825	81905.4
12.830	81922.4
12.835	81901.4
12.840	81879.4
12.845	81869.4
12.850	81916.4
12.855	81920.4
12.860	81934.3
12.865	81925.4
12.870	81931.3
12.875	81928.3
12.880	81922.4
12.885	81931.3
12.890	81935.3
12.895	81930.3
12.900	81933.3
12.905	81899.4
12.910	81912.4
12.915	81932.3
12.920	81948.3
12.925	81926.3
12.930	81936.3
12.935	81926.3
12.940	81927.3
12.945	81926.3
12.950	81936.3
12.955	81940.3
12.960	81943.3
12.965	81947.3
12.970	81924.3
12.975	81902.4
12.980	81918.3
12.985	81947.3
12.990	81939.3
12.995	81949.3
13.000	81960.3
13.005	81954.3
13.010	81950.3
13.015	81952.3
13.020	81964.3
13.025	81949.3
13.030	81962.3
13.035	81937.3
13.040	81928.3
13.045	81937.3
13.050	81954.3
13.055	81959.3
13.060	81954.3
13.065	81960.3
13.070	81960.3
13.075	81951.3
13.080	81962.3
13.085	81967.3
13.090	81966.3
13.095	81974.3
13.100	81972.3
13.105	81953.3
13.110	81946.3
13.115	81968.3
13.120	81972.3
13.125	81976.3
13.130	81984.3
13.135	81970.3
13.140	81972.3
13.145	81964.3
13.150	81976.3
13.155	81967.3
13.160	81972.3
13.165	81965.3
13.170	81940.3
13.175	81928.3
13.180	81951.3
13.185	81971.3
13.190	81965.3
13.195	81973.3
13.200	81976.3
13.205	81959.3
13.210	81964.3
13.215	81958.3
13.220	81960.3
13.225	81964.3
13.230	81977.3
13.235	81959.3
13.240	81934.3
13.245	81931.3
13.250	81958.3
13.255	81953.3
13.260	81958.3
13.265	81957.3
13.270	81956.3
13.275	81947.3
13.280	81954.3
13.285	81944.3
13.290	81943.3
13.295	81930.3
13.300	81926.3
13.305	81896.4
13.310	81897.4
13.315	81926.3
13.320	81926.3
13.325	81924.3
13.330	81920.3
13.335	81912.3
13.340	81906.3
13.345	81904.3
13.350	81905.3
13.355	81905.3
13.360	81913.3
13.365	81907.3
13.370	81887.4
13.375	81864.4
13.380	81881.4
13.385	81890.4
13.390	81893.4
13.395	81894.4
13.400	81895.3
13.405	81895.4
13.410	81892.4
13.415	81882.4
13.420	81878.4
13.425	81865.4
13.430	81873.4
13.435	81843.4
13.440	81820.4
13.445	81826.4
13.450	81862.4
13.455	81859.4
13.460	81851.4
13.465	81852.4
13.470	81852.4
13.475	81850.4
13.480	81840.4
13.485	81838.4
13.490	81848.4
13.495	81851.4
13.500	81843.4
13.505	81822.4
13.510	81822.4
13.515	81846.4
13.520	81843.4
13.525	81847.4
13.530	81851.4
13.535	81841.4
13.540	81847.4
13.545	81842.4
13.550	81833.4
13.555	81834.4
13.560	81839.4
13.565	81833.4
13.570	81810.4
13.575	81795.4
13.580	81817.4
13.585	81835.4
13.590	81833.4
13.595	81825.4
13.600	81828.4
13.605	81827.4
13.610	81826.4
13.615	81815.4
13.620	81826.4
13.625	81827.4
13.630	81836.4
13.635	81814.4
13.640	81798.4
13.645	81800.4
13.650	81825.4
13.655	81822.4
13.660	81847.4
13.665	81834.4
13.670	81830.4
13.675	81837.4
13.680	81832.4
13.685	81831.4
13.690	81838.4
13.695	81831.4
13.700	81823.4
13.705	81802.4
13.710	81810.4
13.715	81831.4
13.720	81834.4
13.725	81833.4
13.730	81824.4
13.735	81835.4
13.740	81834.4
13.745	81837.4
13.750	81843.4
13.755	81843.4
13.760	81850.4
13.765	81853.4
13.770	81837.4
13.775	81819.4
13.780	81839.4
13.785	81856.4
13.790	81863.4
13.795	81863.4
13.800	81868.4
13.805	81869.4
13.810	81877.3
13.815	81871.4
13.820	81873.3
13.825	81880.3
13.830	81882.3
13.835	81853.4
13.840	81839.4
13.845	81848.4
13.850	81870.3
13.855	81879.3
13.860	81879.3
13.865	81878.3
13.870	81888.3
13.875	81889.3
13.880	81900.3
13.885	81889.3
13.890	81901.3
13.895	81902.3
13.900	81902.3
13.905	81876.3
13.910	81885.3
13.915	81913.3
13.920	81909.3
13.925	81916.3
13.930	81918.3
13.935	81918.3
13.940	81919.3
13.945	81915.3
13.950	81921.3
13.955	81917.3
13.960	81920.3
13.965	81922.3
13.970	81899.3
13.975	81878.3
13.980	81910.3
13.985	81915.3
13.990	81917.3
13.995	81917.3
14.000	81925.3
14.005	81913.3
14.010	81918.3
14.015	81917.3
14.020	81920.3
14.025	81929.3
14.030	81936.3
14.035	81906.3
14.040	81901.3
14.045	81905.3
14.050	81927.3
14.055	81923.3
14.060	81927.3
14.065	81930.3
14.070	81928.3
14.075	81919.3
14.080	81928.3
14.085	81917.3
14.090	81922.3
14.095	81918.3
14.100	81921.3
14.105	81884.3
14.110	81887.3
14.115	81912.3
14.120	81922.3
14.125	81922.3
14.130	81923.3
14.135	81924.3
14.140	81926.3
14.145	81926.3
14.150	81926.3
14.155	81923.3
14.160	81933.3
14.165	81934.3
14.170	81907.3
14.175	81892.3
14.180	81912.3
14.185	81921.3
14.190	81926.3
14.195	81938.3
14.200	81937.3
14.205	81926.3
14.210	81926.3
14.215	81929.3
14.220	81926.3
14.225	81926.3
14.230	81931.3
14.235	81901.3
14.240	81892.3
14.245	81905.3
14.250	81919.3
14.255	81914.3
14.260	81926.3
14.265	81925.3
14.270	81925.3
14.275	81925.3
14.280	81930.3
14.285	81919.3
14.290	81933.3
14.295	81928.3
14.300	81911.3
14.305	81894.3
14.310	81899.3
14.315	81926.3
14.320	81931.3
14.325	81929.3
14.330	81934.3
14.335	81929.3
14.340	81930.3
14.345	81921.3
14.350	81927.3
14.355	81922.3
14.360	81927.3
14.365	81904.3
14.370	81897.3
14.375	81882.3
14.380	81920.3
14.385	81919.3
14.390	81913.3
14.395	81912.3
14.400	81915.3
14.405	81911.3
14.410	81924.3
14.415	81918.3
14.420	81922.3
14.425	81918.3
14.430	81923.3
14.435	81899.3
14.440	81876.3
14.445	81900.3
14.450	81916.3
14.455	81913.3
14.460	81927.3
14.465	81921.3
14.470	81915.3
14.475	81908.3
14.480	81916.3
14.485	81906.3
14.490	81916.3
14.495	81915.3
14.500	81885.3
14.505	81876.3
14.510	81879.3
14.515	81915.3
14.520	81914.3
14.525	81902.3
14.530	81910.3
14.535	81908.3
14.540	81908.3
14.545	81902.3
14.550	81903.3
14.555	81894.3
14.560	81912.3
14.565	81902.3
14.570	81894.3
14.575	81869.3
14.580	81892.3
14.585	81908.3
14.590	81905.3
14.595	81910.3
14.600	81910.3
14.605	81904.3
14.610	81909.3
14.615	81907.3
14.620	81903.3
14.625	81895.3
14.630	81892.3
14.635	81864.3
14.640	81870.3
14.645	81876.3
14.650	81896.3
14.655	81889.3
14.660	81888.3
14.665	81887.3
14.670	81878.3
14.675	81879.3
14.680	81874.3
14.685	81871.3
14.690	81879.3
14.695	81885.3
14.700	81874.3
14.705	81840.3
14.710	81855.3
14.715	81875.3
14.720	81886.3
14.725	81876.3
14.730	81883.3
14.735	81870.3
14.740	81872.3
14.745	81866.3
14.750	81859.3
14.755	81866.3
14.760	81866.3
14.765	81852.3
14.770	81826.3
14.775	81816.3
14.780	81848.3
14.785	81855.3
14.790	81856.3
14.795	81837.3
14.800	81841.3
14.805	81829.3
14.810	81834.3
14.815	81826.3
14.820	81839.3
14.825	81842.3
14.830	81839.3
14.835	81798.4
14.840	81779.4
14.845	81794.4
14.850	81819.3
14.855	81810.4
14.860	81809.3
14.865	81815.3
14.870	81818.3
14.875	81803.3
14.880	81804.4
14.885	81796.4
14.890	81790.4
14.895	81783.4
14.900	81764.4
14.905	81741.4
14.910	81740.4
14.915	81773.4
14.920	81767.4
14.925	81759.4
14.930	81747.4
14.935	81752.4
14.940	81754.4
14.945	81749.4
14.950	81747.4
14.955	81759.4
14.960	81761.4
14.965	81750.4
14.970	81729.4
14.975	81723.4
14.980	81756.4
14.985	81765.4
14.990	81759.4
14.995	81759.4
15.000	81759.4
15.005	81761.4
15.010	81755.4
15.015	81751.4
15.020	81757.4
15.025	81753.4
15.030	81759.4
15.035	81736.4
15.040	81741.4
15.045	81758.4
15.050	81788.4
15.055	81785.4
15.060	81786.4
15.065	81782.4
15.070	81784.4
15.075	81780.4
15.080	81784.4
15.085	81784.4
15.090	81796.4
15.095	81796.3
15.100	81783.4
15.105	81758.4
15.110	81773.4
15.115	81800.3
15.120	81801.3
15.125	81807.3
15.130	81810.3
15.135	81810.3
15.140	81806.3
15.145	81801.3
15.150	81806.3
15.155	81801.3
15.160	81802.3
15.165	81789.4
15.170	81781.4
15.175	81769.4
15.180	81800.3
15.185	81798.3
15.190	81799.3
15.195	81798.3
15.200	81797.3
15.205	81796.3
15.210	81799.3
15.215	81798.3
15.220	81798.3
15.225	81802.3
15.230	81804.3
15.235	81773.4
15.240	81770.4
15.245	81774.3
15.250	81797.3
15.255	81789.3
15.260	81790.3
15.265	81789.3
15.270	81777.3
15.275	81774.4
15.280	81778.4
15.285	81773.4
15.290	81776.3
15.295	81768.4
15.300	81748.4
15.305	81720.4
15.310	81733.4
15.315	81766.4
15.320	81773.3
15.325	81761.4
15.330	81766.4
15.335	81754.4
15.340	81752.4
15.345	81739.4
15.350	81729.4
15.355	81736.4
15.360	81746.4
15.365	81728.4
15.370	81705.4
15.375	81697.4
15.380	81732.4
15.385	81732.4
15.390	81741.4
15.395	81725.4
15.400	81724.4
15.405	81721.4
15.410	81718.4
15.415	81714.4
15.420	81711.4
15.425	81710.4
15.430	81697.4
15.435	81669.4
15.440	81658.4
15.445	81683.4
15.450	81704.4
15.455	81687.4
15.460	81692.4
15.465	81685.4
15.470	81683.4
15.475	81680.4
15.480	81685.4
15.485	81678.4
15.490	81685.4
15.495	81697.4
15.500	81681.4
15.505	81652.4
15.510	81648.4
15.515	81672.4
15.520	81682.4
15.525	81677.4
15.530	81682.4
15.535	81664.4
15.540	81673.4
15.545	81671.4
15.550	81682.4
15.555	81672.4
15.560	81679.4
15.565	81663.4
15.570	81644.4
15.575	81635.4
15.580	81666.4
15.585	81673.4
15.590	81679.4
15.595	81667.4
15.600	81667.4
15.605	81670.4
15.610	81677.4
15.615	81671.4
15.620	81684.4
15.625	81683.4
15.630	81678.4
15.635	81648.4
15.640	81643.4
15.645	81673.4
15.650	81692.4
15.655	81694.4
15.660	81688.4
15.665	81700.4
15.670	81697.4
15.675	81688.4
15.680	81689.4
15.685	81693.4
15.690	81696.4
15.695	81697.4
15.700	81664.4
15.705	81648.4
15.710	81676.4
15.715	81701.4
15.720	81700.4
15.725	81704.4
15.730	81708.4
15.735	81694.4
15.740	81700.4
15.745	81704.4
15.750	81696.4
15.755	81699.4
15.760	81715.4
15.765	81713.4
15.770	81702.4
15.775	81685.4
15.780	81710.4
15.785	81707.4
15.790	81720.4
15.795	81719.4
15.800	81718.4
15.805	81706.4
15.810	81716.4
15.815	81719.4
15.820	81728.4
15.825	81706.4
15.830	81706.4
15.835	81679.4
15.840	81681.4
15.845	81700.4
15.850	81711.4
15.855	81724.4
15.860	81737.3
15.865	81742.3
15.870	81735.3
15.875	81736.3
15.880	81751.3
15.885	81744.3
15.890	81752.3
15.895	81745.3
15.900	81726.3
15.905	81709.4
15.910	81735.3
15.915	81747.3
15.920	81749.3
15.925	81751.3
15.930	81759.3
15.935	81756.3
15.940	81758.3
15.945	81764.3
15.950	81772.3
15.955	81774.3
15.960	81769.3
15.965	81745.3
15.970	81728.3
15.975	81724.3
15.980	81753.3
15.985	81749.3
15.990	81759.3
15.995	81743.3
16.000	81742.3
16.005	81743.3
16.010	81750.3
16.015	81749.3
16.020	81765.3
16.025	81764.3
16.030	81758.3
16.035	81729.3
16.040	81725.3
16.045	81754.3
16.050	81755.3
16.055	81758.3
16.060	81771.3
16.065	81762.3
16.070	81761.3
16.075	81755.3
16.080	81759.3
16.085	81744.3
16.090	81747.3
16.095	81752.3
16.100	81730.3
16.105	81712.3
16.110	81728.3
16.115	81741.3
16.120	81742.3
16.125	81730.3
16.130	81729.3
16.135	81736.3
16.140	81734.3
16.145	81730.3
16.150	81727.3
16.155	81733.3
16.160	81741.3
16.165	81723.3
16.170	81715.3
16.175	81710.3
16.180	81741.3
16.185	81733.3
16.190	81739.3
16.195	81735.3
16.200	81736.3
16.205	81728.3
16.210	81725.3
16.215	81728.3
16.220	81739.3
16.225	81739.3
16.230	81727.3
16.235	81697.3
16.240	81701.3
16.245	81724.3
16.250	81736.3
16.255	81733.3
16.260	81734.3
16.265	81729.3
16.270	81733.3
16.275	81731.3
16.280	81728.3
16.285	81720.3
16.290	81732.3
16.295	81730.3
16.300	81706.3
16.305	81690.3
16.310	81704.3
16.315	81730.3
16.320	81733.3
16.325	81730.3
16.330	81729.3
16.335	81720.3
16.340	81721.3
16.345	81716.3
16.350	81713.3
16.355	81707.3
16.360	81717.3
16.365	81696.3
16.370	81677.4
16.375	81675.4
16.380	81703.3
16.385	81695.3
16.390	81696.3
16.395	81694.3
16.400	81686.3
16.405	81685.3
16.410	81691.3
16.415	81696.3
16.420	81700.3
16.425	81695.3
16.430	81691.3
16.435	81658.4
16.440	81659.4
16.445	81674.3
16.450	81683.3
16.455	81675.3
16.460	81687.3
16.465	81682.3
16.470	81684.3
16.475	81670.4
16.480	81670.4
16.485	81666.4
16.490	81672.3
16.495	81671.3
16.500	81657.4
16.505	81639.4
16.510	81661.4
16.515	81673.3
16.520	81672.3
16.525	81668.3
16.530	81674.3
16.535	81666.3
16.540	81659.4
16.545	81667.3
16.550	81685.3
16.555	81685.3
16.560	81689.3
16.565	81670.3
16.570	81650.4
16.575	81661.3
16.580	81697.3
16.585	81694.3
16.590	81701.3
16.595	81698.3
16.600	81702.3
16.605	81696.3
16.610	81696.3
16.615	81694.3
16.620	81699.3
16.625	81695.3
16.630	81693.3
16.635	81675.3
16.640	81682.3
16.645	81708.3
16.650	81709.3
16.655	81700.3
16.660	81702.3
16.665	81696.3
16.670	81695.3
16.675	81696.3
16.680	81709.3
16.685	81701.3
16.690	81715.3
16.695	81707.3
16.700	81677.3
16.705	81665.3
16.710	81689.3
16.715	81697.3
16.720	81693.3
16.725	81686.3
16.730	81690.3
16.735	81683.3
16.740	81684.3
16.745	81673.3
16.750	81667.3
16.755	81663.3
16.760	81675.3
16.765	81650.3
16.770	81633.4
16.775	81623.4
16.780	81654.3
16.785	81654.3
16.790	81659.3
16.795	81645.3
16.800	81640.3
16.805	81621.4
16.810	81627.4
16.815	81621.4
16.820	81628.4
16.825	81622.4
16.830	81624.4
16.835	81588.4
16.840	81575.4
16.845	81590.4
16.850	81582.4
16.855	81571.4
16.860	81576.4
16.865	81583.4
16.870	81577.4
16.875	81578.4
16.880	81565.4
16.885	81559.4
16.890	81541.4
16.895	81527.4
16.900	81500.4
16.905	81491.4
16.910	81523.4
16.915	81528.4
16.920	81513.4
16.925	81503.4
16.930	81484.5
16.935	81471.5
16.940	81468.5
16.945	81466.5
16.950	81456.5
16.955	81448.5
16.960	81451.5
16.965	81430.5
16.970	81401.5
16.975	81407.5
16.980	81437.5
16.985	81437.5
16.990	81432.5
16.995	81432.5
17.000	81444.5
17.005	81441.5
17.010	81437.5
17.015	81427.5
17.020	81417.5
17.025	81411.5
17.030	81416.5
17.035	81394.5
17.040	81406.5
17.045	81433.5
17.050	81451.5
17.055	81452.5
17.060	81463.5
17.065	81453.5
17.070	81443.5
17.075	81438.5
17.080	81444.5
17.085	81460.5
17.090	81477.4
17.095	81476.4
17.100	81449.5
17.105	81438.5
17.110	81470.4
17.115	81490.4
17.120	81501.4
17.125	81503.4
17.130	81515.4
17.135	81521.4
17.140	81529.4
17.145	81523.4
17.150	81523.4
17.155	81521.4
17.160	81526.4
17.165	81486.4
17.170	81477.4
17.175	81488.4
17.180	81515.4
17.185	81513.4
17.190	81519.4
17.195	81504.4
17.200	81500.4
17.205	81532.4
17.210	81535.4
17.215	81537.4
17.220	81532.4
17.225	81532.4
17.230	81524.4
17.235	81509.4
17.240	81521.4
17.245	81545.4
17.250	81551.4
17.255	81543.4
17.260	81561.4
17.265	81550.4
17.270	81561.4
17.275	81543.4
17.280	81549.4
17.285	81550.4
17.290	81565.4
17.295	81543.4
17.300	81517.4
17.305	81502.4
17.310	81529.4
17.315	81543.4
17.320	81542.4
17.325	81526.4
17.330	81524.4
17.335	81519.4
17.340	81526.4
17.345	81525.4
17.350	81535.4
17.355	81536.4
17.360	81545.4
17.365	81529.4
17.370	81511.4
17.375	81511.4
17.380	81530.4
17.385	81536.4
17.390	81548.4
17.395	81528.4
17.400	81522.4
17.405	81533.4
17.410	81530.4
17.415	81509.4
17.420	81513.4
17.425	81513.4
17.430	81501.4
17.435	81481.4
17.440	81488.4
17.445	81501.4
17.450	81509.4
17.455	81508.4
17.460	81513.4
17.465	81498.4
17.470	81500.4
17.475	81500.4
17.480	81509.4
17.485	81513.4
17.490	81525.4
17.495	81537.4
17.500	81513.4
17.505	81498.4
17.510	81515.4
17.515	81529.4
17.520	81534.4
17.525	81524.4
17.530	81540.4
17.535	81550.3
17.540	81543.3
17.545	81530.4
17.550	81539.4
17.555	81538.3
17.560	81546.3
17.565	81521.4
17.570	81497.4
17.575	81511.4
17.580	81536.4
17.585	81542.3
17.590	81546.3
17.595	81549.3
17.600	81552.3
17.605	81535.3
17.610	81540.3
17.615	81537.3
17.620	81545.3
17.625	81542.3
17.630	81532.3
17.635	81507.4
17.640	81514.4
17.645	81530.3
17.650	81540.3
17.655	81532.3
17.660	81537.3
17.665	81537.3
17.670	81539.3
17.675	81544.3
17.680	81542.3
17.685	81533.3
17.690	81543.3
17.695	81554.3
17.700	81527.3
17.705	81510.4
17.710	81541.3
17.715	81536.3
17.720	81539.3
17.725	81548.3
17.730	81550.3
17.735	81542.3
17.740	81544.3
17.745	81539.3
17.750	81551.3
17.755	81562.3
17.760	81580.3
17.765	81562.3
17.770	81541.3
17.775	81555.3
17.780	81575.3
17.785	81588.3
17.790	81586.3
17.795	81597.3
17.800	81600.3
17.805	81596.3
17.810	81600.3
17.815	81589.3
17.820	81600.3
17.825	81618.3
17.830	81603.3
17.835	81585.3
17.840	81590.3
17.845	81616.3
17.850	81631.2
17.855	81626.2
17.860	81628.2
17.865	81623.2
17.870	81631.2
17.875	81641.2
17.880	81656.2
17.885	81653.2
17.890	81668.2
17.895	81668.2
17.900	81661.2
17.905	81644.2
17.910	81679.2
17.915	81705.2
17.920	81712.2
17.925	81700.2
17.930	81699.2
17.935	81707.2
17.940	81715.2
17.945	81726.2
17.950	81721.2
17.955	81731.2
17.960	81748.1
17.965	81712.2
17.970	81710.2
17.975	81729.2
17.980	81745.1
17.985	81744.1
17.990	81750.1
17.995	81743.1
18.000	81739.1
18.005	81740.1
18.010	81754.1
18.015	81753.1
18.020	81757.1
18.025	81751.1
18.030	81725.2
18.035	81707.2
18.040	81717.2
18.045	81740.1
18.050	81748.1
18.055	81731.1
18.060	81720.2
18.065	81725.1
18.070	81724.1
18.075	81732.1
18.080	81735.1
18.085	81731.1
18.090	81726.1
18.095	81703.2
18.100	81690.2
18.105	81677.2
18.110	81698.2
18.115	81695.2
18.120	81696.2
18.125	81689.2
18.130	81697.2
18.135	81688.2
18.140	81692.2
18.145	81687.2
18.150	81688.2
18.155	81698.2
18.160	81697.2
18.165	81653.2
18.170	81643.2
18.175	81660.2
18.180	81687.2
18.185	81687.2
18.190	81696.1
18.195	81698.1
18.200	81700.1
18.205	81684.2
18.210	81681.2
18.215	81687.2
18.220	81706.1
18.225	81700.1
18.230	81661.2
18.235	81647.2
18.240	81665.2
18.245	81687.2
18.250	81682.1
18.255	81670.2
18.260	81668.2
18.265	81670.2
18.270	81670.2
18.275	81652.2
18.280	81659.2
18.285	81662.2
18.290	81675.2
18.295	81666.2
18.300	81648.2
18.305	81613.2
18.310	81646.2
18.315	81655.2
18.320	81657.2
18.325	81648.2
18.330	81655.2
18.335	81639.2
18.340	81634.2
18.345	81636.2
18.350	81646.2
18.355	81642.2
18.360	81641.2
18.365	81608.2
18.370	81597.2
18.375	81608.2
18.380	81631.2
18.385	81630.2
18.390	81628.2
18.395	81629.2
18.400	81641.2
18.405	81632.2
18.410	81639.2
18.415	81640.2
18.420	81646.2
18.425	81647.2
18.430	81645.2
18.435	81614.2
18.440	81615.2
18.445	81631.2
18.450	81627.2
18.455	81631.2
18.460	81636.2
18.465	81634.2
18.470	81631.2
18.475	81625.2
18.480	81622.2
18.485	81624.2
18.490	81625.2
18.495	81609.2
18.500	81592.2
18.505	81569.2
18.510	81601.2
18.515	81589.2
18.520	81592.2
18.525	81584.2
18.530	81586.2
18.535	81586.2
18.540	81584.2
18.545	81569.2
18.550	81572.2
18.555	81563.2
18.560	81579.2
18.565	81547.2
18.570	81518.2
18.575	81516.2
18.580	81531.2
18.585	81535.2
18.590	81550.2
18.595	81527.2
18.600	81521.2
18.605	81509.2
18.610	81508.2
18.615	81500.2
18.620	81508.2
18.625	81497.2
18.630	81478.2
18.635	81453.3
18.640	81458.3
18.645	81481.2
18.650	81485.2
18.655	81486.2
18.660	81481.2
18.665	81472.2
18.670	81470.2
18.675	81464.2
18.680	81472.2
18.685	81486.2
18.690	81497.2
18.695	81483.2
18.700	81449.3
18.705	81431.3
18.710	81468.2
18.715	81476.2
18.720	81475.2
18.725	81463.2
18.730	81454.2
18.735	81445.3
18.740	81447.3
18.745	81447.3
18.750	81430.3
18.755	81433.3
18.760	81436.3
18.765	81418.3
18.770	81410.3
18.775	81423.3
18.780	81427.3
18.785	81418.3
18.790	81425.3
18.795	81424.3
18.800	81434.3
18.805	81424.3
18.810	81421.3
18.815	81426.3
18.820	81441.2
18.825	81440.2
18.830	81422.3
18.835	81398.3
18.840	81392.3
18.845	81419.3
18.850	81432.2
18.855	81441.2
18.860	81443.2
18.865	81433.2
18.870	81428.2
18.875	81409.3
18.880	81410.3
18.885	81408.3
18.890	81407.3
18.895	81379.3
18.900	81361.3
18.905	81354.3
18.910	81376.3
18.915	81383.3
18.920	81387.3
18.925	81393.3
18.930	81384.3
18.935	81354.3
18.940	81339.3
18.945	81326.3
18.950	81324.3
18.955	81317.3
18.960	81315.3
18.965	81280.3
18.970	81247.4
18.975	81260.3
18.980	81261.3
18.985	81249.4
18.990	81255.3
18.995	81246.4
19.000	81232.4
19.005	81240.4
19.010	81269.3
19.015	81280.3
19.020	81282.3
19.025	81282.3
19.030	81256.3
19.035	81239.4
19.040	81239.4
19.045	81234.4
19.050	81234.4
19.055	81271.3
19.060	81306.3
19.065	81327.3
19.070	81342.3
19.075	81347.3
19.080	81374.2
19.085	81388.2
19.090	81389.2
19.095	81367.2
19.100	81353.3
19.105	81360.2
19.110	81396.2
19.115	81396.2
19.120	81410.2
19.125	81410.2
19.130	81421.2
19.135	81417.2
19.140	81417.2
19.145	81412.2
19.150	81419.2
19.155	81413.2
19.160	81423.2
19.165	81390.2
19.170	81384.2
19.175	81406.2
19.180	81425.2
19.185	81415.2
19.190	81424.2
19.195	81414.2
19.200	81407.2
19.205	81393.2
19.210	81393.2
19.215	81395.2
19.220	81401.2
19.225	81406.2
19.230	81384.2
19.235	81375.2
19.240	81398.2
19.245	81422.2
19.250	81420.2
19.255	81409.2
19.260	81396.2
19.265	81369.2
19.270	81373.2
19.275	81357.2
19.280	81352.2
19.285	81324.2
19.290	81317.2
19.295	81278.3
19.300	81244.3
19.305	81216.3
19.310	81239.3
19.315	81221.3
19.320	81215.3
19.325	81190.3
19.330	81177.3
19.335	81172.3
19.340	81193.3
19.345	81196.3
19.350	81205.3
19.355	81206.3
19.360	81204.3
19.365	81183.3
19.370	81179.3
19.375	81204.3
19.380	81222.3
19.385	81225.3
19.390	81230.3
19.395	81232.3
19.400	81250.3
19.405	81261.2
19.410	81271.2
19.415	81261.3
19.420	81274.2
19.425	81285.2
19.430	81270.2
19.435	81270.2
19.440	81306.2
19.445	81345.2
19.450	81352.2
19.455	81347.2
19.460	81355.2
19.465	81353.2
19.470	81363.2
19.475	81366.1
19.480	81360.2
19.485	81360.2
19.490	81368.1
19.495	81357.2
19.500	81343.2
19.505	81336.2
19.510	81384.1
19.515	81379.1
19.520	81386.1
19.525	81371.1
19.530	81373.1
19.535	81376.1
19.540	81378.1
19.545	81374.1
19.550	81376.1
19.555	81382.1
19.560	81366.1
19.565	81339.1
19.570	81327.1
19.575	81350.1
19.580	81355.1
19.585	81336.1
19.590	81316.2
19.595	81302.2
19.600	81299.2
19.605	81293.2
19.610	81291.2
19.615	81276.2
19.620	81288.2
19.625	81281.2
19.630	81266.2
19.635	81240.2
19.640	81254.2
19.645	81278.2
19.650	81269.2
19.655	81258.2
19.660	81234.2
19.665	81227.2
19.670	81224.2
19.675	81215.2
19.680	81219.2
19.685	81211.2
19.690	81217.2
19.695	81191.2
19.700	81164.2
19.705	81159.2
19.710	81217.2
19.715	81219.2
19.720	81212.2
19.725	81213.2
19.730	81225.2
19.735	81196.2
19.740	81180.2
19.745	81157.2
19.750	81166.2
19.755	81134.2
19.760	81127.2
19.765	81118.2
19.770	81105.3
19.775	81112.3
19.780	81102.3
19.785	81096.3
19.790	81107.2
19.795	81087.3
19.800	81077.3
19.805	81058.3
19.810	81066.3
19.815	81058.3
19.820	81079.3
19.825	81078.3
19.830	81049.3
19.835	81018.3
19.840	81040.3
19.845	81055.3
19.850	81066.3
19.855	81060.3
19.860	81048.3
19.865	81008.3
19.870	80993.3
19.875	80976.3
19.880	80980.3
19.885	80984.3
19.890	80994.3
19.895	80976.3
19.900	80937.3
19.905	80913.3
19.910	80942.3
19.915	80958.3
19.920	80956.3
19.925	80962.3
19.930	80945.3
19.935	80941.3
19.940	80933.3
19.945	80946.3
19.950	80961.3
19.955	80977.3
19.960	80985.3
19.965	80979.3
19.970	80996.3
19.975	81043.2
19.980	81074.2
19.985	81075.2
19.990	81091.2
19.995	81108.2
20.000	81119.2
20.005	81140.1
20.010	81151.1
20.015	81164.1
20.020	81180.1
20.025	81176.1
20.030	81162.1
20.035	81149.1
20.040	81164.1
20.045	81189.1
20.050	81198.1
20.055	81204.1
20.060	81213.1
20.065	81218.0
20.070	81221.0
20.075	81211.0
20.080	81230.0
20.085	81226.0
20.090	81228.0
20.095	81196.0
20.100	81197.0
20.105	81182.1
20.110	81209.0
20.115	81193.0
20.120	81197.0
20.125	81199.0
20.130	81180.0
20.135	81166.0
20.140	81169.0
20.145	81170.0
20.150	81152.1
20.155	81140.1
20.160	81133.1
20.165	81110.1
20.170	81083.1
20.175	81116.1
20.180	81131.1
20.185	81141.0
20.190	81151.0
20.195	81139.0
20.200	81126.0
20.205	81121.0
20.210	81099.1
20.215	81087.1
20.220	81100.1
20.225	81095.1
20.230	81063.1
20.235	81038.1
20.240	81045.1
20.245	81049.1
20.250	81046.1
20.255	81023.1
20.260	81018.1
20.265	80991.1
20.270	80993.1
20.275	80965.1
20.280	80946.1
20.285	80950.1
20.290	80955.1
20.295	80914.2
20.300	80855.2
20.305	80829.2
20.310	80841.2
20.315	80831.2
20.320	80830.2
20.325	80806.2
20.330	80785.2
20.335	80793.2
20.340	80813.2
20.345	80824.2
20.350	80826.2
20.355	80848.2
20.360	80840.2
20.365	80809.2
20.370	80815.2
20.375	80841.2
20.380	80849.1
20.385	80831.2
20.390	80814.2
20.395	80803.2
20.400	80791.2
20.405	80777.2
20.410	80761.2
20.415	80741.2
20.420	80761.2
20.425	80762.2
20.430	80705.2
20.435	80634.3
20.440	80601.3
20.445	80569.3
20.450	80551.3
20.455	80528.3
20.460	80512.3
20.465	80480.4
20.470	80454.4
20.475	80420.4
20.480	80415.4
20.485	80424.4
20.490	80443.4
20.495	80408.4
20.500	80407.4
20.505	80412.4
20.510	80453.4
20.515	80474.3
20.520	80480.3
20.525	80490.3
20.530	80521.3
20.535	80549.3
20.540	80565.2
20.545	80563.2
20.550	80555.2
20.555	80538.2
20.560	80532.2
20.565	80498.3
20.570	80470.3
20.575	80459.3
20.580	80456.3
20.585	80477.3
20.590	80489.3
20.595	80459.3
20.600	80428.3
20.605	80396.3
20.610	80383.3
20.615	80304.4
20.620	80245.4
20.625	80195.4
20.630	80109.5
20.635	80039.5
20.640	80062.5
20.645	80065.5
20.650	80051.5
20.655	80047.5
20.660	80053.5
20.665	80010.6
20.670	79971.6
20.675	79933.6
20.680	79931.6
20.685	79971.6
20.690	80026.5
20.695	80034.5
20.700	80036.5
20.705	80056.5
20.710	80090.4
20.715	80105.4
20.720	80123.4
20.725	80128.4
20.730	80123.4
20.735	80076.4
20.740	80019.5
20.745	79971.5
20.750	79923.5
20.755	79851.6
20.760	79792.6
20.765	79728.6
20.770	79671.7
20.775	79644.7
20.780	79563.7
20.785	79510.8
20.790	79531.8
20.795	79529.8
20.800	79535.7
20.805	79524.7
20.810	79472.8
20.815	79429.8
20.820	79347.9
20.825	79267.9
20.830	79219.9
20.835	79244.9
20.840	79280.9
20.845	79325.8
20.850	79373.8
20.855	79393.8
20.860	79403.7
20.865	79426.7
20.870	79443.7
20.875	79471.7
20.880	79491.6
20.885	79502.6
20.890	79513.6
20.895	79484.6
20.900	79488.6
20.905	79508.6
20.910	79548.5
20.915	79555.5
20.920	79532.5
20.925	79516.5
20.930	79503.5
20.935	79470.5
20.940	79447.5
20.945	79425.5
20.950	79341.6
20.955	79240.7
20.960	79112.8
20.965	78965.9
20.970	78855.9
20.975	78796.0
20.980	78696.0
20.985	78608.1
20.990	78628.1
20.995	78646.0
21.000	78673.0
21.005	78709.0
21.010	78830.9
21.015	79007.7
21.020	79147.6
21.025	79171.6
21.030	79132.6
21.035	79062.6
21.040	78975.7
21.045	78832.8
21.050	78624.9
21.055	78444.0
21.060	78352.1
21.065	78352.1
21.070	78441.0
21.075	78672.8
21.080	78827.7
21.085	78928.6
21.090	79052.5
21.095	79244.3
21.100	79442.1
21.105	79559.0
21.110	79669.9
21.115	79661.9
21.120	79506.0
21.125	79319.1
21.130	79217.2
21.135	79268.1
21.140	79383.0
21.145	79506.9
21.150	79612.7
21.155	79574.8
21.160	79374.9
21.165	79176.0
21.170	79132.0
21.175	79149.0
21.180	79121.0
21.185	79039.0
21.190	78787.2
21.195	78406.4
21.200	78070.7
21.205	77382.2
21.210	76416.9
21.215	76019.2
21.220	76292.9
21.225	76401.8
21.230	76489.7
21.235	77256.1
21.240	78488.1
21.245	78678.8
21.250	78250.1
21.255	78164.2
21.260	78236.0
21.265	78092.1
21.270	77981.1
21.275	78141.9
21.280	78201.8
21.285	77358.4
21.290	75473.9
21.295	73986.9
21.300	74143.8
21.305	74458.4
21.310	73856.8
21.315	73038.4
21.320	74333.2
21.325	76818.1
21.330	77462.5
21.335	76841.9
21.340	76302.2
21.345	75991.4
21.350	75640.6
21.355	75229.9
21.360	74730.3
21.365	74427.5
21.370	74551.5
21.375	74889.3
21.380	75070.4
21.385	75153.5
21.390	75332.7
21.395	75759.7
21.400	76453.6
21.405	77265.3
21.410	78069.1
21.415	78852.0
21.420	79680.8
21.425	80518.7
21.430	81287.5
21.435	81890.3
21.440	82363.1
21.445	82640.0
21.450	82789.0
21.455	82858.0
21.460	82899.9
21.465	82912.9
21.470	82933.9
21.475	82934.9
21.480	82940.9
21.485	82946.9
21.490	82955.9
21.495	82926.9
21.500	82920.9
21.505	82939.9
21.510	82960.9
21.515	82955.9
21.520	82976.9
21.525	82963.9
21.530	82961.9
21.535	82959.9
21.540	82957.9
21.545	82959.9
21.550	82966.9
21.555	82960.9
21.560	82943.9
21.565	82913.0
21.570	82938.9
21.575	82967.9
21.580	82959.9
21.585	82951.9
21.590	82955.9
21.595	82958.9
21.600	82952.9
21.605	82955.9
21.610	82958.9
21.615	82962.9
21.620	82970.9
21.625	82968.9
21.630	82944.9
21.635	82930.9
21.640	82954.9
21.645	82970.9
21.650	82978.9
21.655	82970.9
21.660	82975.9
21.665	82980.9
21.670	82977.9
21.675	82963.9
21.680	82959.9
21.685	82961.9
21.690	82962.9
21.695	82929.9
21.700	82942.9
21.705	82953.9
21.710	82972.9
21.715	82962.9
21.720	82960.9
21.725	82960.9
21.730	82966.9
21.735	82959.9
21.740	82968.9
21.745	82963.9
21.750	82970.9
21.755	82983.9
21.760	82964.9
21.765	82950.9
21.770	82947.9
21.775	82968.9
21.780	82980.9
21.785	82972.9
21.790	82980.9
21.795	82966.9
21.800	82981.9
21.805	82967.9
21.810	82972.9
21.815	82969.9
21.820	82966.9
21.825	82966.9
21.830	82941.9
21.835	82942.9
21.840	82974.9
21.845	82972.9
21.850	82964.9
21.855	82969.9
21.860	82960.9
21.865	82963.9
21.870	82971.9
21.875	82972.9
21.880	82975.9
21.885	82986.9
21.890	82979.9
21.895	82955.9
21.900	82953.9
21.905	82955.9
21.910	82976.9
21.915	82990.9
21.920	82978.9
21.925	82972.9
21.930	82981.9
21.935	82976.9
21.940	82982.9
21.945	82973.9
21.950	82974.9
21.955	82973.9
21.960	82961.9
21.965	82936.9
21.970	82949.9
21.975	82981.9
21.980	82984.9
21.985	82985.9
21.990	82973.9
21.995	82967.9
22.000	82971.9
22.005	82973.9
22.010	82973.9
22.015	82982.9
22.020	82994.9
22.025	82976.9
22.030	82954.9
22.035	82943.9
22.040	82977.9
22.045	82976.9
22.050	82985.9
22.055	82976.9
22.060	82978.9
22.065	82984.9
22.070	82982.9
22.075	82987.9
22.080	82980.9
22.085	82979.9
22.090	82980.9
22.095	82948.9
22.100	82946.9
22.105	82967.9
22.110	82978.9
22.115	82987.9
22.120	82988.9
22.125	82969.9
22.130	82971.9
22.135	82964.9
22.140	82972.9
22.145	82977.9
22.150	82985.9
22.155	82991.9
22.160	82979.9
22.165	82951.9
22.170	82957.9
22.175	82980.9
22.180	82986.9
22.185	82979.9
22.190	82992.9
22.195	82978.9
22.200	82983.9
22.205	82982.9
22.210	82989.9
22.215	82982.9
22.220	82986.9
22.225	82968.9
22.230	82954.9
22.235	82941.9
22.240	82974.9
22.245	82984.9
22.250	82976.9
22.255	82976.9
22.260	82978.9
22.265	82967.9
22.270	82966.9
22.275	82979.9
22.280	82979.9
22.285	82985.9
22.290	82998.9
22.295	82968.9
22.300	82949.9
22.305	82964.9
22.310	82985.9
22.315	82987.9
22.320	82990.9
22.325	82980.9
22.330	82979.9
22.335	82986.9
22.340	82985.9
22.345	82984.9
22.350	82989.9
22.355	82987.9
22.360	82956.9
22.365	82932.9
22.370	82957.9
22.375	82980.9
22.380	82985.9
22.385	82975.9
22.390	82977.9
22.395	82971.9
22.400	82976.9
22.405	82974.9
22.410	82977.9
22.415	82979.9
22.420	82990.9
22.425	82977.9
22.430	82966.9
22.435	82952.9
22.440	82984.9
22.445	82976.9
22.450	82990.9
22.455	82983.9
22.460	82984.9
22.465	82978.9
22.470	82990.9
22.475	82987.9
22.480	82987.9
22.485	82991.9
22.490	82988.9
22.495	82955.9
22.500	82944.9
22.505	82975.9
22.510	82988.9
22.515	82988.9
22.520	82983.9
22.525	82984.9
22.530	82983.9
22.535	82976.9
22.540	82974.9
22.545	82980.9
22.550	82985.9
22.555	82988.9
22.560	82976.9
22.565	82959.9
22.570	82968.9
22.575	82984.9
22.580	82991.9
22.585	82992.9
22.590	82988.9
22.595	82989.9
22.600	82988.9
22.605	82982.9
22.610	82990.9
22.615	82995.9
22.620	82992.9
22.625	82982.9
22.630	82954.9
22.635	82953.9
22.640	82984.9
22.645	82976.9
22.650	82984.9
22.655	82977.9
22.660	82983.9
22.665	82985.9
22.670	82985.9
22.675	82981.9
22.680	82996.9
22.685	82985.9
22.690	82997.9
22.695	82968.9
22.700	82962.9
22.705	82978.9
22.710	82998.9
22.715	82999.9
22.720	83000.9
22.725	82991.9
22.730	82989.9
22.735	82991.9
22.740	82984.9
22.745	82990.9
22.750	83003.9
22.755	82997.9
22.760	82969.9
22.765	82952.9
22.770	82969.9
22.775	82982.9
22.780	82983.9
22.785	82987.9
22.790	82979.9
22.795	82989.9
22.800	82983.9
22.805	82983.9
22.810	82987.9
22.815	82988.9
22.820	82985.9
22.825	82984.9
22.830	82953.9
22.835	82958.9
22.840	82996.9
22.845	82988.9
22.850	82998.9
22.855	82994.9
22.860	82987.9
22.865	82983.9
22.870	82985.9
22.875	82980.9
22.880	82990.9
22.885	82991.9
22.890	82989.9
22.895	82960.9
22.900	82952.9
22.905	82968.9
22.910	82988.9
22.915	82975.9
22.920	82977.9
22.925	82975.9
22.930	82987.9
22.935	82990.9
22.940	82991.9
22.945	82980.9
22.950	82999.9
22.955	82996.9
22.960	82968.9
22.965	82954.9
22.970	82962.9
22.975	82986.9
22.980	82997.9
22.985	82997.9
22.990	82995.9
22.995	82983.9
23.000	82988.9
23.005	82986.9
23.010	82980.9
23.015	82994.9
23.020	82997.9
23.025	82973.9
23.030	82962.9
23.035	82959.9
23.040	82980.9
23.045	82987.9
23.050	82983.9
23.055	82976.9
23.060	82981.9
23.065	82983.9
23.070	82987.9
23.075	82982.9
23.080	82986.9
23.085	82984.9
23.090	82984.9
23.095	82962.9
23.100	82942.9
23.105	82973.9
23.110	82989.9
23.115	82992.9
23.120	82999.9
23.125	82995.9
23.130	82992.9
23.135	82979.9
23.140	82986.9
23.145	82974.9
23.150	82984.9
23.155	82973.9
23.160	82964.9
23.165	82939.9
23.170	82956.9
23.175	82974.9
23.180	82978.9
23.185	82979.9
23.190	82983.9
23.195	82967.9
23.200	82974.9
23.205	82975.9
23.210	82981.9
23.215	82989.9
23.220	82992.9
23.225	82974.9
23.230	82958.9
23.235	82947.9
23.240	82985.9
23.245	82985.9
23.250	82990.9
23.255	82990.9
23.260	82981.9
23.265	82982.9
23.270	82988.9
23.275	82976.9
23.280	82981.9
23.285	82976.9
23.290	82973.9
23.295	82951.9
23.300	82945.9
23.305	82968.9
23.310	82981.9
23.315	82978.9
23.320	82973.9
23.325	82966.9
23.330	82977.9
23.335	82972.9
23.340	82977.9
23.345	82978.9
23.350	82982.9
23.355	82984.9
23.360	82965.9
23.365	82947.9
23.370	82958.9
23.375	82986.9
23.380	82989.9
23.385	82985.9
23.390	82994.9
23.395	82994.9
23.400	82987.9
23.405	82987.9
23.410	82981.9
23.415	82980.9
23.420	82994.9
23.425	82967.9
23.430	82944.9
23.435	82956.9
23.440	82989.9
23.445	82965.9
23.450	82965.9
23.455	82966.9
23.460	82966.9
23.465	82976.9
23.470	82975.9
23.475	82969.9
23.480	82983.9
23.485	82991.9
23.490	82991.9
23.495	82960.9
23.500	82943.9
23.505	82975.9
23.510	82990.9
23.515	82986.9
23.520	82985.9
23.525	82988.9
23.530	82988.9
23.535	82982.9
23.540	82980.9
23.545	82977.9
23.550	82979.9
23.555	82978.9
23.560	82955.9
23.565	82942.9
23.570	82961.9
23.575	82985.9
23.580	82976.9
23.585	82975.9
23.590	82975.9
23.595	82967.9
23.600	82975.9
23.605	82982.9
23.610	82978.9
23.615	82978.9
23.620	82999.9
23.625	82979.9
23.630	82948.9
23.635	82955.9
23.640	82981.9
23.645	82982.9
23.650	82985.9
23.655	82988.9
23.660	82984.9
23.665	82993.9
23.670	82992.9
23.675	82988.9
23.680	82989.9
23.685	82982.9
23.690	82972.9
23.695	82938.9
23.700	82943.9
23.705	82977.9
23.710	82981.9
23.715	82980.9
23.720	82975.9
23.725	82975.9
23.730	82976.9
23.735	82971.9
23.740	82970.9
23.745	82976.9
23.750	82990.9
23.755	82988.9
23.760	82969.9
23.765	82948.9
23.770	82968.9
23.775	82977.9
23.780	82986.9
23.785	82982.9
23.790	82985.9
23.795	82986.9
23.800	82982.9
23.805	82982.9
23.810	82979.9
23.815	82978.9
23.820	82974.9
23.825	82951.9
23.830	82939.9
23.835	82949.9
23.840	82981.9
23.845	82976.9
23.850	82977.9
23.855	82974.9
23.860	82970.9
23.865	82966.9
23.870	82972.9
23.875	82972.9
23.880	82976.9
23.885	82978.9
23.890	82982.9
23.895	82946.9
23.900	82945.9
23.905	82971.9
23.910	82977.9
23.915	82980.9
23.920	82982.9
23.925	82973.9
23.930	82978.9
23.935	82972.9
23.940	82976.9
23.945	82975.9
23.950	82971.9
23.955	82962.9
23.960	82942.9
23.965	82930.9
23.970	82962.9
23.975	82973.9
23.980	82973.9
23.985	82974.9
23.990	82966.9
23.995	82965.9
24.000	82967.9
24.005	82975.9
24.010	82974.9
24.015	82985.9
24.020	82986.9
24.025	82959.9
24.030	82942.9
24.035	82951.9
24.040	82978.9
24.045	82983.9
24.050	82979.9
24.055	82979.9
24.060	82974.9
24.065	82980.9
24.070	82978.9
24.075	82979.9
24.080	82978.9
24.085	82978.9
24.090	82961.9
24.095	82940.9
24.100	82936.9
24.105	82971.9
24.110	82969.9
24.115	82969.9
24.120	82975.9
24.125	82969.9
24.130	82967.9
24.135	82964.9
24.140	82966.9
24.145	82968.9
24.150	82978.9
24.155	82972.9
24.160	82958.9
24.165	82939.9
24.170	82962.9
24.175	82973.9
24.180	82974.9
24.185	82970.9
24.190	82971.9
24.195	82977.9
24.200	82968.9
24.205	82972.9
24.210	82966.9
24.215	82980.9
24.220	82967.9
24.225	82950.9
24.230	82922.0
24.235	82939.9
24.240	82968.9
24.245	82971.9
24.250	82967.9
24.255	82969.9
24.260	82971.9
24.265	82960.9
24.270	82962.9
24.275	82959.9
24.280	82968.9
24.285	82963.9
24.290	82969.9
24.295	82939.9
24.300	82936.9
24.305	82967.9
24.310	82978.9
24.315	82977.9
24.320	82973.9
24.325	82968.9
24.330	82971.9
24.335	82956.9
24.340	82976.9
24.345	82973.9
24.350	82979.9
24.355	82966.9
24.360	82937.9
24.365	82929.9
24.370	82959.9
24.375	82957.9
24.380	82968.9
24.385	82963.9
24.390	82963.9
24.395	82959.9
24.400	82961.9
24.405	82963.9
24.410	82958.9
24.415	82968.9
24.420	82967.9
24.425	82956.9
24.430	82941.9
24.435	82942.9
24.440	82975.9
24.445	82974.9
24.450	82973.9
24.455	82973.9
24.460	82968.9
24.465	82965.9
24.470	82959.9
24.475	82966.9
24.480	82972.9
24.485	82978.9
24.490	82958.9
24.495	82941.9
24.500	82932.9
24.505	82957.9
24.510	82964.9
24.515	82955.9
24.520	82958.9
24.525	82959.9
24.530	82959.9
24.535	82953.9
24.540	82966.9
24.545	82960.9
24.550	82967.9
24.555	82967.9
24.560	82938.9
24.565	82931.9
24.570	82954.9
24.575	82966.9
24.580	82978.9
24.585	82973.9
24.590	82974.9
24.595	82972.9
24.600	82962.9
24.605	82963.9
24.610	82959.9
24.615	82968.9
24.620	82975.9
24.625	82947.9
24.630	82924.0
24.635	82931.9
24.640	82957.9
24.645	82953.9
24.650	82953.9
24.655	82953.9
24.660	82960.9
24.665	82957.9
24.670	82964.9
24.675	82957.9
24.680	82966.9
24.685	82966.9
24.690	82949.9
24.695	82934.9
24.700	82928.9
24.705	82971.9
24.710	82973.9
24.715	82974.9
24.720	82970.9
24.725	82975.9
24.730	82969.9
24.735	82961.9
24.740	82971.9
24.745	82963.9
24.750	82966.9
24.755	82964.9
24.760	82937.9
24.765	82926.9
24.770	82952.9
24.775	82970.9
24.780	82963.9
24.785	82962.9
24.790	82959.9
24.795	82960.9
24.800	82961.9
24.805	82967.9
24.810	82971.9
24.815	82971.9
24.820	82982.9
24.825	82957.9
24.830	82940.9
24.835	82941.9
24.840	82976.9
24.845	82978.9
24.850	82977.9
24.855	82977.9
24.860	82980.9
24.865	82965.9
24.870	82969.9
24.875	82972.9
24.880	82973.9
24.885	82976.9
24.890	82953.9
24.895	82935.9
24.900	82939.9
24.905	82975.9
24.910	82970.9
24.915	82967.9
24.920	82961.9
24.925	82960.9
24.930	82960.9
24.935	82960.9
24.940	82967.9
24.945	82969.9
24.950	82981.9
24.955	82975.9
24.960	82953.9
24.965	82937.9
24.970	82958.9
24.975	82971.9
24.980	82982.9
24.985	82978.9
24.990	82979.9
24.995	82972.9
25.000	82968.9
25.005	82964.9
25.010	82966.9
25.015	82963.9
25.020	82974.9
25.025	82946.9
25.030	82937.9
25.035	82943.9
25.040	82975.9
25.045	82967.9
25.050	82973.9
25.055	82954.9
25.060	82966.9
25.065	82962.9
25.070	82962.9
25.075	82971.9
25.080	82974.9
25.085	82980.9
25.090	82970.9
25.095	82941.9
25.100	82940.9
25.105	82970.9
25.110	82975.9
25.115	82969.9
25.120	82973.9
25.125	82974.9
25.130	82968.9
25.135	82964.9
25.140	82971.9
25.145	82968.9
25.150	82966.9
25.155	82964.9
25.160	82936.9
25.165	82932.9
25.170	82956.9
25.175	82982.9
25.180	82963.9
25.185	82963.9
25.190	82969.9
25.195	82961.9
25.200	82962.9
25.205	82964.9
25.210	82973.9
25.215	82975.9
25.220	82975.9
25.225	82951.9
25.230	82940.9
25.235	82940.9
25.240	82974.9
25.245	82963.9
25.250	82980.9
25.255	82965.9
25.260	82965.9
25.265	82970.9
25.270	82968.9
25.275	82963.9
25.280	82972.9
25.285	82965.9
25.290	82949.9
25.295	82934.9
25.300	82946.9
25.305	82967.9
25.310	82976.9
25.315	82966.9
25.320	82964.9
25.325	82957.9
25.330	82961.9
25.335	82960.9
25.340	82961.9
25.345	82969.9
25.350	82975.9
25.355	82970.9
25.360	82949.9
25.365	82930.9
25.370	82953.9
25.375	82969.9
25.380	82973.9
25.385	82972.9
25.390	82976.9
25.395	82980.9
25.400	82970.9
25.405	82970.9
25.410	82979.9
25.415	82974.9
25.420	82967.9
25.425	82943.9
25.430	82938.9
25.435	82952.9
25.440	82970.9
25.445	82977.9
25.450	82968.9
25.455	82958.9
25.460	82966.9
25.465	82964.9
25.470	82961.9
25.475	82972.9
25.480	82973.9
25.485	82987.9
25.490	82969.9
25.495	82947.9
25.500	82944.9
25.505	82976.9
25.510	82975.9
25.515	82974.9
25.520	82985.9
25.525	82971.9
25.530	82982.9
25.535	82967.9
25.540	82969.9
25.545	82975.9
25.550	82979.9
25.555	82961.9
25.560	82937.9
25.565	82934.9
25.570	82960.9
25.575	82965.9
25.580	82964.9
25.585	82964.9
25.590	82961.9
25.595	82968.9
25.600	82967.9
25.605	82955.9
25.610	82969.9
25.615	82974.9
25.620	82985.9
25.625	82956.9
25.630	82941.9
25.635	82958.9
25.640	82982.9
25.645	82980.9
25.650	82973.9
25.655	82982.9
25.660	82975.9
25.665	82979.9
25.670	82979.9
25.675	82974.9
25.680	82977.9
25.685	82973.9
25.690	82958.9
25.695	82935.9
25.700	82950.9
25.705	82975.9
25.710	82970.9
25.715	82974.9
25.720	82981.9
25.725	82978.9
25.730	82973.9
25.735	82966.9
25.740	82970.9
25.745	82974.9
25.750	82984.9
25.755	82987.9
25.760	82970.9
25.765	82958.9
25.770	82979.9
25.775	82977.9
25.780	82982.9
25.785	82984.9
25.790	82977.9
25.795	82983.9
25.800	82986.9
25.805	82990.9
25.810	82989.9
25.815	82984.9
25.820	82979.9
25.825	82952.9
25.830	82947.9
25.835	82958.9
25.840	82989.9
25.845	82997.9
25.850	82986.9
25.855	82984.9
25.860	82978.9
25.865	82970.9
25.870	82974.9
25.875	82976.9
25.880	82983.9
25.885	82993.9
25.890	82973.9
25.895	82952.9
25.900	82962.9
25.905	82989.9
25.910	82986.9
25.915	82980.9
25.920	82987.9
25.925	82978.9
25.930	82984.9
25.935	82981.9
25.940	82979.9
25.945	82981.9
25.950	82992.9
25.955	82965.9
25.960	82952.9
25.965	82940.9
25.970	82973.9
25.975	82972.9
25.980	82980.9
25.985	82968.9
25.990	82979.9
25.995	82972.9
26.000	82972.9
26.005	82977.9
26.010	82976.9
26.015	82984.9
26.020	82982.9
26.025	82965.9
26.030	82950.9
26.035	82966.9
26.040	82985.9
26.045	82992.9
26.050	82984.9
26.055	82990.9
26.060	82981.9
26.065	82989.9
26.070	82976.9
26.075	82986.9
26.080	82984.9
26.085	82986.9
26.090	82962.9
26.095	82946.9
26.100	82952.9
26.105	82976.9
26.110	82982.9
26.115	82986.9
26.120	82986.9
26.125	82968.9
26.130	82979.9
26.135	82978.9
26.140	82982.9
26.145	82985.9
26.150	82995.9
26.155	82987.9
26.160	82960.9
26.165	82956.9
26.170	82987.9
26.175	82987.9
26.180	82987.9
26.185	82983.9
26.190	82980.9
26.195	82985.9
26.200	82982.9
26.205	82985.9
26.210	82983.9
26.215	82982.9
26.220	82978.9
26.225	82951.9
26.230	82945.9
26.235	82957.9
26.240	82982.9
26.245	82977.9
26.250	82982.9
26.255	82977.9
26.260	82980.9
26.265	82976.9
26.270	82979.9
26.275	82987.9
26.280	82987.9
26.285	82982.9
26.290	82965.9
26.295	82948.9
26.300	82964.9
26.305	82984.9
26.310	82984.9
26.315	82992.9
26.320	82984.9
26.325	82980.9
26.330	82978.9
26.335	82982.9
26.340	82980.9
26.345	82979.9
26.350	82992.9
26.355	82970.9
26.360	82940.9
26.365	82942.9
26.370	82987.9
26.375	82970.9
26.380	82979.9
26.385	82980.9
26.390	82982.9
26.395	82978.9
26.400	82981.9
26.405	82985.9
