PK2650 Power Data
Z Position (mm)	100.000	W Position (deg)	216.00
Preform ID	Diameter (mm)	Time Stamp	Start Time	Operator	Serial Number
Test 1	25	03-Nov-22 18:05:01	03-Nov-22 18:06:13	[no user]	266007708
Radius (mm)	Power
-26.215	82712.4
-26.210	82721.4
-26.205	82717.4
-26.200	82728.4
-26.195	82722.4
-26.190	82715.4
-26.185	82695.5
-26.180	82707.4
-26.175	82725.4
-26.170	82737.4
-26.165	82724.4
-26.160	82728.4
-26.155	82732.4
-26.150	82735.4
-26.145	82742.4
-26.140	82745.4
-26.135	82750.4
-26.130	82752.4
-26.125	82746.4
-26.120	82714.4
-26.115	82723.4
-26.110	82745.4
-26.105	82748.4
-26.100	82755.4
-26.095	82739.4
-26.090	82740.4
-26.085	82744.4
-26.080	82743.4
-26.075	82749.4
-26.070	82766.4
-26.065	82756.4
-26.060	82765.4
-26.055	82726.4
-26.050	82730.4
-26.045	82749.4
-26.040	82777.4
-26.035	82759.4
-26.030	82765.4
-26.025	82769.4
-26.020	82770.4
-26.015	82768.4
-26.010	82771.4
-26.005	82775.4
-26.000	82775.4
-25.995	82772.4
-25.990	82751.4
-25.985	82733.4
-25.980	82753.4
-25.975	82779.4
-25.970	82773.4
-25.965	82759.4
-25.960	82758.4
-25.955	82753.4
-25.950	82764.4
-25.945	82765.4
-25.940	82771.4
-25.935	82774.4
-25.930	82785.4
-25.925	82775.4
-25.920	82747.4
-25.915	82743.4
-25.910	82767.4
-25.905	82775.4
-25.900	82779.4
-25.895	82785.4
-25.890	82779.4
-25.885	82784.4
-25.880	82792.4
-25.875	82792.4
-25.870	82792.4
-25.865	82793.4
-25.860	82787.4
-25.855	82758.4
-25.850	82766.4
-25.845	82786.4
-25.840	82793.4
-25.835	82782.4
-25.830	82779.4
-25.825	82774.4
-25.820	82777.4
-25.815	82782.4
-25.810	82788.4
-25.805	82778.4
-25.800	82790.4
-25.795	82786.4
-25.790	82774.4
-25.785	82753.4
-25.780	82769.4
-25.775	82788.4
-25.770	82785.4
-25.765	82784.4
-25.760	82799.4
-25.755	82791.4
-25.750	82798.4
-25.745	82797.4
-25.740	82802.4
-25.735	82799.4
-25.730	82810.4
-25.725	82788.4
-25.720	82763.4
-25.715	82770.4
-25.710	82792.4
-25.705	82786.4
-25.700	82783.4
-25.695	82783.4
-25.690	82783.4
-25.685	82780.4
-25.680	82790.4
-25.675	82796.4
-25.670	82799.4
-25.665	82795.4
-25.660	82804.4
-25.655	82764.4
-25.650	82762.4
-25.645	82774.4
-25.640	82802.4
-25.635	82793.4
-25.630	82790.4
-25.625	82790.4
-25.620	82790.4
-25.615	82794.4
-25.610	82802.4
-25.605	82802.4
-25.600	82800.4
-25.595	82801.4
-25.590	82775.4
-25.585	82760.4
-25.580	82785.4
-25.575	82798.4
-25.570	82798.4
-25.565	82783.4
-25.560	82785.4
-25.555	82786.4
-25.550	82793.4
-25.545	82790.4
-25.540	82797.4
-25.535	82792.4
-25.530	82800.4
-25.525	82791.4
-25.520	82759.4
-25.515	82761.4
-25.510	82788.4
-25.505	82791.4
-25.500	82793.4
-25.495	82788.4
-25.490	82792.4
-25.485	82799.4
-25.480	82801.4
-25.475	82802.4
-25.470	82803.4
-25.465	82802.4
-25.460	82801.4
-25.455	82763.4
-25.450	82762.4
-25.445	82778.4
-25.440	82794.4
-25.435	82790.4
-25.430	82787.4
-25.425	82783.4
-25.420	82787.4
-25.415	82793.4
-25.410	82793.4
-25.405	82790.4
-25.400	82797.4
-25.395	82797.4
-25.390	82782.4
-25.385	82751.4
-25.380	82764.4
-25.375	82787.4
-25.370	82793.4
-25.365	82788.4
-25.360	82789.4
-25.355	82796.4
-25.350	82791.4
-25.345	82795.4
-25.340	82805.4
-25.335	82800.4
-25.330	82799.4
-25.325	82775.4
-25.320	82766.4
-25.315	82772.4
-25.310	82793.4
-25.305	82790.4
-25.300	82784.4
-25.295	82778.4
-25.290	82792.4
-25.285	82783.4
-25.280	82781.4
-25.275	82782.4
-25.270	82791.4
-25.265	82785.4
-25.260	82793.4
-25.255	82762.4
-25.250	82751.4
-25.245	82769.4
-25.240	82785.4
-25.235	82777.4
-25.230	82784.4
-25.225	82790.4
-25.220	82793.4
-25.215	82787.4
-25.210	82788.4
-25.205	82801.4
-25.200	82802.4
-25.195	82802.4
-25.190	82770.4
-25.185	82762.4
-25.180	82781.4
-25.175	82792.4
-25.170	82793.4
-25.165	82782.4
-25.160	82774.4
-25.155	82781.4
-25.150	82783.4
-25.145	82777.4
-25.140	82779.4
-25.135	82777.4
-25.130	82791.4
-25.125	82771.4
-25.120	82752.4
-25.115	82756.4
-25.110	82791.4
-25.105	82789.4
-25.100	82781.4
-25.095	82784.4
-25.090	82782.4
-25.085	82787.4
-25.080	82782.4
-25.075	82787.4
-25.070	82793.4
-25.065	82794.4
-25.060	82793.4
-25.055	82750.4
-25.050	82760.4
-25.045	82780.4
-25.040	82799.4
-25.035	82779.4
-25.030	82776.4
-25.025	82774.4
-25.020	82779.4
-25.015	82776.4
-25.010	82782.4
-25.005	82780.4
-25.000	82789.4
-24.995	82787.4
-24.990	82759.4
-24.985	82743.4
-24.980	82763.4
-24.975	82782.4
-24.970	82775.4
-24.965	82777.4
-24.960	82779.4
-24.955	82782.4
-24.950	82781.4
-24.945	82784.4
-24.940	82781.4
-24.935	82793.4
-24.930	82789.4
-24.925	82768.4
-24.920	82743.4
-24.915	82748.4
-24.910	82774.4
-24.905	82773.4
-24.900	82778.4
-24.895	82766.4
-24.890	82765.4
-24.885	82762.4
-24.880	82763.4
-24.875	82767.4
-24.870	82774.4
-24.865	82780.4
-24.860	82777.4
-24.855	82734.4
-24.850	82742.4
-24.845	82749.4
-24.840	82771.4
-24.835	82773.4
-24.830	82771.4
-24.825	82765.4
-24.820	82765.4
-24.815	82765.4
-24.810	82771.4
-24.805	82771.4
-24.800	82775.4
-24.795	82772.4
-24.790	82743.4
-24.785	82734.4
-24.780	82756.4
-24.775	82766.4
-24.770	82758.4
-24.765	82751.4
-24.760	82754.4
-24.755	82748.4
-24.750	82749.4
-24.745	82754.4
-24.740	82755.4
-24.735	82759.4
-24.730	82760.4
-24.725	82746.4
-24.720	82720.4
-24.715	82722.4
-24.710	82754.4
-24.705	82751.4
-24.700	82749.4
-24.695	82745.4
-24.690	82748.4
-24.685	82747.4
-24.680	82752.4
-24.675	82758.4
-24.670	82760.4
-24.665	82749.4
-24.660	82753.4
-24.655	82716.4
-24.650	82723.4
-24.645	82734.4
-24.640	82755.4
-24.635	82746.4
-24.630	82740.4
-24.625	82731.4
-24.620	82731.4
-24.615	82736.4
-24.610	82731.4
-24.605	82738.4
-24.600	82748.4
-24.595	82740.4
-24.590	82721.4
-24.585	82702.5
-24.580	82713.4
-24.575	82730.4
-24.570	82727.4
-24.565	82734.4
-24.560	82727.4
-24.555	82732.4
-24.550	82735.4
-24.545	82733.4
-24.540	82742.4
-24.535	82740.4
-24.530	82743.4
-24.525	82719.4
-24.520	82703.4
-24.515	82715.4
-24.510	82738.4
-24.505	82729.4
-24.500	82716.4
-24.495	82713.4
-24.490	82717.4
-24.485	82716.4
-24.480	82715.4
-24.475	82717.4
-24.470	82731.4
-24.465	82729.4
-24.460	82728.4
-24.455	82685.5
-24.450	82694.5
-24.445	82716.4
-24.440	82730.4
-24.435	82720.4
-24.430	82723.4
-24.425	82715.4
-24.420	82718.4
-24.415	82732.4
-24.410	82732.4
-24.405	82730.4
-24.400	82729.4
-24.395	82722.4
-24.390	82695.5
-24.385	82697.5
-24.380	82719.4
-24.375	82719.4
-24.370	82721.4
-24.365	82707.4
-24.360	82707.5
-24.355	82710.4
-24.350	82719.4
-24.345	82707.4
-24.340	82717.4
-24.335	82725.4
-24.330	82714.4
-24.325	82698.5
-24.320	82674.5
-24.315	82683.5
-24.310	82711.4
-24.305	82705.4
-24.300	82708.5
-24.295	82702.5
-24.290	82709.4
-24.285	82712.4
-24.280	82717.4
-24.275	82716.4
-24.270	82730.4
-24.265	82717.4
-24.260	82716.4
-24.255	82680.5
-24.250	82688.5
-24.245	82706.4
-24.240	82716.4
-24.235	82703.5
-24.230	82710.4
-24.225	82704.5
-24.220	82708.4
-24.215	82706.4
-24.210	82708.4
-24.205	82713.4
-24.200	82714.4
-24.195	82708.4
-24.190	82688.5
-24.185	82668.5
-24.180	82698.5
-24.175	82709.4
-24.170	82718.4
-24.165	82705.5
-24.160	82712.4
-24.155	82714.4
-24.150	82713.4
-24.145	82713.4
-24.140	82724.4
-24.135	82722.4
-24.130	82719.4
-24.125	82686.5
-24.120	82679.5
-24.115	82699.5
-24.110	82718.4
-24.105	82715.4
-24.100	82703.5
-24.095	82700.5
-24.090	82701.5
-24.085	82690.5
-24.080	82703.5
-24.075	82705.5
-24.070	82703.5
-24.065	82710.4
-24.060	82709.4
-24.055	82677.5
-24.050	82682.5
-24.045	82697.5
-24.040	82708.4
-24.035	82709.5
-24.030	82712.4
-24.025	82709.4
-24.020	82716.4
-24.015	82717.4
-24.010	82730.4
-24.005	82723.4
-24.000	82719.4
-23.995	82718.4
-23.990	82687.5
-23.985	82676.5
-23.980	82700.5
-23.975	82713.4
-23.970	82704.5
-23.965	82704.5
-23.960	82699.5
-23.955	82697.5
-23.950	82702.5
-23.945	82697.5
-23.940	82712.4
-23.935	82704.4
-23.930	82718.4
-23.925	82694.5
-23.920	82676.5
-23.915	82670.5
-23.910	82697.5
-23.905	82696.5
-23.900	82715.4
-23.895	82707.4
-23.890	82703.5
-23.885	82706.4
-23.880	82715.4
-23.875	82709.4
-23.870	82721.4
-23.865	82711.4
-23.860	82711.4
-23.855	82685.5
-23.850	82697.5
-23.845	82718.4
-23.840	82717.4
-23.835	82713.4
-23.830	82705.5
-23.825	82701.5
-23.820	82703.5
-23.815	82698.5
-23.810	82709.4
-23.805	82719.4
-23.800	82718.4
-23.795	82712.4
-23.790	82690.5
-23.785	82687.5
-23.780	82695.5
-23.775	82718.4
-23.770	82716.4
-23.765	82718.4
-23.760	82715.4
-23.755	82722.4
-23.750	82732.4
-23.745	82731.4
-23.740	82736.4
-23.735	82729.4
-23.730	82742.4
-23.725	82710.4
-23.720	82697.5
-23.715	82713.4
-23.710	82735.4
-23.705	82726.4
-23.700	82726.4
-23.695	82718.4
-23.690	82722.4
-23.685	82722.4
-23.680	82731.4
-23.675	82731.4
-23.670	82730.4
-23.665	82737.4
-23.660	82730.4
-23.655	82699.5
-23.650	82691.5
-23.645	82715.4
-23.640	82731.4
-23.635	82726.4
-23.630	82734.4
-23.625	82721.4
-23.620	82728.4
-23.615	82723.4
-23.610	82740.4
-23.605	82737.4
-23.600	82732.4
-23.595	82742.4
-23.590	82705.4
-23.585	82704.4
-23.580	82721.4
-23.575	82736.4
-23.570	82732.4
-23.565	82730.4
-23.560	82724.4
-23.555	82729.4
-23.550	82723.4
-23.545	82731.4
-23.540	82738.4
-23.535	82728.4
-23.530	82738.4
-23.525	82712.4
-23.520	82692.5
-23.515	82707.4
-23.510	82727.4
-23.505	82728.4
-23.500	82734.4
-23.495	82733.4
-23.490	82730.4
-23.485	82740.4
-23.480	82748.4
-23.475	82747.4
-23.470	82750.4
-23.465	82739.4
-23.460	82734.4
-23.455	82708.4
-23.450	82723.4
-23.445	82742.4
-23.440	82742.4
-23.435	82732.4
-23.430	82726.4
-23.425	82730.4
-23.420	82735.4
-23.415	82733.4
-23.410	82739.4
-23.405	82742.4
-23.400	82740.4
-23.395	82744.4
-23.390	82709.4
-23.385	82712.4
-23.380	82729.4
-23.375	82753.4
-23.370	82743.4
-23.365	82748.4
-23.360	82754.4
-23.355	82745.4
-23.350	82757.4
-23.345	82756.4
-23.340	82759.4
-23.335	82765.4
-23.330	82768.4
-23.325	82730.4
-23.320	82726.4
-23.315	82741.4
-23.310	82761.4
-23.305	82757.4
-23.300	82742.4
-23.295	82740.4
-23.290	82745.4
-23.285	82752.4
-23.280	82762.4
-23.275	82755.4
-23.270	82768.4
-23.265	82764.4
-23.260	82758.4
-23.255	82729.4
-23.250	82734.4
-23.245	82756.4
-23.240	82772.4
-23.235	82765.4
-23.230	82765.4
-23.225	82759.4
-23.220	82769.4
-23.215	82779.4
-23.210	82777.4
-23.205	82772.4
-23.200	82776.4
-23.195	82767.4
-23.190	82745.4
-23.185	82749.4
-23.180	82767.4
-23.175	82773.4
-23.170	82764.4
-23.165	82757.4
-23.160	82761.4
-23.155	82768.4
-23.150	82768.4
-23.145	82775.4
-23.140	82772.4
-23.135	82775.4
-23.130	82777.4
-23.125	82752.4
-23.120	82740.4
-23.115	82762.4
-23.110	82786.4
-23.105	82778.4
-23.100	82782.4
-23.095	82776.4
-23.090	82774.4
-23.085	82779.4
-23.080	82782.4
-23.075	82778.4
-23.070	82778.4
-23.065	82780.4
-23.060	82769.4
-23.055	82732.4
-23.050	82758.4
-23.045	82780.4
-23.040	82781.4
-23.035	82765.4
-23.030	82768.4
-23.025	82770.4
-23.020	82773.4
-23.015	82777.4
-23.010	82772.4
-23.005	82778.4
-23.000	82783.4
-22.995	82777.4
-22.990	82753.4
-22.985	82744.4
-22.980	82767.4
-22.975	82785.4
-22.970	82782.4
-22.965	82776.4
-22.960	82779.4
-22.955	82786.4
-22.950	82789.4
-22.945	82788.4
-22.940	82795.4
-22.935	82795.4
-22.930	82786.4
-22.925	82761.4
-22.920	82753.4
-22.915	82762.4
-22.910	82782.4
-22.905	82782.4
-22.900	82776.4
-22.895	82769.4
-22.890	82771.4
-22.885	82767.4
-22.880	82774.4
-22.875	82777.4
-22.870	82781.4
-22.865	82780.4
-22.860	82772.4
-22.855	82744.4
-22.850	82755.4
-22.845	82779.4
-22.840	82767.4
-22.835	82773.4
-22.830	82782.4
-22.825	82772.4
-22.820	82783.4
-22.815	82792.4
-22.810	82793.4
-22.805	82785.4
-22.800	82790.4
-22.795	82786.4
-22.790	82752.4
-22.785	82757.4
-22.780	82779.4
-22.775	82776.4
-22.770	82775.4
-22.765	82774.4
-22.760	82775.4
-22.755	82765.4
-22.750	82775.4
-22.745	82774.4
-22.740	82778.4
-22.735	82783.4
-22.730	82777.4
-22.725	82756.4
-22.720	82749.4
-22.715	82756.4
-22.710	82779.4
-22.705	82776.4
-22.700	82780.4
-22.695	82775.4
-22.690	82785.4
-22.685	82786.4
-22.680	82788.4
-22.675	82785.4
-22.670	82790.4
-22.665	82789.4
-22.660	82775.4
-22.655	82751.4
-22.650	82766.4
-22.645	82782.4
-22.640	82786.4
-22.635	82779.4
-22.630	82769.4
-22.625	82771.4
-22.620	82776.4
-22.615	82776.4
-22.610	82774.4
-22.605	82777.4
-22.600	82791.4
-22.595	82775.4
-22.590	82747.4
-22.585	82744.4
-22.580	82766.4
-22.575	82779.4
-22.570	82785.4
-22.565	82780.4
-22.560	82784.4
-22.555	82779.4
-22.550	82786.4
-22.545	82793.4
-22.540	82798.4
-22.535	82794.4
-22.530	82786.4
-22.525	82760.4
-22.520	82759.4
-22.515	82772.4
-22.510	82790.4
-22.505	82786.4
-22.500	82786.4
-22.495	82779.4
-22.490	82770.4
-22.485	82779.4
-22.480	82786.4
-22.475	82789.4
-22.470	82784.4
-22.465	82785.4
-22.460	82776.4
-22.455	82749.4
-22.450	82762.4
-22.445	82783.4
-22.440	82790.4
-22.435	82781.4
-22.430	82777.4
-22.425	82779.4
-22.420	82786.4
-22.415	82791.4
-22.410	82794.4
-22.405	82793.4
-22.400	82794.4
-22.395	82785.4
-22.390	82757.4
-22.385	82770.4
-22.380	82791.4
-22.375	82796.4
-22.370	82795.4
-22.365	82775.4
-22.360	82782.4
-22.355	82774.4
-22.350	82788.4
-22.345	82783.4
-22.340	82790.4
-22.335	82787.4
-22.330	82790.4
-22.325	82763.4
-22.320	82754.4
-22.315	82772.4
-22.310	82788.4
-22.305	82790.4
-22.300	82788.4
-22.295	82789.4
-22.290	82796.4
-22.285	82787.4
-22.280	82797.4
-22.275	82803.4
-22.270	82797.4
-22.265	82796.4
-22.260	82779.4
-22.255	82760.4
-22.250	82770.4
-22.245	82792.4
-22.240	82784.4
-22.235	82774.4
-22.230	82784.4
-22.225	82779.4
-22.220	82784.4
-22.215	82784.4
-22.210	82783.4
-22.205	82791.4
-22.200	82797.4
-22.195	82782.4
-22.190	82757.4
-22.185	82761.4
-22.180	82782.4
-22.175	82786.4
-22.170	82795.4
-22.165	82784.4
-22.160	82785.4
-22.155	82786.4
-22.150	82791.4
-22.145	82788.4
-22.140	82796.4
-22.135	82797.4
-22.130	82792.4
-22.125	82760.4
-22.120	82766.4
-22.115	82775.4
-22.110	82792.4
-22.105	82780.4
-22.100	82772.4
-22.095	82770.4
-22.090	82777.4
-22.085	82777.4
-22.080	82783.4
-22.075	82781.4
-22.070	82787.4
-22.065	82785.4
-22.060	82770.4
-22.055	82754.4
-22.050	82763.4
-22.045	82783.4
-22.040	82776.4
-22.035	82788.4
-22.030	82780.4
-22.025	82773.4
-22.020	82789.4
-22.015	82786.4
-22.010	82795.4
-22.005	82791.4
-22.000	82789.4
-21.995	82785.4
-21.990	82755.4
-21.985	82755.4
-21.980	82782.4
-21.975	82782.4
-21.970	82779.4
-21.965	82771.4
-21.960	82772.4
-21.955	82767.4
-21.950	82774.4
-21.945	82778.4
-21.940	82777.4
-21.935	82780.4
-21.930	82782.4
-21.925	82749.4
-21.920	82749.4
-21.915	82759.4
-21.910	82785.4
-21.905	82774.4
-21.900	82775.4
-21.895	82771.4
-21.890	82775.4
-21.885	82772.4
-21.880	82793.4
-21.875	82787.4
-21.870	82793.4
-21.865	82783.4
-21.860	82759.4
-21.855	82746.4
-21.850	82766.4
-21.845	82783.4
-21.840	82782.4
-21.835	82770.4
-21.830	82773.4
-21.825	82765.4
-21.820	82765.4
-21.815	82766.4
-21.810	82768.4
-21.805	82773.4
-21.800	82774.4
-21.795	82771.4
-21.790	82741.4
-21.785	82737.4
-21.780	82755.4
-21.775	82767.4
-21.770	82773.4
-21.765	82776.4
-21.760	82770.4
-21.755	82771.4
-21.750	82780.4
-21.745	82779.4
-21.740	82786.4
-21.735	82775.4
-21.730	82782.4
-21.725	82744.4
-21.720	82749.4
-21.715	82766.4
-21.710	82776.4
-21.705	82770.4
-21.700	82766.4
-21.695	82757.4
-21.690	82765.4
-21.685	82761.4
-21.680	82769.4
-21.675	82759.4
-21.670	82773.4
-21.665	82764.4
-21.660	82759.4
-21.655	82725.4
-21.650	82746.4
-21.645	82767.4
-21.640	82773.4
-21.635	82766.4
-21.630	82769.4
-21.625	82761.4
-21.620	82765.4
-21.615	82775.4
-21.610	82774.4
-21.605	82776.4
-21.600	82773.4
-21.595	82760.4
-21.590	82734.4
-21.585	82738.4
-21.580	82762.4
-21.575	82759.4
-21.570	82765.4
-21.565	82757.4
-21.560	82763.4
-21.555	82760.4
-21.550	82767.4
-21.545	82756.4
-21.540	82760.4
-21.535	82767.4
-21.530	82773.4
-21.525	82738.4
-21.520	82727.4
-21.515	82737.4
-21.510	82763.4
-21.505	82759.4
-21.500	82760.4
-21.495	82768.4
-21.490	82763.4
-21.485	82764.4
-21.480	82771.4
-21.475	82770.4
-21.470	82769.4
-21.465	82764.4
-21.460	82748.4
-21.455	82731.4
-21.450	82749.4
-21.445	82762.4
-21.440	82766.4
-21.435	82753.4
-21.430	82753.4
-21.425	82755.4
-21.420	82751.4
-21.415	82751.4
-21.410	82767.4
-21.405	82759.4
-21.400	82764.4
-21.395	82748.4
-21.390	82724.4
-21.385	82730.4
-21.380	82759.4
-21.375	82756.4
-21.370	82763.4
-21.365	82753.4
-21.360	82762.4
-21.355	82751.4
-21.350	82761.4
-21.345	82759.4
-21.340	82761.4
-21.335	82749.4
-21.330	82752.4
-21.325	82717.4
-21.320	82707.5
-21.315	82712.4
-21.310	82702.5
-21.305	82671.5
-21.300	82614.6
-21.295	82533.7
-21.290	82440.8
-21.285	82299.9
-21.280	82124.1
-21.275	81855.4
-21.270	81523.8
-21.265	81109.2
-21.260	80609.8
-21.255	80131.3
-21.250	79714.9
-21.245	79295.4
-21.240	78830.1
-21.235	78265.8
-21.230	77644.6
-21.225	77019.5
-21.220	76420.3
-21.215	75759.1
-21.210	74962.0
-21.205	73970.1
-21.200	73187.0
-21.195	72928.5
-21.190	72561.1
-21.185	72208.3
-21.180	72828.8
-21.175	73454.2
-21.170	73301.2
-21.165	73730.7
-21.160	74817.9
-21.155	75870.0
-21.150	76533.5
-21.145	76371.6
-21.140	75034.4
-21.135	73821.1
-21.130	74459.6
-21.125	75451.8
-21.120	75232.8
-21.115	75350.7
-21.110	76050.1
-21.105	74471.2
-21.100	73714.6
-21.095	75927.0
-21.090	77231.0
-21.085	77699.7
-21.080	77847.5
-21.075	77600.6
-21.070	76925.1
-21.065	76003.7
-21.060	75956.7
-21.055	76613.2
-21.050	76987.9
-21.045	77400.6
-21.040	78060.0
-21.035	78297.8
-21.030	77763.1
-21.025	76369.1
-21.020	75341.8
-21.015	76249.1
-21.010	77684.1
-21.005	76861.7
-21.000	74484.4
-20.995	73785.9
-20.990	75873.3
-20.985	77832.8
-20.980	78238.5
-20.975	77834.8
-20.970	77469.0
-20.965	77607.9
-20.960	77626.9
-20.955	77358.0
-20.950	77570.9
-20.945	78207.4
-20.940	78631.0
-20.935	78642.0
-20.930	78447.1
-20.925	78284.2
-20.920	78232.2
-20.915	78238.2
-20.910	78248.2
-20.905	78238.2
-20.900	78471.0
-20.895	78884.7
-20.890	79138.5
-20.885	79140.5
-20.880	78986.6
-20.875	78626.8
-20.870	78175.1
-20.865	78011.3
-20.860	78149.1
-20.855	78373.0
-20.850	78595.8
-20.845	78670.7
-20.840	78631.7
-20.835	78696.7
-20.830	78855.5
-20.825	78973.4
-20.820	78986.4
-20.815	78904.5
-20.810	78848.5
-20.805	78786.5
-20.800	78777.5
-20.795	78839.4
-20.790	78901.4
-20.785	78982.3
-20.780	79060.2
-20.775	79033.3
-20.770	78987.3
-20.765	78916.3
-20.760	78823.4
-20.755	78761.4
-20.750	78704.4
-20.745	78574.5
-20.740	78479.6
-20.735	78504.6
-20.730	78585.5
-20.725	78606.5
-20.720	78698.4
-20.715	78776.3
-20.710	78861.3
-20.705	78903.2
-20.700	78882.2
-20.695	78838.2
-20.690	78831.2
-20.685	78866.2
-20.680	78925.1
-20.675	78999.1
-20.670	79032.0
-20.665	79052.0
-20.660	79088.0
-20.655	79155.9
-20.650	79238.9
-20.645	79341.8
-20.640	79368.8
-20.635	79416.7
-20.630	79476.7
-20.625	79491.7
-20.620	79517.6
-20.615	79536.6
-20.610	79565.6
-20.605	79598.5
-20.600	79624.5
-20.595	79628.5
-20.590	79631.5
-20.585	79621.5
-20.580	79626.5
-20.575	79602.5
-20.570	79569.5
-20.565	79549.5
-20.560	79545.5
-20.555	79522.5
-20.550	79514.5
-20.545	79503.5
-20.540	79553.5
-20.535	79589.4
-20.530	79605.4
-20.525	79613.4
-20.520	79639.4
-20.515	79642.4
-20.510	79642.4
-20.505	79652.4
-20.500	79670.4
-20.495	79652.4
-20.490	79615.4
-20.485	79576.4
-20.480	79577.4
-20.475	79614.4
-20.470	79642.3
-20.465	79706.3
-20.460	79761.2
-20.455	79794.2
-20.450	79880.1
-20.445	79936.1
-20.440	79940.1
-20.435	80005.0
-20.430	80036.0
-20.425	80058.0
-20.420	80077.0
-20.415	80091.0
-20.410	80100.9
-20.405	80109.9
-20.400	80121.9
-20.395	80098.9
-20.390	80088.9
-20.385	80096.9
-20.380	80138.9
-20.375	80122.9
-20.370	80100.9
-20.365	80106.9
-20.360	80117.9
-20.355	80111.9
-20.350	80114.9
-20.345	80102.9
-20.340	80088.9
-20.335	80071.9
-20.330	80064.9
-20.325	80043.9
-20.320	80062.9
-20.315	80070.9
-20.310	80072.9
-20.305	80043.9
-20.300	80015.9
-20.295	80006.9
-20.290	80033.9
-20.285	80035.9
-20.280	80029.9
-20.275	80002.9
-20.270	79995.9
-20.265	79984.9
-20.260	79935.9
-20.255	79919.9
-20.250	79907.9
-20.245	79910.9
-20.240	79912.9
-20.235	79921.9
-20.230	79935.9
-20.225	79955.9
-20.220	79992.9
-20.215	80028.8
-20.210	80045.8
-20.205	80089.8
-20.200	80134.7
-20.195	80152.7
-20.190	80163.7
-20.185	80193.7
-20.180	80250.6
-20.175	80261.6
-20.170	80296.6
-20.165	80303.6
-20.160	80324.6
-20.155	80343.6
-20.150	80368.5
-20.145	80366.5
-20.140	80378.5
-20.135	80369.5
-20.130	80363.5
-20.125	80306.6
-20.120	80284.6
-20.115	80302.6
-20.110	80314.5
-20.105	80293.6
-20.100	80283.6
-20.095	80259.6
-20.090	80269.6
-20.085	80271.6
-20.080	80302.5
-20.075	80296.5
-20.070	80283.6
-20.065	80291.5
-20.060	80295.5
-20.055	80297.5
-20.050	80325.5
-20.045	80358.5
-20.040	80367.5
-20.035	80370.5
-20.030	80369.5
-20.025	80378.5
-20.020	80384.4
-20.015	80397.4
-20.010	80404.4
-20.005	80398.4
-20.000	80424.4
-19.995	80414.4
-19.990	80429.4
-19.985	80464.4
-19.980	80512.3
-19.975	80530.3
-19.970	80540.3
-19.965	80545.3
-19.960	80566.3
-19.955	80585.3
-19.950	80602.3
-19.945	80613.2
-19.940	80629.2
-19.935	80627.2
-19.930	80620.2
-19.925	80586.2
-19.920	80595.2
-19.915	80607.2
-19.910	80622.2
-19.905	80620.2
-19.900	80631.2
-19.895	80628.2
-19.890	80635.2
-19.885	80626.2
-19.880	80639.2
-19.875	80631.2
-19.870	80634.2
-19.865	80632.2
-19.860	80609.2
-19.855	80615.2
-19.850	80647.2
-19.845	80665.2
-19.840	80663.2
-19.835	80656.2
-19.830	80655.1
-19.825	80646.2
-19.820	80635.2
-19.815	80635.2
-19.810	80628.2
-19.805	80630.2
-19.800	80629.2
-19.795	80614.2
-19.790	80584.2
-19.785	80596.2
-19.780	80607.2
-19.775	80578.2
-19.770	80547.2
-19.765	80531.2
-19.760	80520.2
-19.755	80517.2
-19.750	80511.2
-19.745	80508.2
-19.740	80491.2
-19.735	80475.2
-19.730	80459.3
-19.725	80423.3
-19.720	80424.3
-19.715	80428.3
-19.710	80409.3
-19.705	80375.3
-19.700	80362.3
-19.695	80362.3
-19.690	80383.3
-19.685	80395.3
-19.680	80381.3
-19.675	80366.3
-19.670	80388.3
-19.665	80395.3
-19.660	80378.3
-19.655	80383.3
-19.650	80405.3
-19.645	80421.2
-19.640	80413.2
-19.635	80418.2
-19.630	80427.2
-19.625	80414.2
-19.620	80421.2
-19.615	80420.2
-19.610	80426.2
-19.605	80423.2
-19.600	80428.2
-19.595	80411.2
-19.590	80404.2
-19.585	80417.2
-19.580	80427.2
-19.575	80426.2
-19.570	80423.2
-19.565	80410.2
-19.560	80412.2
-19.555	80404.2
-19.550	80394.2
-19.545	80394.2
-19.540	80395.2
-19.535	80408.2
-19.530	80420.2
-19.525	80405.2
-19.520	80399.2
-19.515	80412.2
-19.510	80404.2
-19.505	80393.2
-19.500	80394.2
-19.495	80398.2
-19.490	80400.2
-19.485	80381.2
-19.480	80386.2
-19.475	80403.2
-19.470	80410.2
-19.465	80435.2
-19.460	80417.2
-19.455	80417.2
-19.450	80464.1
-19.445	80502.1
-19.440	80533.1
-19.435	80561.1
-19.430	80581.0
-19.425	80585.0
-19.420	80585.0
-19.415	80574.0
-19.410	80606.0
-19.405	80624.0
-19.400	80648.0
-19.395	80628.0
-19.390	80637.0
-19.385	80653.0
-19.380	80648.0
-19.375	80597.0
-19.370	80624.0
-19.365	80707.9
-19.360	80749.9
-19.355	80777.9
-19.350	80792.9
-19.345	80781.9
-19.340	80774.9
-19.335	80770.9
-19.330	80754.9
-19.325	80722.9
-19.320	80741.9
-19.315	80751.9
-19.310	80737.9
-19.305	80725.9
-19.300	80714.9
-19.295	80706.9
-19.290	80701.9
-19.285	80678.9
-19.280	80671.9
-19.275	80661.9
-19.270	80652.0
-19.265	80646.0
-19.260	80626.0
-19.255	80616.0
-19.250	80630.0
-19.245	80642.0
-19.240	80626.0
-19.235	80611.0
-19.230	80595.0
-19.225	80590.0
-19.220	80610.0
-19.215	80621.0
-19.210	80651.9
-19.205	80646.9
-19.200	80637.9
-19.195	80596.0
-19.190	80614.0
-19.185	80657.9
-19.180	80704.9
-19.175	80706.9
-19.170	80713.9
-19.165	80719.9
-19.160	80741.9
-19.155	80765.8
-19.150	80802.8
-19.145	80851.8
-19.140	80871.8
-19.135	80892.7
-19.130	80904.7
-19.125	80890.7
-19.120	80925.7
-19.115	80951.7
-19.110	80972.7
-19.105	80968.7
-19.100	80995.7
-19.095	81014.6
-19.090	81026.6
-19.085	81033.6
-19.080	81035.6
-19.075	81049.6
-19.070	81038.6
-19.065	81027.6
-19.060	80991.6
-19.055	80986.6
-19.050	80995.6
-19.045	81001.6
-19.040	80996.6
-19.035	80990.6
-19.030	80979.6
-19.025	80960.7
-19.020	80954.7
-19.015	80941.7
-19.010	80933.7
-19.005	80915.7
-19.000	80919.7
-18.995	80883.7
-18.990	80867.7
-18.985	80853.7
-18.980	80880.7
-18.975	80859.7
-18.970	80858.7
-18.965	80848.7
-18.960	80862.7
-18.955	80876.7
-18.950	80884.7
-18.945	80890.7
-18.940	80903.7
-18.935	80890.7
-18.930	80879.7
-18.925	80852.7
-18.920	80870.7
-18.915	80884.7
-18.910	80896.7
-18.905	80876.7
-18.900	80886.7
-18.895	80884.7
-18.890	80887.7
-18.885	80881.7
-18.880	80902.7
-18.875	80900.7
-18.870	80902.7
-18.865	80890.7
-18.860	80833.7
-18.855	80829.7
-18.850	80847.7
-18.845	80862.7
-18.840	80855.7
-18.835	80860.7
-18.830	80864.7
-18.825	80859.7
-18.820	80868.7
-18.815	80870.7
-18.810	80876.7
-18.805	80882.7
-18.800	80883.7
-18.795	80845.7
-18.790	80835.7
-18.785	80845.7
-18.780	80857.7
-18.775	80835.7
-18.770	80831.7
-18.765	80832.7
-18.760	80841.7
-18.755	80829.7
-18.750	80821.7
-18.745	80809.7
-18.740	80804.7
-18.735	80820.7
-18.730	80805.7
-18.725	80781.7
-18.720	80806.7
-18.715	80843.7
-18.710	80855.7
-18.705	80842.7
-18.700	80842.7
-18.695	80838.7
-18.690	80855.7
-18.685	80848.7
-18.680	80852.7
-18.675	80847.7
-18.670	80862.7
-18.665	80875.6
-18.660	80865.6
-18.655	80883.6
-18.650	80907.6
-18.645	80952.6
-18.640	80966.6
-18.635	80990.6
-18.630	81010.5
-18.625	81015.5
-18.620	81016.5
-18.615	81033.5
-18.610	81054.5
-18.605	81068.5
-18.600	81081.5
-18.595	81053.5
-18.590	81046.5
-18.585	81050.5
-18.580	81087.5
-18.575	81082.5
-18.570	81100.5
-18.565	81112.5
-18.560	81118.4
-18.555	81125.4
-18.550	81128.4
-18.545	81131.4
-18.540	81140.4
-18.535	81130.4
-18.530	81118.4
-18.525	81111.4
-18.520	81131.4
-18.515	81169.4
-18.510	81175.4
-18.505	81172.4
-18.500	81169.4
-18.495	81175.4
-18.490	81180.4
-18.485	81183.4
-18.480	81193.4
-18.475	81196.4
-18.470	81200.4
-18.465	81199.4
-18.460	81174.4
-18.455	81188.4
-18.450	81199.4
-18.445	81198.4
-18.440	81192.4
-18.435	81178.4
-18.430	81184.4
-18.425	81194.4
-18.420	81204.4
-18.415	81194.4
-18.410	81203.4
-18.405	81195.4
-18.400	81196.4
-18.395	81164.4
-18.390	81153.4
-18.385	81168.4
-18.380	81181.4
-18.375	81175.4
-18.370	81170.4
-18.365	81181.4
-18.360	81201.3
-18.355	81203.3
-18.350	81203.3
-18.345	81204.3
-18.340	81211.3
-18.335	81209.3
-18.330	81188.4
-18.325	81163.4
-18.320	81188.4
-18.315	81216.3
-18.310	81225.3
-18.305	81218.3
-18.300	81228.3
-18.295	81228.3
-18.290	81238.3
-18.285	81241.3
-18.280	81252.3
-18.275	81236.3
-18.270	81242.3
-18.265	81236.3
-18.260	81207.3
-18.255	81209.3
-18.250	81235.3
-18.245	81228.3
-18.240	81226.3
-18.235	81219.3
-18.230	81221.3
-18.225	81222.3
-18.220	81232.3
-18.215	81225.3
-18.210	81243.3
-18.205	81231.3
-18.200	81239.3
-18.195	81206.3
-18.190	81211.3
-18.185	81234.3
-18.180	81261.3
-18.175	81271.3
-18.170	81261.3
-18.165	81263.3
-18.160	81261.3
-18.155	81265.3
-18.150	81268.3
-18.145	81262.3
-18.140	81269.3
-18.135	81268.3
-18.130	81254.3
-18.125	81238.3
-18.120	81256.3
-18.115	81268.3
-18.110	81270.3
-18.105	81252.3
-18.100	81244.3
-18.095	81232.3
-18.090	81221.3
-18.085	81211.3
-18.080	81218.3
-18.075	81213.3
-18.070	81194.3
-18.065	81184.3
-18.060	81152.3
-18.055	81147.3
-18.050	81160.3
-18.045	81159.3
-18.040	81149.3
-18.035	81136.3
-18.030	81136.3
-18.025	81123.4
-18.020	81124.4
-18.015	81116.4
-18.010	81121.4
-18.005	81112.4
-18.000	81116.4
-17.995	81077.4
-17.990	81079.4
-17.985	81078.4
-17.980	81077.4
-17.975	81047.4
-17.970	81031.4
-17.965	81029.4
-17.960	81031.4
-17.955	81018.4
-17.950	81029.4
-17.945	81029.4
-17.940	81025.4
-17.935	81020.4
-17.930	81008.4
-17.925	80983.5
-17.920	80998.4
-17.915	81029.4
-17.910	81050.4
-17.905	81056.4
-17.900	81066.4
-17.895	81071.4
-17.890	81072.4
-17.885	81078.4
-17.880	81089.4
-17.875	81103.4
-17.870	81109.3
-17.865	81109.3
-17.860	81094.4
-17.855	81121.3
-17.850	81145.3
-17.845	81141.3
-17.840	81147.3
-17.835	81154.3
-17.830	81158.3
-17.825	81155.3
-17.820	81166.3
-17.815	81170.3
-17.810	81183.3
-17.805	81186.3
-17.800	81201.3
-17.795	81168.3
-17.790	81165.3
-17.785	81172.3
-17.780	81197.3
-17.775	81190.3
-17.770	81195.3
-17.765	81201.3
-17.760	81209.3
-17.755	81208.3
-17.750	81210.3
-17.745	81211.3
-17.740	81213.3
-17.735	81215.3
-17.730	81188.3
-17.725	81168.3
-17.720	81199.3
-17.715	81230.2
-17.710	81225.2
-17.705	81216.3
-17.700	81220.2
-17.695	81230.2
-17.690	81222.2
-17.685	81220.2
-17.680	81226.2
-17.675	81222.2
-17.670	81224.2
-17.665	81224.2
-17.660	81209.3
-17.655	81223.2
-17.650	81242.2
-17.645	81255.2
-17.640	81272.2
-17.635	81262.2
-17.630	81270.2
-17.625	81275.2
-17.620	81284.2
-17.615	81278.2
-17.610	81307.2
-17.605	81294.2
-17.600	81312.2
-17.595	81275.2
-17.590	81275.2
-17.585	81295.2
-17.580	81307.2
-17.575	81304.2
-17.570	81306.2
-17.565	81304.2
-17.560	81301.2
-17.555	81306.2
-17.550	81313.2
-17.545	81321.2
-17.540	81331.1
-17.535	81326.1
-17.530	81306.2
-17.525	81289.2
-17.520	81299.2
-17.515	81316.2
-17.510	81317.2
-17.505	81320.1
-17.500	81318.1
-17.495	81307.2
-17.490	81313.2
-17.485	81296.2
-17.480	81298.2
-17.475	81301.2
-17.470	81302.2
-17.465	81277.2
-17.460	81256.2
-17.455	81261.2
-17.450	81278.2
-17.445	81289.2
-17.440	81280.2
-17.435	81274.2
-17.430	81284.2
-17.425	81281.2
-17.420	81290.2
-17.415	81279.2
-17.410	81296.2
-17.405	81287.2
-17.400	81305.1
-17.395	81275.2
-17.390	81277.2
-17.385	81292.2
-17.380	81305.1
-17.375	81298.1
-17.370	81296.1
-17.365	81303.1
-17.360	81318.1
-17.355	81325.1
-17.350	81320.1
-17.345	81322.1
-17.340	81349.1
-17.335	81349.1
-17.330	81338.1
-17.325	81336.1
-17.320	81348.1
-17.315	81364.1
-17.310	81366.1
-17.305	81355.1
-17.300	81359.1
-17.295	81361.1
-17.290	81354.1
-17.285	81354.1
-17.280	81350.1
-17.275	81358.1
-17.270	81361.1
-17.265	81354.1
-17.260	81332.1
-17.255	81343.1
-17.250	81373.1
-17.245	81378.1
-17.240	81378.1
-17.235	81376.1
-17.230	81390.1
-17.225	81404.1
-17.220	81402.1
-17.215	81417.0
-17.210	81425.0
-17.205	81416.0
-17.200	81429.0
-17.195	81391.1
-17.190	81409.0
-17.185	81432.0
-17.180	81439.0
-17.175	81433.0
-17.170	81438.0
-17.165	81427.0
-17.160	81427.0
-17.155	81441.0
-17.150	81453.0
-17.145	81454.0
-17.140	81470.0
-17.135	81454.0
-17.130	81433.0
-17.125	81415.0
-17.120	81432.0
-17.115	81449.0
-17.110	81447.0
-17.105	81445.0
-17.100	81460.0
-17.095	81458.0
-17.090	81466.0
-17.085	81473.0
-17.080	81469.0
-17.075	81468.0
-17.070	81468.0
-17.065	81445.0
-17.060	81411.0
-17.055	81418.0
-17.050	81436.0
-17.045	81432.0
-17.040	81420.0
-17.035	81406.0
-17.030	81411.0
-17.025	81411.0
-17.020	81422.0
-17.015	81424.0
-17.010	81432.0
-17.005	81441.0
-17.000	81438.0
-16.995	81395.0
-16.990	81402.0
-16.985	81418.0
-16.980	81443.0
-16.975	81449.0
-16.970	81450.0
-16.965	81453.0
-16.960	81451.0
-16.955	81467.0
-16.950	81467.0
-16.945	81465.0
-16.940	81477.0
-16.935	81459.0
-16.930	81443.0
-16.925	81431.0
-16.920	81454.0
-16.915	81476.0
-16.910	81483.0
-16.905	81474.0
-16.900	81475.0
-16.895	81470.0
-16.890	81478.0
-16.885	81478.0
-16.880	81480.0
-16.875	81475.0
-16.870	81478.0
-16.865	81465.0
-16.860	81449.0
-16.855	81454.0
-16.850	81473.0
-16.845	81472.0
-16.840	81464.0
-16.835	81465.0
-16.830	81458.0
-16.825	81450.0
-16.820	81460.0
-16.815	81460.0
-16.810	81452.0
-16.805	81452.0
-16.800	81448.0
-16.795	81409.0
-16.790	81400.0
-16.785	81436.0
-16.780	81456.0
-16.775	81458.0
-16.770	81445.0
-16.765	81455.0
-16.760	81451.0
-16.755	81450.0
-16.750	81448.0
-16.745	81461.0
-16.740	81469.0
-16.735	81453.0
-16.730	81415.0
-16.725	81393.0
-16.720	81406.0
-16.715	81422.0
-16.710	81419.0
-16.705	81409.0
-16.700	81406.0
-16.695	81394.0
-16.690	81387.0
-16.685	81380.0
-16.680	81384.0
-16.675	81381.0
-16.670	81395.0
-16.665	81376.0
-16.660	81369.0
-16.655	81375.0
-16.650	81387.0
-16.645	81379.0
-16.640	81378.0
-16.635	81375.0
-16.630	81370.0
-16.625	81371.0
-16.620	81378.0
-16.615	81387.0
-16.610	81391.0
-16.605	81397.0
-16.600	81397.0
-16.595	81350.0
-16.590	81354.0
-16.585	81366.0
-16.580	81382.0
-16.575	81370.0
-16.570	81376.0
-16.565	81379.0
-16.560	81376.0
-16.555	81388.0
-16.550	81394.0
-16.545	81389.0
-16.540	81396.0
-16.535	81403.0
-16.530	81362.0
-16.525	81350.0
-16.520	81371.0
-16.515	81372.0
-16.510	81364.0
-16.505	81356.0
-16.500	81360.0
-16.495	81360.0
-16.490	81352.0
-16.485	81354.0
-16.480	81353.0
-16.475	81356.0
-16.470	81362.0
-16.465	81344.0
-16.460	81312.0
-16.455	81315.0
-16.450	81339.0
-16.445	81344.0
-16.440	81349.0
-16.435	81348.0
-16.430	81349.0
-16.425	81351.0
-16.420	81354.0
-16.415	81355.0
-16.410	81362.0
-16.405	81352.0
-16.400	81357.0
-16.395	81319.0
-16.390	81320.0
-16.385	81333.0
-16.380	81347.0
-16.375	81337.0
-16.370	81326.0
-16.365	81320.0
-16.360	81333.0
-16.355	81336.0
-16.350	81343.0
-16.345	81351.0
-16.340	81369.0
-16.335	81372.0
-16.330	81351.0
-16.325	81346.0
-16.320	81365.0
-16.315	81383.0
-16.310	81379.0
-16.305	81368.0
-16.300	81383.0
-16.295	81384.0
-16.290	81395.0
-16.285	81407.0
-16.280	81409.0
-16.275	81413.0
-16.270	81412.0
-16.265	81397.0
-16.260	81372.0
-16.255	81392.0
-16.250	81419.0
-16.245	81410.0
-16.240	81399.0
-16.235	81402.0
-16.230	81402.0
-16.225	81409.0
-16.220	81414.0
-16.215	81419.0
-16.210	81438.9
-16.205	81437.9
-16.200	81436.9
-16.195	81418.9
-16.190	81418.9
-16.185	81429.9
-16.180	81444.9
-16.175	81436.9
-16.170	81433.9
-16.165	81421.9
-16.160	81432.9
-16.155	81430.9
-16.150	81438.9
-16.145	81441.9
-16.140	81438.9
-16.135	81438.9
-16.130	81417.9
-16.125	81400.0
-16.120	81424.9
-16.115	81427.9
-16.110	81411.9
-16.105	81412.0
-16.100	81401.0
-16.095	81395.0
-16.090	81392.0
-16.085	81383.0
-16.080	81388.0
-16.075	81395.0
-16.070	81397.0
-16.065	81379.0
-16.060	81367.0
-16.055	81362.0
-16.050	81378.0
-16.045	81383.0
-16.040	81367.0
-16.035	81357.0
-16.030	81355.0
-16.025	81340.0
-16.020	81347.0
-16.015	81342.0
-16.010	81339.0
-16.005	81326.0
-16.000	81313.0
-15.995	81269.0
-15.990	81279.0
-15.985	81290.0
-15.980	81286.0
-15.975	81270.0
-15.970	81260.1
-15.965	81252.1
-15.960	81238.1
-15.955	81235.1
-15.950	81252.1
-15.945	81249.1
-15.940	81258.1
-15.935	81248.1
-15.930	81232.1
-15.925	81218.1
-15.920	81238.1
-15.915	81254.1
-15.910	81259.0
-15.905	81273.0
-15.900	81275.0
-15.895	81272.0
-15.890	81266.0
-15.885	81266.0
-15.880	81266.0
-15.875	81267.0
-15.870	81279.0
-15.865	81263.0
-15.860	81251.1
-15.855	81265.0
-15.850	81294.0
-15.845	81290.0
-15.840	81290.0
-15.835	81292.0
-15.830	81302.0
-15.825	81291.0
-15.820	81299.0
-15.815	81318.0
-15.810	81339.0
-15.805	81335.0
-15.800	81332.0
-15.795	81315.0
-15.790	81318.0
-15.785	81356.0
-15.780	81372.0
-15.775	81369.0
-15.770	81365.0
-15.765	81367.0
-15.760	81384.9
-15.755	81379.9
-15.750	81405.9
-15.745	81392.9
-15.740	81410.9
-15.735	81423.9
-15.730	81393.9
-15.725	81398.9
-15.720	81415.9
-15.715	81438.9
-15.710	81439.9
-15.705	81440.9
-15.700	81444.9
-15.695	81455.9
-15.690	81462.9
-15.685	81454.9
-15.680	81460.9
-15.675	81471.9
-15.670	81480.9
-15.665	81461.9
-15.660	81449.9
-15.655	81447.9
-15.650	81471.9
-15.645	81475.9
-15.640	81483.9
-15.635	81472.9
-15.630	81479.9
-15.625	81479.9
-15.620	81478.9
-15.615	81484.9
-15.610	81482.9
-15.605	81493.9
-15.600	81483.9
-15.595	81454.9
-15.590	81458.9
-15.585	81481.9
-15.580	81486.9
-15.575	81469.9
-15.570	81463.9
-15.565	81449.9
-15.560	81459.9
-15.555	81460.9
-15.550	81470.9
-15.545	81453.9
-15.540	81464.9
-15.535	81455.9
-15.530	81427.9
-15.525	81415.9
-15.520	81431.9
-15.515	81459.9
-15.510	81450.9
-15.505	81447.9
-15.500	81432.9
-15.495	81438.9
-15.490	81433.9
-15.485	81436.9
-15.480	81449.9
-15.475	81437.9
-15.470	81443.9
-15.465	81397.9
-15.460	81380.9
-15.455	81407.9
-15.450	81420.9
-15.445	81412.9
-15.440	81408.9
-15.435	81400.9
-15.430	81400.9
-15.425	81396.9
-15.420	81405.9
-15.415	81404.9
-15.410	81389.9
-15.405	81391.9
-15.400	81374.9
-15.395	81347.0
-15.390	81348.9
-15.385	81361.9
-15.380	81357.9
-15.375	81340.0
-15.370	81337.0
-15.365	81341.0
-15.360	81336.0
-15.355	81330.0
-15.350	81331.0
-15.345	81337.0
-15.340	81344.9
-15.335	81346.9
-15.330	81332.0
-15.325	81341.9
-15.320	81384.9
-15.315	81390.9
-15.310	81398.9
-15.305	81395.9
-15.300	81398.9
-15.295	81401.9
-15.290	81402.9
-15.285	81397.9
-15.280	81391.9
-15.275	81392.9
-15.270	81386.9
-15.265	81357.9
-15.260	81335.9
-15.255	81348.9
-15.250	81389.9
-15.245	81390.9
-15.240	81418.9
-15.235	81432.9
-15.230	81444.9
-15.225	81451.9
-15.220	81456.9
-15.215	81458.9
-15.210	81444.9
-15.205	81443.9
-15.200	81422.9
-15.195	81407.9
-15.190	81411.9
-15.185	81440.9
-15.180	81428.9
-15.175	81423.9
-15.170	81408.9
-15.165	81408.9
-15.160	81415.9
-15.155	81414.9
-15.150	81424.9
-15.145	81417.9
-15.140	81420.9
-15.135	81413.9
-15.130	81384.9
-15.125	81375.9
-15.120	81384.9
-15.115	81390.9
-15.110	81377.9
-15.105	81377.9
-15.100	81373.9
-15.095	81377.9
-15.090	81381.9
-15.085	81367.9
-15.080	81363.9
-15.075	81353.9
-15.070	81334.9
-15.065	81297.0
-15.060	81284.0
-15.055	81285.0
-15.050	81292.0
-15.045	81270.0
-15.040	81243.0
-15.035	81230.0
-15.030	81225.0
-15.025	81202.0
-15.020	81190.0
-15.015	81175.1
-15.010	81154.1
-15.005	81143.1
-15.000	81129.1
-14.995	81104.1
-14.990	81098.1
-14.985	81114.1
-14.980	81113.1
-14.975	81112.1
-14.970	81106.1
-14.965	81098.1
-14.960	81106.1
-14.955	81109.1
-14.950	81106.1
-14.945	81111.1
-14.940	81122.1
-14.935	81110.1
-14.930	81091.1
-14.925	81078.1
-14.920	81101.1
-14.915	81106.1
-14.910	81100.1
-14.905	81095.1
-14.900	81093.1
-14.895	81095.1
-14.890	81102.1
-14.885	81100.1
-14.880	81095.1
-14.875	81098.1
-14.870	81114.1
-14.865	81102.1
-14.860	81109.1
-14.855	81130.1
-14.850	81174.1
-14.845	81175.1
-14.840	81195.0
-14.835	81205.0
-14.830	81217.0
-14.825	81231.0
-14.820	81246.0
-14.815	81260.0
-14.810	81277.0
-14.805	81282.0
-14.800	81276.0
-14.795	81250.0
-14.790	81272.0
-14.785	81309.9
-14.780	81307.9
-14.775	81314.9
-14.770	81327.9
-14.765	81324.9
-14.760	81331.9
-14.755	81330.9
-14.750	81350.9
-14.745	81354.9
-14.740	81362.9
-14.735	81372.9
-14.730	81350.9
-14.725	81354.9
-14.720	81380.9
-14.715	81395.9
-14.710	81398.9
-14.705	81403.9
-14.700	81404.9
-14.695	81415.9
-14.690	81419.9
-14.685	81426.9
-14.680	81430.8
-14.675	81430.8
-14.670	81433.8
-14.665	81397.9
-14.660	81400.9
-14.655	81410.9
-14.650	81427.8
-14.645	81425.8
-14.640	81421.8
-14.635	81418.9
-14.630	81419.9
-14.625	81412.9
-14.620	81420.8
-14.615	81418.9
-14.610	81426.8
-14.605	81413.9
-14.600	81392.9
-14.595	81372.9
-14.590	81373.9
-14.585	81392.9
-14.580	81403.9
-14.575	81399.9
-14.570	81399.9
-14.565	81394.9
-14.560	81401.9
-14.555	81400.9
-14.550	81406.9
-14.545	81398.9
-14.540	81389.9
-14.535	81390.9
-14.530	81362.9
-14.525	81359.9
-14.520	81391.9
-14.515	81405.9
-14.510	81383.9
-14.505	81376.9
-14.500	81372.9
-14.495	81363.9
-14.490	81379.9
-14.485	81386.9
-14.480	81396.9
-14.475	81401.9
-14.470	81413.8
-14.465	81379.9
-14.460	81361.9
-14.455	81384.9
-14.450	81407.9
-14.445	81410.8
-14.440	81419.8
-14.435	81409.8
-14.430	81427.8
-14.425	81418.8
-14.420	81433.8
-14.415	81434.8
-14.410	81438.8
-14.405	81436.8
-14.400	81427.8
-14.395	81413.8
-14.390	81424.8
-14.385	81447.8
-14.380	81447.8
-14.375	81437.8
-14.370	81441.8
-14.365	81435.8
-14.360	81443.8
-14.355	81451.8
-14.350	81465.8
-14.345	81472.8
-14.340	81475.8
-14.335	81471.8
-14.330	81443.8
-14.325	81447.8
-14.320	81465.8
-14.315	81478.8
-14.310	81481.8
-14.305	81478.8
-14.300	81481.8
-14.295	81484.8
-14.290	81501.8
-14.285	81515.8
-14.280	81522.8
-14.275	81520.8
-14.270	81517.8
-14.265	81490.8
-14.260	81487.8
-14.255	81504.8
-14.250	81526.8
-14.245	81512.8
-14.240	81517.8
-14.235	81517.8
-14.230	81514.8
-14.225	81512.8
-14.220	81521.8
-14.215	81524.8
-14.210	81526.7
-14.205	81516.8
-14.200	81513.8
-14.195	81502.8
-14.190	81504.8
-14.185	81531.7
-14.180	81537.7
-14.175	81529.7
-14.170	81530.7
-14.165	81526.7
-14.160	81536.7
-14.155	81530.7
-14.150	81546.7
-14.145	81541.7
-14.140	81540.7
-14.135	81532.7
-14.130	81503.8
-14.125	81510.8
-14.120	81534.7
-14.115	81533.7
-14.110	81531.7
-14.105	81525.7
-14.100	81525.7
-14.095	81524.7
-14.090	81523.7
-14.085	81529.7
-14.080	81522.7
-14.075	81529.7
-14.070	81522.7
-14.065	81492.8
-14.060	81503.8
-14.055	81509.8
-14.050	81535.7
-14.045	81530.7
-14.040	81537.7
-14.035	81537.7
-14.030	81546.7
-14.025	81540.7
-14.020	81549.7
-14.015	81547.7
-14.010	81548.7
-14.005	81538.7
-14.000	81517.7
-13.995	81498.8
-13.990	81512.7
-13.985	81543.7
-13.980	81542.7
-13.975	81530.7
-13.970	81537.7
-13.965	81531.7
-13.960	81536.7
-13.955	81542.7
-13.950	81549.7
-13.945	81549.7
-13.940	81550.7
-13.935	81535.7
-13.930	81509.7
-13.925	81502.7
-13.920	81531.7
-13.915	81544.7
-13.910	81545.7
-13.905	81536.7
-13.900	81545.7
-13.895	81554.7
-13.890	81553.7
-13.885	81566.7
-13.880	81570.7
-13.875	81562.7
-13.870	81568.7
-13.865	81533.7
-13.860	81532.7
-13.855	81544.7
-13.850	81569.7
-13.845	81558.7
-13.840	81554.7
-13.835	81546.7
-13.830	81548.7
-13.825	81541.7
-13.820	81553.7
-13.815	81558.7
-13.810	81560.7
-13.805	81558.7
-13.800	81536.7
-13.795	81516.7
-13.790	81530.7
-13.785	81556.7
-13.780	81570.7
-13.775	81554.7
-13.770	81553.7
-13.765	81552.7
-13.760	81562.7
-13.755	81554.7
-13.750	81554.7
-13.745	81549.7
-13.740	81550.7
-13.735	81539.7
-13.730	81510.7
-13.725	81525.7
-13.720	81554.7
-13.715	81553.7
-13.710	81548.7
-13.705	81549.7
-13.700	81550.7
-13.695	81554.7
-13.690	81558.7
-13.685	81559.7
-13.680	81563.7
-13.675	81561.7
-13.670	81567.7
-13.665	81531.7
-13.660	81537.7
-13.655	81553.7
-13.650	81584.7
-13.645	81574.7
-13.640	81580.7
-13.635	81580.7
-13.630	81578.7
-13.625	81588.7
-13.620	81600.7
-13.615	81594.7
-13.610	81601.7
-13.605	81600.7
-13.600	81575.7
-13.595	81557.7
-13.590	81584.7
-13.585	81602.7
-13.580	81609.7
-13.575	81598.7
-13.570	81595.7
-13.565	81597.7
-13.560	81599.7
-13.555	81599.7
-13.550	81598.7
-13.545	81605.7
-13.540	81620.6
-13.535	81614.6
-13.530	81585.7
-13.525	81588.7
-13.520	81610.7
-13.515	81615.7
-13.510	81616.6
-13.505	81616.6
-13.500	81608.7
-13.495	81610.7
-13.490	81612.6
-13.485	81608.6
-13.480	81612.6
-13.475	81606.7
-13.470	81612.6
-13.465	81578.7
-13.460	81567.7
-13.455	81579.7
-13.450	81586.7
-13.445	81577.7
-13.440	81576.7
-13.435	81579.7
-13.430	81578.7
-13.425	81570.7
-13.420	81563.7
-13.415	81564.7
-13.410	81568.7
-13.405	81563.7
-13.400	81543.7
-13.395	81525.7
-13.390	81525.7
-13.385	81542.7
-13.380	81541.7
-13.375	81533.7
-13.370	81528.7
-13.365	81522.7
-13.360	81528.7
-13.355	81525.7
-13.350	81533.7
-13.345	81512.7
-13.340	81503.7
-13.335	81477.7
-13.330	81455.8
-13.325	81459.8
-13.320	81478.7
-13.315	81466.8
-13.310	81456.8
-13.305	81437.8
-13.300	81432.8
-13.295	81430.8
-13.290	81428.8
-13.285	81430.8
-13.280	81426.8
-13.275	81421.8
-13.270	81418.8
-13.265	81374.8
-13.260	81386.8
-13.255	81405.8
-13.250	81421.8
-13.245	81417.8
-13.240	81413.8
-13.235	81414.8
-13.230	81425.8
-13.225	81432.8
-13.220	81430.8
-13.215	81429.8
-13.210	81437.8
-13.205	81431.8
-13.200	81404.8
-13.195	81398.8
-13.190	81415.8
-13.185	81439.8
-13.180	81440.8
-13.175	81426.8
-13.170	81433.8
-13.165	81433.8
-13.160	81436.8
-13.155	81451.8
-13.150	81442.8
-13.145	81434.8
-13.140	81450.8
-13.135	81449.8
-13.130	81417.8
-13.125	81421.8
-13.120	81462.7
-13.115	81464.7
-13.110	81462.7
-13.105	81456.7
-13.100	81466.7
-13.095	81464.7
-13.090	81477.7
-13.085	81480.7
-13.080	81492.7
-13.075	81490.7
-13.070	81488.7
-13.065	81457.7
-13.060	81475.7
-13.055	81490.7
-13.050	81501.7
-13.045	81492.7
-13.040	81498.7
-13.035	81495.7
-13.030	81493.7
-13.025	81496.7
-13.020	81514.7
-13.015	81510.7
-13.010	81509.7
-13.005	81526.7
-13.000	81497.7
-12.995	81476.7
-12.990	81491.7
-12.985	81521.7
-12.980	81521.7
-12.975	81521.7
-12.970	81521.7
-12.965	81522.7
-12.960	81526.7
-12.955	81525.7
-12.950	81527.7
-12.945	81520.7
-12.940	81518.7
-12.935	81510.7
-12.930	81483.7
-12.925	81492.7
-12.920	81522.7
-12.915	81520.7
-12.910	81503.7
-12.905	81502.7
-12.900	81498.7
-12.895	81492.7
-12.890	81499.7
-12.885	81498.7
-12.880	81503.7
-12.875	81501.7
-12.870	81505.7
-12.865	81468.7
-12.860	81474.7
-12.855	81475.7
-12.850	81502.7
-12.845	81490.7
-12.840	81490.7
-12.835	81488.7
-12.830	81500.7
-12.825	81495.7
-12.820	81506.7
-12.815	81506.7
-12.810	81498.7
-12.805	81482.7
-12.800	81461.7
-12.795	81455.7
-12.790	81472.7
-12.785	81496.7
-12.780	81490.7
-12.775	81476.7
-12.770	81470.7
-12.765	81470.7
-12.760	81471.7
-12.755	81467.7
-12.750	81475.7
-12.745	81474.7
-12.740	81478.7
-12.735	81479.7
-12.730	81448.7
-12.725	81451.7
-12.720	81481.7
-12.715	81497.7
-12.710	81503.7
-12.705	81494.7
-12.700	81495.7
-12.695	81494.7
-12.690	81500.7
-12.685	81502.7
-12.680	81519.7
-12.675	81508.7
-12.670	81513.7
-12.665	81475.7
-12.660	81495.7
-12.655	81506.7
-12.650	81524.7
-12.645	81509.7
-12.640	81514.7
-12.635	81510.7
-12.630	81509.7
-12.625	81521.7
-12.620	81528.7
-12.615	81527.7
-12.610	81539.7
-12.605	81531.7
-12.600	81513.7
-12.595	81494.7
-12.590	81507.7
-12.585	81529.7
-12.580	81526.7
-12.575	81524.7
-12.570	81524.7
-12.565	81531.7
-12.560	81535.7
-12.555	81537.7
-12.550	81546.7
-12.545	81538.7
-12.540	81549.7
-12.535	81528.7
-12.530	81517.7
-12.525	81534.7
-12.520	81552.6
-12.515	81560.6
-12.510	81559.6
-12.505	81555.6
-12.500	81549.7
-12.495	81559.6
-12.490	81553.7
-12.485	81560.6
-12.480	81554.6
-12.475	81554.6
-12.470	81558.6
-12.465	81520.7
-12.460	81520.7
-12.455	81537.7
-12.450	81564.6
-12.445	81550.6
-12.440	81565.6
-12.435	81554.6
-12.430	81557.6
-12.425	81561.6
-12.420	81559.6
-12.415	81556.6
-12.410	81568.6
-12.405	81558.6
-12.400	81543.7
-12.395	81541.7
-12.390	81557.6
-12.385	81571.6
-12.380	81571.6
-12.375	81563.6
-12.370	81564.6
-12.365	81558.6
-12.360	81561.6
-12.355	81564.6
-12.350	81566.6
-12.345	81565.6
-12.340	81559.6
-12.335	81545.6
-12.330	81523.7
-12.325	81536.7
-12.320	81561.6
-12.315	81567.6
-12.310	81567.6
-12.305	81562.6
-12.300	81569.6
-12.295	81576.6
-12.290	81580.6
-12.285	81583.6
-12.280	81587.6
-12.275	81580.6
-12.270	81573.6
-12.265	81541.6
-12.260	81555.6
-12.255	81573.6
-12.250	81574.6
-12.245	81575.6
-12.240	81571.6
-12.235	81563.6
-12.230	81576.6
-12.225	81576.6
-12.220	81575.6
-12.215	81579.6
-12.210	81592.6
-12.205	81589.6
-12.200	81564.6
-12.195	81545.6
-12.190	81574.6
-12.185	81589.6
-12.180	81580.6
-12.175	81591.6
-12.170	81603.6
-12.165	81593.6
-12.160	81611.6
-12.155	81615.6
-12.150	81616.6
-12.145	81608.6
-12.140	81618.6
-12.135	81591.6
-12.130	81580.6
-12.125	81592.6
-12.120	81607.6
-12.115	81618.6
-12.110	81616.6
-12.105	81608.6
-12.100	81604.6
-12.095	81603.6
-12.090	81599.6
-12.085	81612.6
-12.080	81617.6
-12.075	81620.6
-12.070	81626.6
-12.065	81593.6
-12.060	81597.6
-12.055	81620.6
-12.050	81634.6
-12.045	81637.6
-12.040	81643.6
-12.035	81640.6
-12.030	81637.6
-12.025	81639.6
-12.020	81651.6
-12.015	81654.6
-12.010	81653.6
-12.005	81655.5
-12.000	81631.6
-11.995	81625.6
-11.990	81652.6
-11.985	81667.5
-11.980	81654.6
-11.975	81652.6
-11.970	81654.6
-11.965	81655.6
-11.960	81666.5
-11.955	81663.5
-11.950	81673.5
-11.945	81675.5
-11.940	81678.5
-11.935	81657.5
-11.930	81651.6
-11.925	81649.6
-11.920	81687.5
-11.915	81685.5
-11.910	81697.5
-11.905	81685.5
-11.900	81690.5
-11.895	81694.5
-11.890	81696.5
-11.885	81692.5
-11.880	81705.5
-11.875	81689.5
-11.870	81700.5
-11.865	81662.5
-11.860	81674.5
-11.855	81692.5
-11.850	81692.5
-11.845	81687.5
-11.840	81699.5
-11.835	81701.5
-11.830	81698.5
-11.825	81694.5
-11.820	81699.5
-11.815	81702.5
-11.810	81701.5
-11.805	81695.5
-11.800	81673.5
-11.795	81661.5
-11.790	81686.5
-11.785	81692.5
-11.780	81704.5
-11.775	81701.5
-11.770	81699.5
-11.765	81706.5
-11.760	81712.5
-11.755	81714.5
-11.750	81712.5
-11.745	81726.5
-11.740	81729.5
-11.735	81697.5
-11.730	81683.5
-11.725	81696.5
-11.720	81722.5
-11.715	81715.5
-11.710	81721.5
-11.705	81705.5
-11.700	81709.5
-11.695	81703.5
-11.690	81714.5
-11.685	81708.5
-11.680	81714.5
-11.675	81717.5
-11.670	81699.5
-11.665	81672.5
-11.660	81684.5
-11.655	81705.5
-11.650	81712.5
-11.645	81710.5
-11.640	81711.5
-11.635	81706.5
-11.630	81706.5
-11.625	81708.5
-11.620	81715.5
-11.615	81714.5
-11.610	81704.5
-11.605	81698.5
-11.600	81672.5
-11.595	81666.5
-11.590	81683.5
-11.585	81691.5
-11.580	81696.5
-11.575	81683.5
-11.570	81679.5
-11.565	81667.5
-11.560	81676.5
-11.555	81674.5
-11.550	81687.5
-11.545	81685.5
-11.540	81679.5
-11.535	81654.5
-11.530	81653.5
-11.525	81653.5
-11.520	81679.5
-11.515	81673.5
-11.510	81680.5
-11.505	81679.5
-11.500	81674.5
-11.495	81666.5
-11.490	81677.5
-11.485	81673.5
-11.480	81685.5
-11.475	81677.5
-11.470	81664.5
-11.465	81642.5
-11.460	81657.5
-11.455	81677.5
-11.450	81677.5
-11.445	81669.5
-11.440	81656.5
-11.435	81662.5
-11.430	81659.5
-11.425	81659.5
-11.420	81653.5
-11.415	81661.5
-11.410	81659.5
-11.405	81641.5
-11.400	81623.6
-11.395	81614.6
-11.390	81631.5
-11.385	81647.5
-11.380	81660.5
-11.375	81643.5
-11.370	81642.5
-11.365	81648.5
-11.360	81639.5
-11.355	81648.5
-11.350	81651.5
-11.345	81641.5
-11.340	81644.5
-11.335	81624.5
-11.330	81617.6
-11.325	81624.6
-11.320	81647.5
-11.315	81632.5
-11.310	81632.5
-11.305	81624.6
-11.300	81628.5
-11.295	81625.5
-11.290	81628.5
-11.285	81635.5
-11.280	81641.5
-11.275	81642.5
-11.270	81641.5
-11.265	81609.6
-11.260	81618.6
-11.255	81632.5
-11.250	81645.5
-11.245	81639.5
-11.240	81649.5
-11.235	81638.5
-11.230	81651.5
-11.225	81644.5
-11.220	81653.5
-11.215	81659.5
-11.210	81646.5
-11.205	81644.5
-11.200	81613.6
-11.195	81617.6
-11.190	81630.5
-11.185	81639.5
-11.180	81642.5
-11.175	81634.5
-11.170	81641.5
-11.165	81640.5
-11.160	81641.5
-11.155	81637.5
-11.150	81644.5
-11.145	81634.5
-11.140	81638.5
-11.135	81621.5
-11.130	81610.6
-11.125	81606.6
-11.120	81643.5
-11.115	81624.5
-11.110	81636.5
-11.105	81629.5
-11.100	81638.5
-11.095	81641.5
-11.090	81646.5
-11.085	81643.5
-11.080	81648.5
-11.075	81644.5
-11.070	81641.5
-11.065	81608.6
-11.060	81621.5
-11.055	81638.5
-11.050	81650.5
-11.045	81640.5
-11.040	81636.5
-11.035	81628.5
-11.030	81631.5
-11.025	81632.5
-11.020	81630.5
-11.015	81627.5
-11.010	81639.5
-11.005	81634.5
-11.000	81606.6
-10.995	81600.6
-10.990	81616.5
-10.985	81637.5
-10.980	81638.5
-10.975	81635.5
-10.970	81635.5
-10.965	81639.5
-10.960	81644.5
-10.955	81643.5
-10.950	81648.5
-10.945	81645.5
-10.940	81645.5
-10.935	81612.5
-10.930	81605.6
-10.925	81623.5
-10.920	81649.5
-10.915	81639.5
-10.910	81643.5
-10.905	81628.5
-10.900	81635.5
-10.895	81624.5
-10.890	81643.5
-10.885	81643.5
-10.880	81642.5
-10.875	81649.5
-10.870	81641.5
-10.865	81607.5
-10.860	81613.5
-10.855	81636.5
-10.850	81641.5
-10.845	81651.5
-10.840	81647.5
-10.835	81648.5
-10.830	81653.5
-10.825	81644.5
-10.820	81658.5
-10.815	81663.5
-10.810	81660.5
-10.805	81661.5
-10.800	81632.5
-10.795	81636.5
-10.790	81671.5
-10.785	81682.5
-10.780	81666.5
-10.775	81655.5
-10.770	81657.5
-10.765	81657.5
-10.760	81669.5
-10.755	81677.5
-10.750	81679.5
-10.745	81678.5
-10.740	81687.5
-10.735	81661.5
-10.730	81651.5
-10.725	81661.5
-10.720	81685.5
-10.715	81693.5
-10.710	81689.5
-10.705	81692.5
-10.700	81692.5
-10.695	81689.5
-10.690	81706.5
-10.685	81698.5
-10.680	81711.5
-10.675	81700.5
-10.670	81688.5
-10.665	81665.5
-10.660	81688.5
-10.655	81708.5
-10.650	81708.5
-10.645	81698.5
-10.640	81705.5
-10.635	81697.5
-10.630	81707.5
-10.625	81709.5
-10.620	81709.5
-10.615	81710.5
-10.610	81719.5
-10.605	81706.5
-10.600	81681.5
-10.595	81678.5
-10.590	81709.5
-10.585	81705.5
-10.580	81706.5
-10.575	81707.5
-10.570	81713.5
-10.565	81714.5
-10.560	81720.5
-10.555	81722.5
-10.550	81714.5
-10.545	81721.5
-10.540	81714.5
-10.535	81686.5
-10.530	81675.5
-10.525	81687.5
-10.520	81708.5
-10.515	81701.5
-10.510	81692.5
-10.505	81684.5
-10.500	81697.5
-10.495	81696.5
-10.490	81699.5
-10.485	81687.5
-10.480	81689.5
-10.475	81698.5
-10.470	81676.5
-10.465	81645.5
-10.460	81662.5
-10.455	81686.5
-10.450	81682.5
-10.445	81676.5
-10.440	81676.5
-10.435	81665.5
-10.430	81670.5
-10.425	81659.5
-10.420	81670.5
-10.415	81657.5
-10.410	81663.5
-10.405	81652.5
-10.400	81629.5
-10.395	81631.5
-10.390	81666.5
-10.385	81656.5
-10.380	81644.5
-10.375	81638.5
-10.370	81640.5
-10.365	81626.5
-10.360	81643.5
-10.355	81641.5
-10.350	81644.5
-10.345	81647.5
-10.340	81655.5
-10.335	81633.5
-10.330	81615.5
-10.325	81629.5
-10.320	81656.5
-10.315	81653.5
-10.310	81656.5
-10.305	81649.5
-10.300	81654.5
-10.295	81658.5
-10.290	81653.5
-10.285	81652.5
-10.280	81659.5
-10.275	81662.5
-10.270	81649.5
-10.265	81625.5
-10.260	81644.5
-10.255	81663.5
-10.250	81657.5
-10.245	81651.5
-10.240	81648.5
-10.235	81654.5
-10.230	81653.5
-10.225	81649.5
-10.220	81654.5
-10.215	81650.5
-10.210	81662.5
-10.205	81641.5
-10.200	81621.5
-10.195	81630.5
-10.190	81646.5
-10.185	81659.5
-10.180	81654.5
-10.175	81660.5
-10.170	81667.5
-10.165	81663.5
-10.160	81675.5
-10.155	81677.5
-10.150	81685.5
-10.145	81679.5
-10.140	81675.5
-10.135	81652.5
-10.130	81652.5
-10.125	81666.5
-10.120	81682.5
-10.115	81679.5
-10.110	81668.5
-10.105	81658.5
-10.100	81658.5
-10.095	81665.5
-10.090	81667.5
-10.085	81666.5
-10.080	81680.5
-10.075	81670.5
-10.070	81654.5
-10.065	81622.5
-10.060	81641.5
-10.055	81661.5
-10.050	81661.5
-10.045	81660.5
-10.040	81664.5
-10.035	81670.5
-10.030	81680.5
-10.025	81685.5
-10.020	81684.5
-10.015	81684.5
-10.010	81684.5
-10.005	81675.5
-10.000	81656.5
-9.995	81661.5
-9.990	81691.5
-9.985	81686.5
-9.980	81681.5
-9.975	81677.5
-9.970	81680.5
-9.965	81671.5
-9.960	81679.5
-9.955	81677.5
-9.950	81678.5
-9.945	81678.5
-9.940	81687.5
-9.935	81659.5
-9.930	81652.5
-9.925	81663.5
-9.920	81686.5
-9.915	81684.5
-9.910	81688.5
-9.905	81685.5
-9.900	81690.5
-9.895	81698.4
-9.890	81711.4
-9.885	81706.4
-9.880	81707.4
-9.875	81705.4
-9.870	81683.5
-9.865	81656.5
-9.860	81670.5
-9.855	81694.5
-9.850	81691.5
-9.845	81687.5
-9.840	81676.5
-9.835	81671.5
-9.830	81678.5
-9.825	81673.5
-9.820	81680.5
-9.815	81681.5
-9.810	81685.5
-9.805	81682.5
-9.800	81653.5
-9.795	81649.5
-9.790	81672.5
-9.785	81686.5
-9.780	81684.5
-9.775	81678.5
-9.770	81678.5
-9.765	81680.5
-9.760	81687.4
-9.755	81688.4
-9.750	81701.4
-9.745	81684.5
-9.740	81687.4
-9.735	81645.5
-9.730	81646.5
-9.725	81666.5
-9.720	81690.4
-9.715	81672.5
-9.710	81658.5
-9.705	81659.5
-9.700	81650.5
-9.695	81645.5
-9.690	81637.5
-9.685	81635.5
-9.680	81647.5
-9.675	81651.5
-9.670	81645.5
-9.665	81629.5
-9.660	81649.5
-9.655	81674.5
-9.650	81687.4
-9.645	81676.5
-9.640	81680.4
-9.635	81676.5
-9.630	81687.4
-9.625	81682.4
-9.620	81684.4
-9.615	81682.4
-9.610	81683.4
-9.605	81668.5
-9.600	81640.5
-9.595	81657.5
-9.590	81680.4
-9.585	81684.4
-9.580	81675.5
-9.575	81671.5
-9.570	81671.5
-9.565	81676.5
-9.560	81674.5
-9.555	81675.4
-9.550	81679.4
-9.545	81668.5
-9.540	81676.4
-9.535	81651.5
-9.530	81642.5
-9.525	81665.5
-9.520	81686.4
-9.515	81676.4
-9.510	81677.4
-9.505	81666.4
-9.500	81678.4
-9.495	81677.4
-9.490	81680.4
-9.485	81682.4
-9.480	81688.4
-9.475	81690.3
-9.470	81649.3
-9.465	81621.1
-9.460	81615.0
-9.455	81615.8
-9.450	81595.5
-9.445	81568.3
-9.440	81551.9
-9.435	81521.6
-9.430	81508.2
-9.425	81461.8
-9.420	81388.4
-9.415	81280.0
-9.410	81226.5
-9.405	81222.1
-9.400	81205.7
-9.395	81213.3
-9.390	81189.9
-9.385	81172.8
-9.380	81199.8
-9.375	81271.0
-9.370	81323.4
-9.365	81306.9
-9.360	81293.3
-9.355	81311.6
-9.350	81360.8
-9.345	81353.0
-9.340	81276.3
-9.335	81198.5
-9.330	81093.7
-9.325	81034.8
-9.320	81092.9
-9.315	81027.0
-9.310	80853.2
-9.305	80757.4
-9.300	80817.4
-9.295	80929.4
-9.290	81055.4
-9.285	81137.4
-9.280	81188.4
-9.275	81243.4
-9.270	81276.4
-9.265	81320.4
-9.260	81374.4
-9.255	81418.4
-9.250	81444.4
-9.245	81424.5
-9.240	81427.5
-9.235	81433.6
-9.230	81458.6
-9.225	81455.6
-9.220	81469.6
-9.215	81492.6
-9.210	81503.6
-9.205	81489.7
-9.200	81471.7
-9.195	81481.7
-9.190	81489.8
-9.185	81495.8
-9.180	81442.9
-9.175	81431.9
-9.170	81423.9
-9.165	81307.0
-9.160	81259.1
-9.155	81311.1
-9.150	81429.0
-9.145	81502.9
-9.140	81530.9
-9.135	81515.0
-9.130	81519.0
-9.125	81536.0
-9.120	81547.0
-9.115	81545.0
-9.110	81545.0
-9.105	81520.1
-9.100	81515.1
-9.095	81521.1
-9.090	81537.1
-9.085	81530.1
-9.080	81531.1
-9.075	81519.1
-9.070	81491.2
-9.065	81461.2
-9.060	81481.2
-9.055	81482.2
-9.050	81478.2
-9.045	81465.2
-9.040	81453.3
-9.035	81428.3
-9.030	81429.3
-9.025	81441.3
-9.020	81439.3
-9.015	81438.3
-9.010	81433.3
-9.005	81400.4
-9.000	81369.4
-8.995	81370.4
-8.990	81414.4
-8.985	81426.4
-8.980	81403.4
-8.975	81388.4
-8.970	81415.4
-8.965	81416.4
-8.960	81425.4
-8.955	81422.4
-8.950	81424.4
-8.945	81420.4
-8.940	81419.5
-8.935	81399.5
-8.930	81402.5
-8.925	81409.5
-8.920	81424.5
-8.915	81418.5
-8.910	81396.5
-8.905	81415.5
-8.900	81410.5
-8.895	81402.5
-8.890	81397.5
-8.885	81390.6
-8.880	81408.5
-8.875	81423.5
-8.870	81406.6
-8.865	81390.6
-8.860	81416.6
-8.855	81440.6
-8.850	81439.6
-8.845	81457.6
-8.840	81459.6
-8.835	81443.6
-8.830	81452.6
-8.825	81450.6
-8.820	81453.6
-8.815	81448.6
-8.810	81450.6
-8.805	81432.6
-8.800	81409.6
-8.795	81408.6
-8.790	81442.6
-8.785	81434.6
-8.780	81434.6
-8.775	81431.6
-8.770	81426.6
-8.765	81419.7
-8.760	81419.7
-8.755	81431.7
-8.750	81423.7
-8.745	81427.7
-8.740	81428.7
-8.735	81395.7
-8.730	81385.7
-8.725	81389.7
-8.720	81414.7
-8.715	81424.7
-8.710	81412.7
-8.705	81417.7
-8.700	81422.7
-8.695	81426.7
-8.690	81412.7
-8.685	81415.7
-8.680	81409.7
-8.675	81405.7
-8.670	81382.8
-8.665	81382.8
-8.660	81399.8
-8.655	81409.8
-8.650	81395.8
-8.645	81377.8
-8.640	81364.8
-8.635	81360.8
-8.630	81345.8
-8.625	81318.8
-8.620	81327.8
-8.615	81353.8
-8.610	81338.8
-8.605	81264.9
-8.600	81156.0
-8.595	81156.0
-8.590	81278.9
-8.585	81352.8
-8.580	81400.8
-8.575	81406.8
-8.570	81437.8
-8.565	81445.8
-8.560	81449.8
-8.555	81450.8
-8.550	81456.8
-8.545	81463.8
-8.540	81473.8
-8.535	81422.8
-8.530	81437.8
-8.525	81447.8
-8.520	81450.8
-8.515	81442.8
-8.510	81440.8
-8.505	81449.8
-8.500	81468.8
-8.495	81477.8
-8.490	81472.8
-8.485	81476.8
-8.480	81495.8
-8.475	81507.8
-8.470	81483.8
-8.465	81481.8
-8.460	81508.8
-8.455	81532.8
-8.450	81540.8
-8.445	81539.8
-8.440	81546.8
-8.435	81554.8
-8.430	81567.8
-8.425	81572.8
-8.420	81575.8
-8.415	81575.8
-8.410	81575.8
-8.405	81565.8
-8.400	81543.8
-8.395	81554.8
-8.390	81581.8
-8.385	81574.8
-8.380	81574.8
-8.375	81568.8
-8.370	81581.8
-8.365	81587.8
-8.360	81600.8
-8.355	81590.8
-8.350	81600.8
-8.345	81603.8
-8.340	81603.8
-8.335	81556.8
-8.330	81559.8
-8.325	81580.8
-8.320	81594.8
-8.315	81593.8
-8.310	81593.8
-8.305	81591.8
-8.300	81592.8
-8.295	81594.8
-8.290	81593.8
-8.285	81591.8
-8.280	81592.8
-8.275	81578.8
-8.270	81552.8
-8.265	81553.8
-8.260	81559.8
-8.255	81572.8
-8.250	81565.8
-8.245	81553.8
-8.240	81551.8
-8.235	81555.8
-8.230	81557.8
-8.225	81539.9
-8.220	81548.9
-8.215	81548.9
-8.210	81549.9
-8.205	81526.9
-8.200	81505.9
-8.195	81521.9
-8.190	81553.9
-8.185	81557.9
-8.180	81565.9
-8.175	81568.9
-8.170	81577.8
-8.165	81567.9
-8.160	81571.9
-8.155	81588.8
-8.150	81598.8
-8.145	81595.8
-8.140	81593.8
-8.135	81561.9
-8.130	81570.9
-8.125	81585.9
-8.120	81602.8
-8.115	81597.9
-8.110	81604.9
-8.105	81601.9
-8.100	81598.9
-8.095	81602.9
-8.090	81616.8
-8.085	81611.9
-8.080	81609.9
-8.075	81618.9
-8.070	81587.9
-8.065	81582.9
-8.060	81600.9
-8.055	81610.9
-8.050	81606.9
-8.045	81607.9
-8.040	81597.9
-8.035	81598.9
-8.030	81592.9
-8.025	81587.9
-8.020	81573.9
-8.015	81567.9
-8.010	81535.9
-8.005	81494.0
-8.000	81463.0
-7.995	81466.0
-7.990	81491.0
-7.985	81466.0
-7.980	81453.0
-7.975	81480.0
-7.970	81507.0
-7.965	81518.0
-7.960	81555.9
-7.955	81570.9
-7.950	81588.9
-7.945	81593.9
-7.940	81588.9
-7.935	81554.9
-7.930	81564.9
-7.925	81578.9
-7.920	81587.9
-7.915	81602.9
-7.910	81606.9
-7.905	81596.9
-7.900	81611.9
-7.895	81610.9
-7.890	81615.9
-7.885	81616.9
-7.880	81626.9
-7.875	81627.9
-7.870	81599.9
-7.865	81597.9
-7.860	81610.9
-7.855	81632.9
-7.850	81633.9
-7.845	81630.9
-7.840	81619.9
-7.835	81633.9
-7.830	81651.9
-7.825	81639.9
-7.820	81648.9
-7.815	81655.9
-7.810	81661.9
-7.805	81635.9
-7.800	81619.9
-7.795	81619.9
-7.790	81642.9
-7.785	81645.9
-7.780	81653.9
-7.775	81647.9
-7.770	81639.9
-7.765	81633.9
-7.760	81625.9
-7.755	81634.9
-7.750	81634.9
-7.745	81622.9
-7.740	81629.9
-7.735	81585.0
-7.730	81598.9
-7.725	81601.9
-7.720	81611.9
-7.715	81600.9
-7.710	81601.9
-7.705	81593.0
-7.700	81591.0
-7.695	81580.0
-7.690	81581.0
-7.685	81581.0
-7.680	81596.0
-7.675	81597.0
-7.670	81566.0
-7.665	81560.0
-7.660	81583.0
-7.655	81603.0
-7.650	81598.0
-7.645	81591.0
-7.640	81596.0
-7.635	81590.0
-7.630	81598.0
-7.625	81604.0
-7.620	81605.0
-7.615	81594.0
-7.610	81595.0
-7.605	81561.0
-7.600	81534.0
-7.595	81547.0
-7.590	81580.0
-7.585	81582.0
-7.580	81585.0
-7.575	81585.0
-7.570	81591.0
-7.565	81584.0
-7.560	81588.0
-7.555	81585.0
-7.550	81587.0
-7.545	81586.0
-7.540	81593.0
-7.535	81577.0
-7.530	81592.0
-7.525	81621.0
-7.520	81649.9
-7.515	81643.9
-7.510	81655.9
-7.505	81664.9
-7.500	81677.9
-7.495	81688.9
-7.490	81690.9
-7.485	81691.9
-7.480	81692.9
-7.475	81690.9
-7.470	81664.9
-7.465	81661.9
-7.460	81687.9
-7.455	81693.9
-7.450	81697.9
-7.445	81685.9
-7.440	81685.9
-7.435	81674.9
-7.430	81682.9
-7.425	81676.9
-7.420	81685.9
-7.415	81681.9
-7.410	81679.9
-7.405	81674.9
-7.400	81655.0
-7.395	81665.0
-7.390	81686.9
-7.385	81687.9
-7.380	81684.9
-7.375	81682.9
-7.370	81696.9
-7.365	81690.9
-7.360	81687.9
-7.355	81693.9
-7.350	81691.9
-7.345	81687.9
-7.340	81680.9
-7.335	81652.0
-7.330	81664.0
-7.325	81680.9
-7.320	81681.9
-7.315	81679.9
-7.310	81687.9
-7.305	81672.0
-7.300	81678.0
-7.295	81673.0
-7.290	81677.0
-7.285	81684.0
-7.280	81686.0
-7.275	81688.0
-7.270	81663.0
-7.265	81664.0
-7.260	81682.0
-7.255	81697.9
-7.250	81700.9
-7.245	81689.0
-7.240	81681.0
-7.235	81693.0
-7.230	81705.9
-7.225	81699.9
-7.220	81699.9
-7.215	81699.9
-7.210	81698.9
-7.205	81680.0
-7.200	81676.0
-7.195	81691.0
-7.190	81710.9
-7.185	81718.9
-7.180	81716.9
-7.175	81711.9
-7.170	81717.9
-7.165	81720.9
-7.160	81740.9
-7.155	81734.9
-7.150	81741.9
-7.145	81738.9
-7.140	81743.9
-7.135	81704.0
-7.130	81721.9
-7.125	81750.9
-7.120	81768.9
-7.115	81760.9
-7.110	81765.9
-7.105	81763.9
-7.100	81775.9
-7.095	81776.9
-7.090	81790.9
-7.085	81787.9
-7.080	81787.9
-7.075	81782.9
-7.070	81752.9
-7.065	81762.9
-7.060	81784.9
-7.055	81801.9
-7.050	81799.9
-7.045	81790.9
-7.040	81802.9
-7.035	81796.9
-7.030	81803.9
-7.025	81808.9
-7.020	81811.9
-7.015	81806.9
-7.010	81812.9
-7.005	81787.9
-7.000	81780.9
-6.995	81789.9
-6.990	81814.9
-6.985	81804.9
-6.980	81804.9
-6.975	81797.9
-6.970	81792.9
-6.965	81782.9
-6.960	81778.9
-6.955	81788.9
-6.950	81773.9
-6.945	81761.9
-6.940	81745.9
-6.935	81712.0
-6.930	81698.0
-6.925	81714.0
-6.920	81733.0
-6.915	81728.0
-6.910	81728.0
-6.905	81739.0
-6.900	81748.9
-6.895	81759.9
-6.890	81774.9
-6.885	81781.9
-6.880	81796.9
-6.875	81795.9
-6.870	81773.9
-6.865	81777.9
-6.860	81794.9
-6.855	81806.9
-6.850	81813.9
-6.845	81803.9
-6.840	81813.9
-6.835	81819.9
-6.830	81818.9
-6.825	81806.9
-6.820	81812.9
-6.815	81809.9
-6.810	81810.9
-6.805	81777.9
-6.800	81772.9
-6.795	81792.9
-6.790	81803.9
-6.785	81787.9
-6.780	81789.9
-6.775	81781.9
-6.770	81786.9
-6.765	81775.9
-6.760	81779.9
-6.755	81794.9
-6.750	81799.9
-6.745	81796.9
-6.740	81783.9
-6.735	81766.9
-6.730	81763.9
-6.725	81784.9
-6.720	81784.9
-6.715	81782.9
-6.710	81783.9
-6.705	81779.9
-6.700	81785.9
-6.695	81776.9
-6.690	81778.9
-6.685	81771.9
-6.680	81782.9
-6.675	81779.9
-6.670	81738.0
-6.665	81732.0
-6.660	81753.0
-6.655	81765.9
-6.650	81764.9
-6.645	81761.0
-6.640	81755.0
-6.635	81756.0
-6.630	81758.0
-6.625	81751.0
-6.620	81751.0
-6.615	81751.0
-6.610	81747.0
-6.605	81711.0
-6.600	81705.0
-6.595	81722.0
-6.590	81748.0
-6.585	81737.0
-6.580	81746.0
-6.575	81736.0
-6.570	81735.0
-6.565	81734.0
-6.560	81745.0
-6.555	81740.0
-6.550	81740.0
-6.545	81738.0
-6.540	81732.0
-6.535	81701.0
-6.530	81713.0
-6.525	81731.0
-6.520	81737.0
-6.515	81725.0
-6.510	81715.0
-6.505	81706.0
-6.500	81720.0
-6.495	81720.0
-6.490	81715.0
-6.485	81720.0
-6.480	81725.0
-6.475	81723.0
-6.470	81688.0
-6.465	81684.0
-6.460	81710.0
-6.455	81715.0
-6.450	81713.0
-6.445	81712.0
-6.440	81716.0
-6.435	81721.0
-6.430	81720.0
-6.425	81725.0
-6.420	81723.0
-6.415	81720.0
-6.410	81723.0
-6.405	81690.0
-6.400	81678.0
-6.395	81700.0
-6.390	81727.0
-6.385	81710.0
-6.380	81712.0
-6.375	81692.0
-6.370	81696.0
-6.365	81698.0
-6.360	81704.0
-6.355	81691.0
-6.350	81702.0
-6.345	81693.0
-6.340	81670.0
-6.335	81640.1
-6.330	81649.1
-6.325	81682.0
-6.320	81683.0
-6.315	81673.0
-6.310	81665.1
-6.305	81659.1
-6.300	81668.0
-6.295	81663.1
-6.290	81660.1
-6.285	81654.1
-6.280	81657.1
-6.275	81648.1
-6.270	81616.1
-6.265	81620.1
-6.260	81632.1
-6.255	81641.1
-6.250	81632.1
-6.245	81631.1
-6.240	81626.1
-6.235	81623.1
-6.230	81632.1
-6.225	81632.1
-6.220	81648.1
-6.215	81655.1
-6.210	81665.1
-6.205	81636.1
-6.200	81633.1
-6.195	81637.1
-6.190	81663.1
-6.185	81659.1
-6.180	81665.1
-6.175	81660.1
-6.170	81653.1
-6.165	81650.1
-6.160	81661.1
-6.155	81662.1
-6.150	81664.1
-6.145	81672.1
-6.140	81663.1
-6.135	81650.1
-6.130	81662.1
-6.125	81688.0
-6.120	81705.0
-6.115	81704.0
-6.110	81710.0
-6.105	81717.0
-6.100	81721.0
-6.095	81717.0
-6.090	81721.0
-6.085	81730.0
-6.080	81728.0
-6.075	81723.0
-6.070	81695.0
-6.065	81694.0
-6.060	81718.0
-6.055	81732.0
-6.050	81732.0
-6.045	81721.0
-6.040	81722.0
-6.035	81723.0
-6.030	81736.0
-6.025	81740.0
-6.020	81738.0
-6.015	81731.0
-6.010	81731.0
-6.005	81700.0
-6.000	81704.0
-5.995	81709.0
-5.990	81736.0
-5.985	81726.0
-5.980	81724.0
-5.975	81712.0
-5.970	81724.0
-5.965	81722.0
-5.960	81729.0
-5.955	81736.0
-5.950	81739.0
-5.945	81729.0
-5.940	81719.0
-5.935	81701.1
-5.930	81697.1
-5.925	81723.0
-5.920	81734.0
-5.915	81730.0
-5.910	81732.0
-5.905	81726.0
-5.900	81747.0
-5.895	81734.0
-5.890	81747.0
-5.885	81743.0
-5.880	81751.0
-5.875	81750.0
-5.870	81717.0
-5.865	81717.0
-5.860	81741.0
-5.855	81744.0
-5.850	81746.0
-5.845	81734.0
-5.840	81735.0
-5.835	81736.0
-5.830	81737.0
-5.825	81742.0
-5.820	81744.0
-5.815	81748.0
-5.810	81747.0
-5.805	81718.0
-5.800	81712.0
-5.795	81733.0
-5.790	81754.0
-5.785	81745.0
-5.780	81744.0
-5.775	81743.0
-5.770	81735.0
-5.765	81740.0
-5.760	81739.0
-5.755	81736.0
-5.750	81742.0
-5.745	81734.0
-5.740	81713.0
-5.735	81697.0
-5.730	81727.9
-5.725	81739.9
-5.720	81740.9
-5.715	81744.9
-5.710	81746.9
-5.705	81737.9
-5.700	81752.9
-5.695	81744.9
-5.690	81764.9
-5.685	81761.9
-5.680	81766.9
-5.675	81751.9
-5.670	81730.0
-5.665	81721.0
-5.660	81748.0
-5.655	81760.0
-5.650	81761.0
-5.645	81750.0
-5.640	81750.0
-5.635	81741.0
-5.630	81742.0
-5.625	81749.0
-5.620	81743.0
-5.615	81738.1
-5.610	81742.1
-5.605	81709.1
-5.600	81715.1
-5.595	81733.1
-5.590	81753.0
-5.585	81736.1
-5.580	81745.0
-5.575	81751.0
-5.570	81733.1
-5.565	81720.1
-5.560	81717.1
-5.555	81719.1
-5.550	81724.1
-5.545	81717.1
-5.540	81708.1
-5.535	81682.1
-5.530	81684.1
-5.525	81711.1
-5.520	81717.1
-5.515	81712.1
-5.510	81710.1
-5.505	81704.1
-5.500	81715.1
-5.495	81713.1
-5.490	81718.1
-5.485	81711.1
-5.480	81696.1
-5.475	81688.1
-5.470	81667.1
-5.465	81663.1
-5.460	81676.1
-5.455	81677.1
-5.450	81654.1
-5.445	81628.2
-5.440	81595.3
-5.435	81562.4
-5.430	81534.6
-5.425	81470.9
-5.420	81406.2
-5.415	81278.6
-5.410	81165.1
-5.405	81028.6
-5.400	80917.2
-5.395	80824.8
-5.390	80746.4
-5.385	80590.2
-5.380	80407.0
-5.375	80333.7
-5.370	80276.3
-5.365	80175.0
-5.360	80047.7
-5.355	80016.2
-5.350	80118.2
-5.345	80309.9
-5.340	80525.4
-5.335	80678.9
-5.330	80834.3
-5.325	80986.8
-5.320	81102.4
-5.315	81165.1
-5.310	81213.8
-5.305	81240.5
-5.300	81294.3
-5.295	81317.1
-5.290	81342.9
-5.285	81339.8
-5.280	81343.7
-5.275	81332.6
-5.270	81307.5
-5.265	81302.4
-5.260	81343.3
-5.255	81369.2
-5.250	81391.1
-5.245	81406.0
-5.240	81440.9
-5.235	81456.8
-5.230	81472.8
-5.225	81469.7
-5.220	81475.6
-5.215	81462.6
-5.210	81483.5
-5.205	81465.5
-5.200	81493.4
-5.195	81528.3
-5.190	81562.3
-5.185	81551.2
-5.180	81549.2
-5.175	81550.1
-5.170	81565.1
-5.165	81565.0
-5.160	81578.0
-5.155	81586.0
-5.150	81600.9
-5.145	81609.9
-5.140	81594.8
-5.135	81573.8
-5.130	81602.8
-5.125	81632.7
-5.120	81635.7
-5.115	81634.7
-5.110	81627.7
-5.105	81616.7
-5.100	81608.7
-5.095	81607.6
-5.090	81616.6
-5.085	81633.6
-5.080	81653.5
-5.075	81640.5
-5.070	81616.5
-5.065	81623.5
-5.060	81654.5
-5.055	81643.4
-5.050	81650.4
-5.045	81645.4
-5.040	81645.4
-5.035	81647.4
-5.030	81656.3
-5.025	81664.3
-5.020	81678.3
-5.015	81684.2
-5.010	81699.2
-5.005	81668.2
-5.000	81676.2
-4.995	81683.2
-4.990	81715.2
-4.985	81707.1
-4.980	81712.1
-4.975	81703.1
-4.970	81707.1
-4.965	81707.1
-4.960	81725.0
-4.955	81724.0
-4.950	81725.0
-4.945	81732.0
-4.940	81701.0
-4.935	81691.0
-4.930	81714.0
-4.925	81740.9
-4.920	81756.9
-4.915	81745.9
-4.910	81744.9
-4.905	81738.9
-4.900	81730.9
-4.895	81737.9
-4.890	81741.9
-4.885	81739.9
-4.880	81746.9
-4.875	81735.9
-4.870	81703.9
-4.865	81709.9
-4.860	81743.8
-4.855	81753.8
-4.850	81759.8
-4.845	81766.8
-4.840	81767.8
-4.835	81751.8
-4.830	81743.8
-4.825	81756.8
-4.820	81771.8
-4.815	81769.7
-4.810	81778.7
-4.805	81744.7
-4.800	81745.7
-4.795	81758.7
-4.790	81772.7
-4.785	81769.7
-4.780	81765.7
-4.775	81746.7
-4.770	81752.7
-4.765	81744.7
-4.760	81744.7
-4.755	81739.6
-4.750	81753.6
-4.745	81754.6
-4.740	81748.6
-4.735	81742.6
-4.730	81752.6
-4.725	81770.6
-4.720	81767.6
-4.715	81755.6
-4.710	81732.6
-4.705	81736.6
-4.700	81762.6
-4.695	81758.6
-4.690	81755.6
-4.685	81759.6
-4.680	81741.6
-4.675	81731.6
-4.670	81719.6
-4.665	81720.5
-4.660	81748.5
-4.655	81746.5
-4.650	81748.5
-4.645	81746.5
-4.640	81731.5
-4.635	81723.5
-4.630	81738.5
-4.625	81736.5
-4.620	81747.5
-4.615	81744.5
-4.610	81731.5
-4.605	81688.5
-4.600	81715.5
-4.595	81732.5
-4.590	81746.5
-4.585	81735.5
-4.580	81736.4
-4.575	81729.4
-4.570	81729.4
-4.565	81719.4
-4.560	81721.4
-4.555	81720.4
-4.550	81730.4
-4.545	81734.4
-4.540	81726.4
-4.535	81699.4
-4.530	81705.4
-4.525	81718.4
-4.520	81728.4
-4.515	81726.4
-4.510	81723.4
-4.505	81705.4
-4.500	81698.4
-4.495	81693.4
-4.490	81704.4
-4.485	81717.4
-4.480	81717.3
-4.475	81692.4
-4.470	81666.4
-4.465	81674.4
-4.460	81703.4
-4.455	81702.3
-4.450	81698.4
-4.445	81692.4
-4.440	81709.3
-4.435	81709.3
-4.430	81711.3
-4.425	81716.3
-4.420	81716.3
-4.415	81725.3
-4.410	81725.3
-4.405	81689.3
-4.400	81704.3
-4.395	81738.3
-4.390	81743.2
-4.385	81731.3
-4.380	81732.3
-4.375	81725.3
-4.370	81721.3
-4.365	81722.3
-4.360	81735.2
-4.355	81735.2
-4.350	81748.2
-4.345	81728.2
-4.340	81706.2
-4.335	81695.3
-4.330	81728.2
-4.325	81761.2
-4.320	81772.2
-4.315	81763.2
-4.310	81776.2
-4.305	81768.2
-4.300	81779.2
-4.295	81754.2
-4.290	81761.2
-4.285	81763.2
-4.280	81776.2
-4.275	81769.2
-4.270	81751.2
-4.265	81760.2
-4.260	81790.1
-4.255	81793.1
-4.250	81796.1
-4.245	81801.1
-4.240	81806.1
-4.235	81801.1
-4.230	81812.1
-4.225	81822.1
-4.220	81832.1
-4.215	81820.1
-4.210	81821.1
-4.205	81796.1
-4.200	81798.1
-4.195	81806.1
-4.190	81815.1
-4.185	81806.1
-4.180	81809.1
-4.175	81798.0
-4.170	81798.0
-4.165	81799.0
-4.160	81806.0
-4.155	81803.9
-4.150	81791.8
-4.145	81770.7
-4.140	81740.6
-4.135	81724.3
-4.130	81730.1
-4.125	81732.7
-4.120	81715.3
-4.115	81676.9
-4.110	81643.4
-4.105	81591.9
-4.100	81568.3
-4.095	81522.7
-4.090	81478.0
-4.085	81431.4
-4.080	81413.7
-4.075	81369.1
-4.070	81294.6
-4.065	81256.2
-4.060	81359.8
-4.055	81434.7
-4.050	81470.8
-4.045	81490.1
-4.040	81523.5
-4.035	81593.9
-4.030	81666.3
-4.025	81751.6
-4.020	81870.8
-4.015	81902.1
-4.010	81889.4
-4.005	81852.6
-4.000	81882.8
-3.995	81912.9
-3.990	81929.1
-3.985	81916.2
-3.980	81916.3
-3.975	81881.5
-3.970	81877.6
-3.965	81908.6
-3.960	81885.7
-3.955	81868.8
-3.950	81847.9
-3.945	81849.0
-3.940	81843.1
-3.935	81802.2
-3.930	81761.3
-3.925	81755.3
-3.920	81747.4
-3.915	81736.4
-3.910	81721.5
-3.905	81690.6
-3.900	81635.8
-3.895	81577.0
-3.890	81392.1
-3.885	81186.2
-3.880	81275.2
-3.875	81386.1
-3.870	81204.2
-3.865	81166.1
-3.860	81483.9
-3.855	81642.8
-3.850	81464.1
-3.845	81262.4
-3.840	81320.4
-3.835	81474.2
-3.830	81613.1
-3.825	81648.1
-3.820	81689.2
-3.815	81768.2
-3.810	81808.2
-3.805	81720.3
-3.800	81683.3
-3.795	81674.3
-3.790	81651.4
-3.785	81573.5
-3.780	81451.6
-3.775	81334.7
-3.770	81375.7
-3.765	81502.6
-3.760	81647.5
-3.755	81725.5
-3.750	81756.5
-3.745	81731.5
-3.740	81649.6
-3.735	81600.7
-3.730	81590.7
-3.725	81624.7
-3.720	81625.7
-3.715	81617.7
-3.710	81628.7
-3.705	81637.7
-3.700	81638.7
-3.695	81616.8
-3.690	81622.8
-3.685	81636.8
-3.680	81661.8
-3.675	81634.8
-3.670	81629.8
-3.665	81634.8
-3.660	81629.9
-3.655	81608.9
-3.650	81601.9
-3.645	81617.9
-3.640	81636.9
-3.635	81648.9
-3.630	81658.9
-3.625	81657.9
-3.620	81672.9
-3.615	81674.0
-3.610	81697.0
-3.605	81657.0
-3.600	81675.0
-3.595	81656.1
-3.590	81607.1
-3.585	81595.2
-3.580	81637.2
-3.575	81648.2
-3.570	81684.3
-3.565	81711.3
-3.560	81681.3
-3.555	81660.4
-3.550	81613.5
-3.545	81542.6
-3.540	81466.8
-3.535	81492.8
-3.530	81538.9
-3.525	81557.9
-3.520	81635.9
-3.515	81671.0
-3.510	81627.0
-3.505	81564.2
-3.500	81580.2
-3.495	81639.2
-3.490	81722.2
-3.485	81762.2
-3.480	81798.2
-3.475	81829.2
-3.470	81856.2
-3.465	81870.2
-3.460	81859.2
-3.455	81827.2
-3.450	81821.2
-3.445	81821.2
-3.440	81839.2
-3.435	81857.2
-3.430	81876.2
-3.425	81862.3
-3.420	81830.3
-3.415	81769.4
-3.410	81806.5
-3.405	81858.5
-3.400	81931.5
-3.395	81967.6
-3.390	81904.7
-3.385	81800.9
-3.380	81809.0
-3.375	81864.1
-3.370	81909.2
-3.365	81875.3
-3.360	81820.5
-3.355	81754.5
-3.350	81722.5
-3.345	81735.5
-3.340	81710.4
-3.335	81712.4
-3.330	81737.3
-3.325	81734.3
-3.320	81722.3
-3.315	81724.2
-3.310	81741.2
-3.305	81768.2
-3.300	81785.2
-3.295	81782.1
-3.290	81782.1
-3.285	81762.1
-3.280	81732.2
-3.275	81668.2
-3.270	81619.3
-3.265	81615.3
-3.260	81642.2
-3.255	81638.3
-3.250	81667.2
-3.245	81674.2
-3.240	81694.2
-3.235	81678.3
-3.230	81667.3
-3.225	81654.3
-3.220	81648.3
-3.215	81639.3
-3.210	81640.3
-3.205	81594.4
-3.200	81580.4
-3.195	81571.4
-3.190	81569.4
-3.185	81552.5
-3.180	81562.5
-3.175	81559.5
-3.170	81549.5
-3.165	81519.5
-3.160	81509.6
-3.155	81503.6
-3.150	81491.6
-3.145	81449.6
-3.140	81400.7
-3.135	81357.7
-3.130	81345.7
-3.125	81354.7
-3.120	81359.7
-3.115	81375.7
-3.110	81392.7
-3.105	81384.7
-3.100	81387.7
-3.095	81373.7
-3.090	81359.7
-3.085	81346.8
-3.080	81337.8
-3.075	81311.8
-3.070	81290.8
-3.065	81270.9
-3.060	81267.9
-3.055	81191.8
-3.050	81007.8
-3.045	80926.9
-3.040	81125.0
-3.035	81396.9
-3.030	81641.7
-3.025	81852.5
-3.020	82028.3
-3.015	82037.3
-3.010	81909.6
-3.005	81665.8
-3.000	81450.9
-2.995	81296.0
-2.990	81180.1
-2.985	81135.2
-2.980	81214.1
-2.975	81309.0
-2.970	81356.0
-2.965	81361.0
-2.960	81411.0
-2.955	81499.9
-2.950	81529.8
-2.945	81442.9
-2.940	81323.1
-2.935	81279.1
-2.930	81264.1
-2.925	81251.1
-2.920	81293.2
-2.915	81381.1
-2.910	81413.0
-2.905	81392.1
-2.900	81395.1
-2.895	81429.0
-2.890	81492.0
-2.885	81510.0
-2.880	81508.1
-2.875	81485.1
-2.870	81486.1
-2.865	81553.0
-2.860	81647.0
-2.855	81688.9
-2.850	81702.9
-2.845	81669.0
-2.840	81638.0
-2.835	81613.0
-2.830	81625.0
-2.825	81618.0
-2.820	81586.0
-2.815	81557.0
-2.810	81527.1
-2.805	81478.1
-2.800	81464.1
-2.795	81468.1
-2.790	81439.1
-2.785	81448.2
-2.780	81532.1
-2.775	81594.1
-2.770	81649.0
-2.765	81665.0
-2.760	81651.0
-2.755	81630.1
-2.750	81626.1
-2.745	81612.1
-2.740	81559.2
-2.735	81510.2
-2.730	81509.2
-2.725	81537.2
-2.720	81555.2
-2.715	81539.2
-2.710	81507.2
-2.705	81521.3
-2.700	81641.2
-2.695	81706.2
-2.690	81740.1
-2.685	81754.1
-2.680	81786.1
-2.675	81783.1
-2.670	81801.1
-2.665	81824.1
-2.660	81797.1
-2.655	81713.2
-2.650	81643.3
-2.645	81580.3
-2.640	81527.4
-2.635	81501.4
-2.630	81548.3
-2.625	81555.3
-2.620	81554.3
-2.615	81530.3
-2.610	81534.4
-2.605	81541.4
-2.600	81542.3
-2.595	81526.3
-2.590	81505.3
-2.585	81525.3
-2.580	81523.4
-2.575	81499.4
-2.570	81524.4
-2.565	81574.4
-2.560	81624.3
-2.555	81669.3
-2.550	81681.3
-2.545	81644.3
-2.540	81614.4
-2.535	81639.3
-2.530	81693.3
-2.525	81697.3
-2.520	81687.3
-2.515	81661.3
-2.510	81645.3
-2.505	81577.4
-2.500	81517.4
-2.495	81504.4
-2.490	81537.4
-2.485	81552.4
-2.480	81533.4
-2.475	81519.4
-2.470	81549.4
-2.465	81610.4
-2.460	81650.4
-2.455	81626.4
-2.450	81605.4
-2.445	81593.4
-2.440	81608.4
-2.435	81603.4
-2.430	81590.4
-2.425	81566.4
-2.420	81586.4
-2.415	81590.4
-2.410	81582.4
-2.405	81559.5
-2.400	81571.5
-2.395	81597.5
-2.390	81586.5
-2.385	81562.5
-2.380	81524.5
-2.375	81496.5
-2.370	81474.6
-2.365	81480.6
-2.360	81528.5
-2.355	81582.5
-2.350	81615.5
-2.345	81601.5
-2.340	81554.5
-2.335	81541.5
-2.330	81560.5
-2.325	81551.5
-2.320	81546.5
-2.315	81537.5
-2.310	81540.5
-2.305	81561.5
-2.300	81573.5
-2.295	81559.5
-2.290	81527.5
-2.285	81494.5
-2.280	81499.5
-2.275	81513.5
-2.270	81533.5
-2.265	81577.5
-2.260	81584.5
-2.255	81576.5
-2.250	81581.5
-2.245	81567.5
-2.240	81584.5
-2.235	81588.5
-2.230	81586.4
-2.225	81591.4
-2.220	81579.4
-2.215	81561.5
-2.210	81559.5
-2.205	81551.5
-2.200	81571.5
-2.195	81590.5
-2.190	81592.5
-2.185	81580.5
-2.180	81575.5
-2.175	81571.5
-2.170	81581.5
-2.165	81576.5
-2.160	81597.5
-2.155	81616.5
-2.150	81631.5
-2.145	81623.5
-2.140	81599.5
-2.135	81594.5
-2.130	81612.5
-2.125	81616.5
-2.120	81623.5
-2.115	81593.5
-2.110	81589.5
-2.105	81586.5
-2.100	81580.5
-2.095	81569.5
-2.090	81570.5
-2.085	81568.5
-2.080	81575.5
-2.075	81566.5
-2.070	81579.5
-2.065	81602.5
-2.060	81636.4
-2.055	81639.4
-2.050	81643.4
-2.045	81646.5
-2.040	81658.4
-2.035	81637.5
-2.030	81635.5
-2.025	81631.5
-2.020	81632.5
-2.015	81615.5
-2.010	81587.5
-2.005	81562.5
-2.000	81592.5
-1.995	81633.5
-1.990	81641.5
-1.985	81639.5
-1.980	81639.5
-1.975	81619.5
-1.970	81607.5
-1.965	81586.5
-1.960	81578.5
-1.955	81554.5
-1.950	81558.5
-1.945	81560.5
-1.940	81533.5
-1.935	81530.5
-1.930	81546.4
-1.925	81552.4
-1.920	81560.4
-1.915	81592.4
-1.910	81629.4
-1.905	81659.3
-1.900	81673.3
-1.895	81668.3
-1.890	81664.4
-1.885	81670.4
-1.880	81672.4
-1.875	81633.4
-1.870	81621.4
-1.865	81624.4
-1.860	81642.4
-1.855	81636.4
-1.850	81627.4
-1.845	81625.4
-1.840	81638.4
-1.835	81656.4
-1.830	81651.4
-1.825	81643.4
-1.820	81623.4
-1.815	81597.5
-1.810	81576.5
-1.805	81539.5
-1.800	81565.5
-1.795	81577.4
-1.790	81583.4
-1.785	81585.4
-1.780	81592.4
-1.775	81586.4
-1.770	81600.4
-1.765	81606.3
-1.760	81597.3
-1.755	81603.3
-1.750	81620.3
-1.745	81623.3
-1.740	81603.3
-1.735	81623.2
-1.730	81654.2
-1.725	81665.2
-1.720	81681.2
-1.715	81674.2
-1.710	81682.2
-1.705	81681.3
-1.700	81683.3
-1.695	81689.3
-1.690	81696.3
-1.685	81682.3
-1.680	81669.3
-1.675	81630.3
-1.670	81620.3
-1.665	81637.3
-1.660	81656.3
-1.655	81648.3
-1.650	81653.3
-1.645	81655.3
-1.640	81656.3
-1.635	81657.3
-1.630	81654.3
-1.625	81648.3
-1.620	81648.3
-1.615	81643.3
-1.610	81615.3
-1.605	81579.3
-1.600	81601.3
-1.595	81616.3
-1.590	81605.3
-1.585	81582.3
-1.580	81567.3
-1.575	81555.3
-1.570	81544.3
-1.565	81542.3
-1.560	81539.2
-1.555	81540.2
-1.550	81540.2
-1.545	81539.2
-1.540	81521.2
-1.535	81522.2
-1.530	81559.2
-1.525	81558.2
-1.520	81559.2
-1.515	81557.2
-1.510	81561.2
-1.505	81544.2
-1.500	81549.2
-1.495	81561.2
-1.490	81568.1
-1.485	81568.1
-1.480	81575.1
-1.475	81542.1
-1.470	81545.1
-1.465	81574.1
-1.460	81568.1
-1.455	81560.1
-1.450	81578.1
-1.445	81599.1
-1.440	81641.1
-1.435	81665.0
-1.430	81684.0
-1.425	81702.0
-1.420	81719.0
-1.415	81723.0
-1.410	81712.0
-1.405	81689.0
-1.400	81713.0
-1.395	81745.0
-1.390	81765.0
-1.385	81774.0
-1.380	81783.9
-1.375	81783.9
-1.370	81766.9
-1.365	81773.9
-1.360	81778.9
-1.355	81777.9
-1.350	81777.9
-1.345	81764.9
-1.340	81729.9
-1.335	81733.9
-1.330	81753.8
-1.325	81740.8
-1.320	81726.8
-1.315	81706.9
-1.310	81711.8
-1.305	81686.9
-1.300	81680.9
-1.295	81675.9
-1.290	81673.9
-1.285	81673.9
-1.280	81679.9
-1.275	81652.9
-1.270	81658.9
-1.265	81680.9
-1.260	81706.9
-1.255	81693.9
-1.250	81700.9
-1.245	81684.9
-1.240	81682.9
-1.235	81675.9
-1.230	81681.8
-1.225	81665.8
-1.220	81657.8
-1.215	81661.8
-1.210	81649.8
-1.205	81640.8
-1.200	81649.8
-1.195	81690.8
-1.190	81695.8
-1.185	81702.8
-1.180	81718.8
-1.175	81717.8
-1.170	81716.8
-1.165	81719.8
-1.160	81715.8
-1.155	81715.8
-1.150	81728.8
-1.145	81720.8
-1.140	81695.8
-1.135	81687.8
-1.130	81723.8
-1.125	81713.7
-1.120	81721.7
-1.115	81719.7
-1.110	81705.7
-1.105	81697.7
-1.100	81687.7
-1.095	81672.7
-1.090	81664.7
-1.085	81647.7
-1.080	81643.7
-1.075	81596.7
-1.070	81602.7
-1.065	81608.7
-1.060	81650.6
-1.055	81655.6
-1.050	81674.6
-1.045	81675.6
-1.040	81689.6
-1.035	81679.6
-1.030	81689.6
-1.025	81696.6
-1.020	81699.6
-1.015	81698.6
-1.010	81677.6
-1.005	81652.6
-1.000	81686.6
-0.995	81712.6
-0.990	81720.6
-0.985	81716.5
-0.980	81720.5
-0.975	81727.5
-0.970	81730.5
-0.965	81719.5
-0.960	81715.5
-0.955	81715.5
-0.950	81695.5
-0.945	81679.5
-0.940	81647.5
-0.935	81653.5
-0.930	81671.5
-0.925	81670.5
-0.920	81671.5
-0.915	81651.5
-0.910	81648.5
-0.905	81636.5
-0.900	81645.5
-0.895	81645.5
-0.890	81651.5
-0.885	81651.5
-0.880	81650.4
-0.875	81612.5
-0.870	81603.5
-0.865	81622.5
-0.860	81649.4
-0.855	81642.4
-0.850	81652.4
-0.845	81656.4
-0.840	81664.4
-0.835	81663.4
-0.830	81669.4
-0.825	81664.4
-0.820	81664.4
-0.815	81656.4
-0.810	81622.4
-0.805	81608.4
-0.800	81621.4
-0.795	81629.4
-0.790	81610.4
-0.785	81601.4
-0.780	81594.4
-0.775	81601.3
-0.770	81595.3
-0.765	81584.3
-0.760	81576.3
-0.755	81593.3
-0.750	81578.3
-0.745	81567.3
-0.740	81547.3
-0.735	81544.3
-0.730	81571.3
-0.725	81576.3
-0.720	81579.3
-0.715	81566.3
-0.710	81568.3
-0.705	81558.3
-0.700	81567.3
-0.695	81569.2
-0.690	81585.2
-0.685	81577.2
-0.680	81563.2
-0.675	81521.3
-0.670	81522.2
-0.665	81538.2
-0.660	81533.2
-0.655	81526.2
-0.650	81528.2
-0.645	81522.2
-0.640	81536.2
-0.635	81538.2
-0.630	81560.2
-0.625	81568.1
-0.620	81586.1
-0.615	81593.1
-0.610	81564.1
-0.605	81539.1
-0.600	81553.1
-0.595	81574.1
-0.590	81575.1
-0.585	81579.1
-0.580	81578.1
-0.575	81574.1
-0.570	81560.1
-0.565	81569.1
-0.560	81573.1
-0.555	81575.1
-0.550	81568.1
-0.545	81546.1
-0.540	81517.1
-0.535	81528.1
-0.530	81553.1
-0.525	81556.1
-0.520	81557.0
-0.515	81548.0
-0.510	81543.1
-0.505	81531.1
-0.500	81556.0
-0.495	81563.0
-0.490	81571.0
-0.485	81583.0
-0.480	81601.0
-0.475	81580.0
-0.470	81601.0
-0.465	81630.9
-0.460	81652.9
-0.455	81637.9
-0.450	81618.9
-0.445	81609.9
-0.440	81608.9
-0.435	81608.9
-0.430	81617.9
-0.425	81600.9
-0.420	81607.9
-0.415	81608.9
-0.410	81596.8
-0.405	81594.8
-0.400	81615.8
-0.395	81618.8
-0.390	81594.8
-0.385	81571.8
-0.380	81559.8
-0.375	81573.8
-0.370	81569.8
-0.365	81566.8
-0.360	81573.8
-0.355	81578.8
-0.350	81596.7
-0.345	81604.7
-0.340	81601.7
-0.335	81611.7
-0.330	81656.7
-0.325	81664.7
-0.320	81670.7
-0.315	81662.7
-0.310	81674.6
-0.305	81682.6
-0.300	81700.6
-0.295	81696.6
-0.290	81679.6
-0.285	81675.6
-0.280	81669.6
-0.275	81640.6
-0.270	81648.6
-0.265	81663.6
-0.260	81677.6
-0.255	81662.6
-0.250	81632.6
-0.245	81600.6
-0.240	81624.6
-0.235	81626.6
-0.230	81633.6
-0.225	81626.6
-0.220	81645.6
-0.215	81660.6
-0.210	81649.6
-0.205	81635.6
-0.200	81630.6
-0.195	81628.6
-0.190	81623.6
-0.185	81635.5
-0.180	81659.5
-0.175	81683.5
-0.170	81735.5
-0.165	81742.5
-0.160	81730.6
-0.155	81695.6
-0.150	81675.6
-0.145	81656.6
-0.140	81645.6
-0.135	81650.6
-0.130	81683.6
-0.125	81689.6
-0.120	81680.5
-0.115	81648.5
-0.110	81646.4
-0.105	81686.3
-0.100	81715.2
-0.095	81692.1
-0.090	81651.0
-0.085	81613.9
-0.080	81583.8
-0.075	81477.8
-0.070	81453.8
-0.065	81520.7
-0.060	81618.7
-0.055	81617.9
-0.050	81646.0
-0.045	81694.1
-0.040	81698.3
-0.035	81647.6
-0.030	81648.8
-0.025	81712.9
-0.020	81741.0
-0.015	81692.0
-0.010	81579.1
-0.005	81511.0
0.000	81502.9
0.005	81522.7
0.010	81559.5
0.015	81595.3
0.020	81673.1
0.025	81724.9
0.030	81712.9
0.035	81678.8
0.040	81667.8
0.045	81666.9
0.050	81665.9
0.055	81659.0
0.060	81651.0
0.065	81671.0
0.070	81693.1
0.075	81693.1
0.080	81699.1
0.085	81706.1
0.090	81692.1
0.095	81679.1
0.100	81684.1
0.105	81708.0
0.110	81723.0
0.115	81715.0
0.120	81701.0
0.125	81662.0
0.130	81648.0
0.135	81653.0
0.140	81673.0
0.145	81678.0
0.150	81684.9
0.155	81665.9
0.160	81679.9
0.165	81683.9
0.170	81686.9
0.175	81679.9
0.180	81668.9
0.185	81663.9
0.190	81652.9
0.195	81645.9
0.200	81662.9
0.205	81654.9
0.210	81659.9
0.215	81663.8
0.220	81662.8
0.225	81640.9
0.230	81637.8
0.235	81631.9
0.240	81654.8
0.245	81663.8
0.250	81663.8
0.255	81647.8
0.260	81644.8
0.265	81650.8
0.270	81678.8
0.275	81648.8
0.280	81642.8
0.285	81638.8
0.290	81645.8
0.295	81648.8
0.300	81662.8
0.305	81670.8
0.310	81687.8
0.315	81685.8
0.320	81663.8
0.325	81620.8
0.330	81603.8
0.335	81593.8
0.340	81594.8
0.345	81585.8
0.350	81599.8
0.355	81622.8
0.360	81642.7
0.365	81641.7
0.370	81673.7
0.375	81680.7
0.380	81699.7
0.385	81694.7
0.390	81642.7
0.395	81641.7
0.400	81669.7
0.405	81677.7
0.410	81667.7
0.415	81655.7
0.420	81655.7
0.425	81644.6
0.430	81655.6
0.435	81661.6
0.440	81682.6
0.445	81689.6
0.450	81698.6
0.455	81684.6
0.460	81667.6
0.465	81678.6
0.470	81687.5
0.475	81679.5
0.480	81671.5
0.485	81666.5
0.490	81671.5
0.495	81678.5
0.500	81703.5
0.505	81710.4
0.510	81723.4
0.515	81717.4
0.520	81709.4
0.525	81669.4
0.530	81663.4
0.535	81663.4
0.540	81658.4
0.545	81643.4
0.550	81656.4
0.555	81649.4
0.560	81657.4
0.565	81661.4
0.570	81667.4
0.575	81664.4
0.580	81675.4
0.585	81671.4
0.590	81638.4
0.595	81637.4
0.600	81646.4
0.605	81674.3
0.610	81684.3
0.615	81679.3
0.620	81684.3
0.625	81686.3
0.630	81694.3
0.635	81715.3
0.640	81722.3
0.645	81712.3
0.650	81720.2
0.655	81686.3
0.660	81665.3
0.665	81685.3
0.670	81713.2
0.675	81694.3
0.680	81701.2
0.685	81686.3
0.690	81688.3
0.695	81689.2
0.700	81686.3
0.705	81690.2
0.710	81676.3
0.715	81665.3
0.720	81673.2
0.725	81642.3
0.730	81662.2
0.735	81682.2
0.740	81686.2
0.745	81684.2
0.750	81688.2
0.755	81685.2
0.760	81683.2
0.765	81676.2
0.770	81676.2
0.775	81662.2
0.780	81669.2
0.785	81659.1
0.790	81623.2
0.795	81621.2
0.800	81650.1
0.805	81664.1
0.810	81659.1
0.815	81653.1
0.820	81654.1
0.825	81653.1
0.830	81653.1
0.835	81642.1
0.840	81643.1
0.845	81640.1
0.850	81656.0
0.855	81629.0
0.860	81624.0
0.865	81612.0
0.870	81645.0
0.875	81629.0
0.880	81636.0
0.885	81631.0
0.890	81642.0
0.895	81657.9
0.900	81662.9
0.905	81678.9
0.910	81674.9
0.915	81673.9
0.920	81662.9
0.925	81647.9
0.930	81650.9
0.935	81678.9
0.940	81692.9
0.945	81680.9
0.950	81692.9
0.955	81684.9
0.960	81684.9
0.965	81676.9
0.970	81683.9
0.975	81683.9
0.980	81702.9
0.985	81702.9
0.990	81677.9
0.995	81679.9
1.000	81690.9
1.005	81699.9
1.010	81691.9
1.015	81696.8
1.020	81693.8
1.025	81677.8
1.030	81677.8
1.035	81679.8
1.040	81683.8
1.045	81674.8
1.050	81669.8
1.055	81645.8
1.060	81633.8
1.065	81639.8
1.070	81651.8
1.075	81641.8
1.080	81621.8
1.085	81617.8
1.090	81604.8
1.095	81602.8
1.100	81598.8
1.105	81593.8
1.110	81600.8
1.115	81589.8
1.120	81589.8
1.125	81568.8
1.130	81591.8
1.135	81620.8
1.140	81640.7
1.145	81631.7
1.150	81632.7
1.155	81631.7
1.160	81638.7
1.165	81637.7
1.170	81655.7
1.175	81659.7
1.180	81662.6
1.185	81652.6
1.190	81615.7
1.195	81616.6
1.200	81644.6
1.205	81647.6
1.210	81639.6
1.215	81627.6
1.220	81630.6
1.225	81631.6
1.230	81644.6
1.235	81647.6
1.240	81657.6
1.245	81656.6
1.250	81683.6
1.255	81646.6
1.260	81632.6
1.265	81638.6
1.270	81674.6
1.275	81672.6
1.280	81667.6
1.285	81666.6
1.290	81671.6
1.295	81676.5
1.300	81701.5
1.305	81702.5
1.310	81685.5
1.315	81673.5
1.320	81647.5
1.325	81601.6
1.330	81601.6
1.335	81622.5
1.340	81646.5
1.345	81653.5
1.350	81628.6
1.355	81604.6
1.360	81578.6
1.365	81586.6
1.370	81601.6
1.375	81636.6
1.380	81666.6
1.385	81678.5
1.390	81675.5
1.395	81680.5
1.400	81715.5
1.405	81727.5
1.410	81741.4
1.415	81725.4
1.420	81715.4
1.425	81722.4
1.430	81714.4
1.435	81713.4
1.440	81719.4
1.445	81712.4
1.450	81716.3
1.455	81676.4
1.460	81674.4
1.465	81693.3
1.470	81712.3
1.475	81701.3
1.480	81697.3
1.485	81682.3
1.490	81686.3
1.495	81683.3
1.500	81697.3
1.505	81707.3
1.510	81708.3
1.515	81719.3
1.520	81712.3
1.525	81695.3
1.530	81698.3
1.535	81729.3
1.540	81728.2
1.545	81730.2
1.550	81736.2
1.555	81738.2
1.560	81751.2
1.565	81736.2
1.570	81728.2
1.575	81725.2
1.580	81706.3
1.585	81705.3
1.590	81673.3
1.595	81686.3
1.600	81734.3
1.605	81749.2
1.610	81759.2
1.615	81761.2
1.620	81744.2
1.625	81743.2
1.630	81745.2
1.635	81735.2
1.640	81742.2
1.645	81722.2
1.650	81733.2
1.655	81699.2
1.660	81685.2
1.665	81687.2
1.670	81726.2
1.675	81717.2
1.680	81726.2
1.685	81721.2
1.690	81731.2
1.695	81740.2
1.700	81760.1
1.705	81758.1
1.710	81744.1
1.715	81735.1
1.720	81713.2
1.725	81697.2
1.730	81727.1
1.735	81769.1
1.740	81784.1
1.745	81768.1
1.750	81772.1
1.755	81759.1
1.760	81733.1
1.765	81720.1
1.770	81716.2
1.775	81701.2
1.780	81698.2
1.785	81705.2
1.790	81681.2
1.795	81680.2
1.800	81720.2
1.805	81735.2
1.810	81729.2
1.815	81730.2
1.820	81727.1
1.825	81720.1
1.830	81727.1
1.835	81732.1
1.840	81759.1
1.845	81762.0
1.850	81757.0
1.855	81712.1
1.860	81701.1
1.865	81715.1
1.870	81735.0
1.875	81730.0
1.880	81737.0
1.885	81729.1
1.890	81727.1
1.895	81719.1
1.900	81726.1
1.905	81742.0
1.910	81743.0
1.915	81757.0
1.920	81763.0
1.925	81752.0
1.930	81741.1
1.935	81745.1
1.940	81723.1
1.945	81703.1
1.950	81707.1
1.955	81700.1
1.960	81708.1
1.965	81714.1
1.970	81734.1
1.975	81747.1
1.980	81769.0
1.985	81764.0
1.990	81710.1
1.995	81709.0
2.000	81717.0
2.005	81721.0
2.010	81731.0
2.015	81736.0
2.020	81738.0
2.025	81732.0
2.030	81731.0
2.035	81721.0
2.040	81717.0
2.045	81712.0
2.050	81717.0
2.055	81691.0
2.060	81687.0
2.065	81697.0
2.070	81740.0
2.075	81745.0
2.080	81744.0
2.085	81745.0
2.090	81734.0
2.095	81719.1
2.100	81698.1
2.105	81669.1
2.110	81667.1
2.115	81668.2
2.120	81661.2
2.125	81662.2
2.130	81694.2
2.135	81733.1
2.140	81738.1
2.145	81720.1
2.150	81710.1
2.155	81700.1
2.160	81699.1
2.165	81690.1
2.170	81686.1
2.175	81670.1
2.180	81680.1
2.185	81679.1
2.190	81658.1
2.195	81637.1
2.200	81628.1
2.205	81621.1
2.210	81624.1
2.215	81642.1
2.220	81658.1
2.225	81656.1
2.230	81653.1
2.235	81633.1
2.240	81648.1
2.245	81633.2
2.250	81628.2
2.255	81578.2
2.260	81567.2
2.265	81597.2
2.270	81652.2
2.275	81655.1
2.280	81646.1
2.285	81630.1
2.290	81620.1
2.295	81616.1
2.300	81631.1
2.305	81626.1
2.310	81609.1
2.315	81606.1
2.320	81579.1
2.325	81571.1
2.330	81598.1
2.335	81609.1
2.340	81609.1
2.345	81596.1
2.350	81596.1
2.355	81592.1
2.360	81604.1
2.365	81613.1
2.370	81620.1
2.375	81616.1
2.380	81592.2
2.385	81568.2
2.390	81515.3
2.395	81521.3
2.400	81565.3
2.405	81593.2
2.410	81598.2
2.415	81600.2
2.420	81602.2
2.425	81596.3
2.430	81589.3
2.435	81586.3
2.440	81576.3
2.445	81556.3
2.450	81558.3
2.455	81536.3
2.460	81554.3
2.465	81576.3
2.470	81599.2
2.475	81600.2
2.480	81610.2
2.485	81600.2
2.490	81617.2
2.495	81605.2
2.500	81592.3
2.505	81587.3
2.510	81582.3
2.515	81570.3
2.520	81529.3
2.525	81514.4
2.530	81542.3
2.535	81581.3
2.540	81579.3
2.545	81570.3
2.550	81579.3
2.555	81555.4
2.560	81544.4
2.565	81517.4
2.570	81497.4
2.575	81500.4
2.580	81536.4
2.585	81555.4
2.590	81574.4
2.595	81593.3
2.600	81617.3
2.605	81622.3
2.610	81619.3
2.615	81606.3
2.620	81603.3
2.625	81609.3
2.630	81594.3
2.635	81584.3
2.640	81599.3
2.645	81608.3
2.650	81605.3
2.655	81555.4
2.660	81566.4
2.665	81578.4
2.670	81596.4
2.675	81588.4
2.680	81591.4
2.685	81580.5
2.690	81582.5
2.695	81593.5
2.700	81615.5
2.705	81616.5
2.710	81615.5
2.715	81602.5
2.720	81580.5
2.725	81547.5
2.730	81569.5
2.735	81587.5
2.740	81593.5
2.745	81591.5
2.750	81612.5
2.755	81607.6
2.760	81616.6
2.765	81590.6
2.770	81588.6
2.775	81587.6
2.780	81579.6
2.785	81564.6
2.790	81526.7
2.795	81522.7
2.800	81559.6
2.805	81596.6
2.810	81605.6
2.815	81594.6
2.820	81595.6
2.825	81595.6
2.830	81623.6
2.835	81608.6
2.840	81593.6
2.845	81586.6
2.850	81598.6
2.855	81554.6
2.860	81535.7
2.865	81538.7
2.870	81570.7
2.875	81578.7
2.880	81587.7
2.885	81610.7
2.890	81602.7
2.895	81613.7
2.900	81619.7
2.905	81608.7
2.910	81588.8
2.915	81567.8
2.920	81540.8
2.925	81528.8
2.930	81550.8
2.935	81580.8
2.940	81595.8
2.945	81601.8
2.950	81607.8
2.955	81618.8
2.960	81621.8
2.965	81604.8
2.970	81592.9
2.975	81581.9
2.980	81591.9
2.985	81572.9
2.990	81543.9
2.995	81536.9
3.000	81566.9
3.005	81589.9
3.010	81604.9
3.015	81600.9
3.020	81613.9
3.025	81634.9
3.030	81645.9
3.035	81640.9
3.040	81639.0
3.045	81635.0
3.050	81622.0
3.055	81582.0
3.060	81598.0
3.065	81636.0
3.070	81650.0
3.075	81641.0
3.080	81641.0
3.085	81641.0
3.090	81637.0
3.095	81646.0
3.100	81681.0
3.105	81672.0
3.110	81658.0
3.115	81665.1
3.120	81649.1
3.125	81648.1
3.130	81676.1
3.135	81696.0
3.140	81715.0
3.145	81714.1
3.150	81710.1
3.155	81688.1
3.160	81686.1
3.165	81695.1
3.170	81688.1
3.175	81699.1
3.180	81703.1
3.185	81709.1
3.190	81681.2
3.195	81679.2
3.200	81733.2
3.205	81733.2
3.210	81731.2
3.215	81720.2
3.220	81734.2
3.225	81723.2
3.230	81716.2
3.235	81710.3
3.240	81710.3
3.245	81715.3
3.250	81717.2
3.255	81702.3
3.260	81694.3
3.265	81710.2
3.270	81743.2
3.275	81750.2
3.280	81751.2
3.285	81736.2
3.290	81725.2
3.295	81728.2
3.300	81749.1
3.305	81760.1
3.310	81752.1
3.315	81750.0
3.320	81741.0
3.325	81757.0
3.330	81782.0
3.335	81758.0
3.340	81692.0
3.345	81621.1
3.350	81616.1
3.355	81664.2
3.360	81738.2
3.365	81756.2
3.370	81750.3
3.375	81751.4
3.380	81746.6
3.385	81655.8
3.390	81580.0
3.395	81639.1
3.400	81775.1
3.405	81790.1
3.410	81764.1
3.415	81726.2
3.420	81731.2
3.425	81743.1
3.430	81750.1
3.435	81751.1
3.440	81755.1
3.445	81748.1
3.450	81757.1
3.455	81726.1
3.460	81736.1
3.465	81767.1
3.470	81790.2
3.475	81770.2
3.480	81768.3
3.485	81747.3
3.490	81744.4
3.495	81743.4
3.500	81762.5
3.505	81762.6
3.510	81775.6
3.515	81772.7
3.520	81750.8
3.525	81711.9
3.530	81708.0
3.535	81727.0
3.540	81713.1
3.545	81702.2
3.550	81681.2
3.555	81655.3
3.560	81620.4
3.565	81568.4
3.570	81531.5
3.575	81493.6
3.580	81493.6
3.585	81492.6
3.590	81468.6
3.595	81490.7
3.600	81528.6
3.605	81525.7
3.610	81537.7
3.615	81548.7
3.620	81556.7
3.625	81557.7
3.630	81578.7
3.635	81592.7
3.640	81614.7
3.645	81652.7
3.650	81663.7
3.655	81640.7
3.660	81660.7
3.665	81686.7
3.670	81719.7
3.675	81708.7
3.680	81703.7
3.685	81696.8
3.690	81705.8
3.695	81721.8
3.700	81719.8
3.705	81712.8
3.710	81704.8
3.715	81702.8
3.720	81665.9
3.725	81654.9
3.730	81669.9
3.735	81675.9
3.740	81688.9
3.745	81685.0
3.750	81683.0
3.755	81685.0
3.760	81682.0
3.765	81679.1
3.770	81676.1
3.775	81678.1
3.780	81679.1
3.785	81658.2
3.790	81627.2
3.795	81626.2
3.800	81656.3
3.805	81663.3
3.810	81676.3
3.815	81670.3
3.820	81672.4
3.825	81666.4
3.830	81673.4
3.835	81685.4
3.840	81701.5
3.845	81710.5
3.850	81724.5
3.855	81672.6
3.860	81675.6
3.865	81664.7
3.870	81666.7
3.875	81648.8
3.880	81649.8
3.885	81622.9
3.890	81607.9
3.895	81599.0
3.900	81591.0
3.905	81582.1
3.910	81587.1
3.915	81581.2
3.920	81545.3
3.925	81523.4
3.930	81529.4
3.935	81527.5
3.940	81511.6
3.945	81480.7
3.950	81430.8
3.955	81377.9
3.960	81363.0
3.965	81335.1
3.970	81401.2
3.975	81340.4
3.980	80852.9
3.985	80444.3
3.990	80564.4
3.995	80963.3
4.000	81172.4
4.005	81251.6
4.010	81264.9
4.015	81098.3
4.020	80820.8
4.025	80710.2
4.030	80832.4
4.035	80895.5
4.040	80877.7
4.045	80814.9
4.050	80765.0
4.055	80709.0
4.060	80700.9
4.065	80673.6
4.070	80654.3
4.075	80674.8
4.080	80746.1
4.085	80844.3
4.090	80970.4
4.095	81098.4
4.100	81247.4
4.105	81375.6
4.110	81485.9
4.115	81531.4
4.120	81541.0
4.125	81571.8
4.130	81603.6
4.135	81613.6
4.140	81594.5
4.145	81566.5
4.150	81552.5
4.155	81567.5
4.160	81592.4
4.165	81595.4
4.170	81601.4
4.175	81599.4
4.180	81597.4
4.185	81574.4
4.190	81543.4
4.195	81551.4
4.200	81582.4
4.205	81606.4
4.210	81607.3
4.215	81607.3
4.220	81605.3
4.225	81587.3
4.230	81579.3
4.235	81572.3
4.240	81581.3
4.245	81581.3
4.250	81578.3
4.255	81545.4
4.260	81557.3
4.265	81595.3
4.270	81603.3
4.275	81593.3
4.280	81578.3
4.285	81576.3
4.290	81591.3
4.295	81598.3
4.300	81621.3
4.305	81610.3
4.310	81600.3
4.315	81572.3
4.320	81528.3
4.325	81519.3
4.330	81526.3
4.335	81553.3
4.340	81561.3
4.345	81576.3
4.350	81603.2
4.355	81625.2
4.360	81617.2
4.365	81593.3
4.370	81576.3
4.375	81577.3
4.380	81575.3
4.385	81561.3
4.390	81546.3
4.395	81570.2
4.400	81581.2
4.405	81596.2
4.410	81582.2
4.415	81569.2
4.420	81569.2
4.425	81575.2
4.430	81593.2
4.435	81603.2
4.440	81617.2
4.445	81604.2
4.450	81600.2
4.455	81576.2
4.460	81586.2
4.465	81598.2
4.470	81610.2
4.475	81593.2
4.480	81591.2
4.485	81594.2
4.490	81597.1
4.495	81597.1
4.500	81593.1
4.505	81591.1
4.510	81598.1
4.515	81610.1
4.520	81602.1
4.525	81601.1
4.530	81619.1
4.535	81617.1
4.540	81603.1
4.545	81589.1
4.550	81601.1
4.555	81599.1
4.560	81605.1
4.565	81597.1
4.570	81605.0
4.575	81597.1
4.580	81622.0
4.585	81588.1
4.590	81568.1
4.595	81583.1
4.600	81607.1
4.605	81606.1
4.610	81613.0
4.615	81610.0
4.620	81622.0
4.625	81623.0
4.630	81635.0
4.635	81640.0
4.640	81654.0
4.645	81653.0
4.650	81647.0
4.655	81597.0
4.660	81598.0
4.665	81623.9
4.670	81627.9
4.675	81616.9
4.680	81600.9
4.685	81595.9
4.690	81593.9
4.695	81601.9
4.700	81616.9
4.705	81624.9
4.710	81640.9
4.715	81640.9
4.720	81627.9
4.725	81621.9
4.730	81631.9
4.735	81640.8
4.740	81633.9
4.745	81636.8
4.750	81634.8
4.755	81640.8
4.760	81660.8
4.765	81658.8
4.770	81672.8
4.775	81663.8
4.780	81671.8
4.785	81636.8
4.790	81625.8
4.795	81624.8
4.800	81635.7
4.805	81625.7
4.810	81622.7
4.815	81631.7
4.820	81649.7
4.825	81652.7
4.830	81670.7
4.835	81658.7
4.840	81659.6
4.845	81664.6
4.850	81648.6
4.855	81615.7
4.860	81614.6
4.865	81637.6
4.870	81638.6
4.875	81648.6
4.880	81648.6
4.885	81644.6
4.890	81642.6
4.895	81645.6
4.900	81649.6
4.905	81636.6
4.910	81628.6
4.915	81621.6
4.920	81604.6
4.925	81610.6
4.930	81646.5
4.935	81666.5
4.940	81668.5
4.945	81659.5
4.950	81669.4
4.955	81658.4
4.960	81647.4
4.965	81638.4
4.970	81637.4
4.975	81632.4
4.980	81621.4
4.985	81604.4
4.990	81601.4
4.995	81618.4
5.000	81659.3
5.005	81650.3
5.010	81657.3
5.015	81653.3
5.020	81651.2
5.025	81631.2
5.030	81638.2
5.035	81630.2
5.040	81642.2
5.045	81633.2
5.050	81622.2
5.055	81596.2
5.060	81604.1
5.065	81639.1
5.070	81646.1
5.075	81655.0
5.080	81691.0
5.085	81695.9
5.090	81680.9
5.095	81653.9
5.100	81620.9
5.105	81611.9
5.110	81618.9
5.115	81636.9
5.120	81621.9
5.125	81614.9
5.130	81642.8
5.135	81686.7
5.140	81709.7
5.145	81687.7
5.150	81681.7
5.155	81660.6
5.160	81658.6
5.165	81658.6
5.170	81687.5
5.175	81663.5
5.180	81662.5
5.185	81641.4
5.190	81649.4
5.195	81658.3
5.200	81693.3
5.205	81673.2
5.210	81660.2
5.215	81648.1
5.220	81657.1
5.225	81660.0
5.230	81660.0
5.235	81679.9
5.240	81700.8
5.245	81695.7
5.250	81699.7
5.255	81659.6
5.260	81660.6
5.265	81670.5
5.270	81671.4
5.275	81677.3
5.280	81687.2
5.285	81669.1
5.290	81664.0
5.295	81657.8
5.300	81642.7
5.305	81633.5
5.310	81626.3
5.315	81599.1
5.320	81545.9
5.325	81504.6
5.330	81478.4
5.335	81415.1
5.340	81334.9
5.345	81247.7
5.350	81150.7
5.355	81099.6
5.360	80992.6
5.365	80911.7
5.370	80885.8
5.375	80854.0
5.380	80817.4
5.385	80794.9
5.390	80807.4
5.395	80809.9
5.400	80856.6
5.405	80944.5
5.410	81129.4
5.415	81314.1
5.420	81474.7
5.425	81582.0
5.430	81652.2
5.435	81663.3
5.440	81690.3
5.445	81685.4
5.450	81684.4
5.455	81666.4
5.460	81680.4
5.465	81706.4
5.470	81717.4
5.475	81702.4
5.480	81697.4
5.485	81699.4
5.490	81703.4
5.495	81695.4
5.500	81686.4
5.505	81694.4
5.510	81684.4
5.515	81689.4
5.520	81667.4
5.525	81657.4
5.530	81680.4
5.535	81685.4
5.540	81688.4
5.545	81686.4
5.550	81685.4
5.555	81683.4
5.560	81685.4
5.565	81687.4
5.570	81692.4
5.575	81679.4
5.580	81683.4
5.585	81660.4
5.590	81648.4
5.595	81668.4
5.600	81694.4
5.605	81675.4
5.610	81670.4
5.615	81660.4
5.620	81670.4
5.625	81656.4
5.630	81656.4
5.635	81652.4
5.640	81667.4
5.645	81654.4
5.650	81646.4
5.655	81622.4
5.660	81625.5
5.665	81646.5
5.670	81660.5
5.675	81657.5
5.680	81655.5
5.685	81664.5
5.690	81673.5
5.695	81669.5
5.700	81679.5
5.705	81670.5
5.710	81679.5
5.715	81669.5
5.720	81645.6
5.725	81644.6
5.730	81660.6
5.735	81663.5
5.740	81658.5
5.745	81651.5
5.750	81648.5
5.755	81638.5
5.760	81645.5
5.765	81640.5
5.770	81643.5
5.775	81639.5
5.780	81640.5
5.785	81618.5
5.790	81594.5
5.795	81612.5
5.800	81624.5
5.805	81624.4
5.810	81626.4
5.815	81630.4
5.820	81631.4
5.825	81628.4
5.830	81636.4
5.835	81633.4
5.840	81652.4
5.845	81637.4
5.850	81627.4
5.855	81605.5
5.860	81614.4
5.865	81642.4
5.870	81635.4
5.875	81628.4
5.880	81632.4
5.885	81637.4
5.890	81634.4
5.895	81624.4
5.900	81621.4
5.905	81609.5
5.910	81606.5
5.915	81578.5
5.920	81542.5
5.925	81528.5
5.930	81545.5
5.935	81549.5
5.940	81527.5
5.945	81522.5
5.950	81506.5
5.955	81499.5
5.960	81501.5
5.965	81495.5
5.970	81506.5
5.975	81498.5
5.980	81503.5
5.985	81479.6
5.990	81482.6
5.995	81497.6
6.000	81522.5
6.005	81525.5
6.010	81538.5
6.015	81549.5
6.020	81562.5
6.025	81571.5
6.030	81579.5
6.035	81587.5
6.040	81598.5
6.045	81598.5
6.050	81597.5
6.055	81569.5
6.060	81588.5
6.065	81601.5
6.070	81606.5
6.075	81604.5
6.080	81610.5
6.085	81604.5
6.090	81615.5
6.095	81607.5
6.100	81615.5
6.105	81625.5
6.110	81627.5
6.115	81610.5
6.120	81583.5
6.125	81576.5
6.130	81608.5
6.135	81605.5
6.140	81596.5
6.145	81587.5
6.150	81586.5
6.155	81577.5
6.160	81598.5
6.165	81589.5
6.170	81598.5
6.175	81587.5
6.180	81597.5
6.185	81564.5
6.190	81545.5
6.195	81550.5
6.200	81569.5
6.205	81549.5
6.210	81535.5
6.215	81530.5
6.220	81522.6
6.225	81511.6
6.230	81515.6
6.235	81503.6
6.240	81498.6
6.245	81480.6
6.250	81466.6
6.255	81438.6
6.260	81453.6
6.265	81477.6
6.270	81487.6
6.275	81481.6
6.280	81486.6
6.285	81492.6
6.290	81500.6
6.295	81504.6
6.300	81522.6
6.305	81518.6
6.310	81534.6
6.315	81543.5
6.320	81521.6
6.325	81512.6
6.330	81542.5
6.335	81560.5
6.340	81572.5
6.345	81573.5
6.350	81573.5
6.355	81567.5
6.360	81562.5
6.365	81575.5
6.370	81579.5
6.375	81583.5
6.380	81580.5
6.385	81550.6
6.390	81540.6
6.395	81551.5
6.400	81578.5
6.405	81581.5
6.410	81576.5
6.415	81569.5
6.420	81573.5
6.425	81577.5
6.430	81582.5
6.435	81586.5
6.440	81594.5
6.445	81590.5
6.450	81584.5
6.455	81559.5
6.460	81570.5
6.465	81600.5
6.470	81603.5
6.475	81607.5
6.480	81606.5
6.485	81610.5
6.490	81617.5
6.495	81615.5
6.500	81620.5
6.505	81618.5
6.510	81627.5
6.515	81608.5
6.520	81597.5
6.525	81592.5
6.530	81619.5
6.535	81624.5
6.540	81615.5
6.545	81619.5
6.550	81617.5
6.555	81623.5
6.560	81628.5
6.565	81628.5
6.570	81629.5
6.575	81628.5
6.580	81624.5
6.585	81586.5
6.590	81577.5
6.595	81578.5
6.600	81606.5
6.605	81594.5
6.610	81584.5
6.615	81561.6
6.620	81560.6
6.625	81546.6
6.630	81548.6
6.635	81546.6
6.640	81538.6
6.645	81522.6
6.650	81485.6
6.655	81454.6
6.660	81463.6
6.665	81492.6
6.670	81513.6
6.675	81512.6
6.680	81532.6
6.685	81532.6
6.690	81557.6
6.695	81572.6
6.700	81590.5
6.705	81601.5
6.710	81609.5
6.715	81610.5
6.720	81593.5
6.725	81599.5
6.730	81639.5
6.735	81650.5
6.740	81654.5
6.745	81656.5
6.750	81653.5
6.755	81651.5
6.760	81658.5
6.765	81654.5
6.770	81662.5
6.775	81661.5
6.780	81667.5
6.785	81642.5
6.790	81647.5
6.795	81661.5
6.800	81676.5
6.805	81668.5
6.810	81669.5
6.815	81671.5
6.820	81678.5
6.825	81671.5
6.830	81667.5
6.835	81660.5
6.840	81664.5
6.845	81663.5
6.850	81649.5
6.855	81631.5
6.860	81633.5
6.865	81658.5
6.870	81665.5
6.875	81668.5
6.880	81669.5
6.885	81671.5
6.890	81677.5
6.895	81671.5
6.900	81677.5
6.905	81675.5
6.910	81684.5
6.915	81680.5
6.920	81650.5
6.925	81653.5
6.930	81680.5
6.935	81683.5
6.940	81686.5
6.945	81686.5
6.950	81695.5
6.955	81688.5
6.960	81690.5
6.965	81689.5
6.970	81695.5
6.975	81698.5
6.980	81713.5
6.985	81688.5
6.990	81688.5
6.995	81696.5
7.000	81728.5
7.005	81714.5
7.010	81722.5
7.015	81720.5
7.020	81727.5
7.025	81725.5
7.030	81736.4
7.035	81739.4
7.040	81750.4
7.045	81753.4
7.050	81741.4
7.055	81740.4
7.060	81761.4
7.065	81777.4
7.070	81777.4
7.075	81762.4
7.080	81763.4
7.085	81767.4
7.090	81763.4
7.095	81756.4
7.100	81761.4
7.105	81769.4
7.110	81761.4
7.115	81763.4
7.120	81731.5
7.125	81726.5
7.130	81752.4
7.135	81748.5
7.140	81756.4
7.145	81746.5
7.150	81747.5
7.155	81745.5
7.160	81751.5
7.165	81736.5
7.170	81745.5
7.175	81737.5
7.180	81735.5
7.185	81697.5
7.190	81698.5
7.195	81712.5
7.200	81724.5
7.205	81720.5
7.210	81713.5
7.215	81698.5
7.220	81708.5
7.225	81701.5
7.230	81706.5
7.235	81698.5
7.240	81704.5
7.245	81707.5
7.250	81688.5
7.255	81665.5
7.260	81677.5
7.265	81704.5
7.270	81706.5
7.275	81694.5
7.280	81698.5
7.285	81687.5
7.290	81691.5
7.295	81690.5
7.300	81694.5
7.305	81691.5
7.310	81677.5
7.315	81671.5
7.320	81636.6
7.325	81637.6
7.330	81664.5
7.335	81671.5
7.340	81658.5
7.345	81644.6
7.350	81643.6
7.355	81632.6
7.360	81639.6
7.365	81628.6
7.370	81631.6
7.375	81629.6
7.380	81633.6
7.385	81592.6
7.390	81585.6
7.395	81589.6
7.400	81613.6
7.405	81603.6
7.410	81612.6
7.415	81613.6
7.420	81618.6
7.425	81611.6
7.430	81616.6
7.435	81622.6
7.440	81621.6
7.445	81618.6
7.450	81589.6
7.455	81570.6
7.460	81599.6
7.465	81617.6
7.470	81610.6
7.475	81602.6
7.480	81602.6
7.485	81598.6
7.490	81604.6
7.495	81602.6
7.500	81612.6
7.505	81610.6
7.510	81616.6
7.515	81598.6
7.520	81579.6
7.525	81587.6
7.530	81605.6
7.535	81613.6
7.540	81603.6
7.545	81606.6
7.550	81608.6
7.555	81617.6
7.560	81633.6
7.565	81633.6
7.570	81624.6
7.575	81621.6
7.580	81626.6
7.585	81590.6
7.590	81596.6
7.595	81617.6
7.600	81626.6
7.605	81619.6
7.610	81611.6
7.615	81600.6
7.620	81596.6
7.625	81588.6
7.630	81586.6
7.635	81591.6
7.640	81592.6
7.645	81585.6
7.650	81563.7
7.655	81542.7
7.660	81546.7
7.665	81557.7
7.670	81554.7
7.675	81543.7
7.680	81550.7
7.685	81536.7
7.690	81543.7
7.695	81533.7
7.700	81537.7
7.705	81532.7
7.710	81535.7
7.715	81514.7
7.720	81495.7
7.725	81507.7
7.730	81523.7
7.735	81491.7
7.740	81484.7
7.745	81488.7
7.750	81490.7
7.755	81471.7
7.760	81455.8
7.765	81451.8
7.770	81455.8
7.775	81450.8
7.780	81447.8
7.785	81424.8
7.790	81439.8
7.795	81451.8
7.800	81473.7
7.805	81480.7
7.810	81494.7
7.815	81504.7
7.820	81502.7
7.825	81499.7
7.830	81511.7
7.835	81517.7
7.840	81533.7
7.845	81546.7
7.850	81524.7
7.855	81515.7
7.860	81529.7
7.865	81538.7
7.870	81551.7
7.875	81552.7
7.880	81580.7
7.885	81588.7
7.890	81608.7
7.895	81613.7
7.900	81630.6
7.905	81641.6
7.910	81661.6
7.915	81643.6
7.920	81629.6
7.925	81644.6
7.930	81668.6
7.935	81666.6
7.940	81677.6
7.945	81676.6
7.950	81678.6
7.955	81682.6
7.960	81685.6
7.965	81684.6
7.970	81688.6
7.975	81697.6
7.980	81686.6
7.985	81652.6
7.990	81664.6
7.995	81686.6
8.000	81695.6
8.005	81693.6
8.010	81677.6
8.015	81674.6
8.020	81685.6
8.025	81689.6
8.030	81689.6
8.035	81692.6
8.040	81690.6
8.045	81689.6
8.050	81667.7
8.055	81661.7
8.060	81674.7
8.065	81696.6
8.070	81698.6
8.075	81692.6
8.080	81699.6
8.085	81696.6
8.090	81706.6
8.095	81705.6
8.100	81716.6
8.105	81716.6
8.110	81704.6
8.115	81693.7
8.120	81675.7
8.125	81678.7
8.130	81713.6
8.135	81704.7
8.140	81698.7
8.145	81687.7
8.150	81688.7
8.155	81679.7
8.160	81680.7
8.165	81674.7
8.170	81683.7
8.175	81688.7
8.180	81703.7
8.185	81673.7
8.190	81680.7
8.195	81694.7
8.200	81708.7
8.205	81715.7
8.210	81712.7
8.215	81711.7
8.220	81725.7
8.225	81729.7
8.230	81727.7
8.235	81725.7
8.240	81725.7
8.245	81731.7
8.250	81705.7
8.255	81696.7
8.260	81724.7
8.265	81736.7
8.270	81735.7
8.275	81728.7
8.280	81732.7
8.285	81729.7
8.290	81722.7
8.295	81726.7
8.300	81729.7
8.305	81731.7
8.310	81739.7
8.315	81718.7
8.320	81707.7
8.325	81707.7
8.330	81732.7
8.335	81739.7
8.340	81746.7
8.345	81749.7
8.350	81754.7
8.355	81750.7
8.360	81754.7
8.365	81741.7
8.370	81728.7
8.375	81721.7
8.380	81704.7
8.385	81630.8
8.390	81586.8
8.395	81461.9
8.400	81272.1
8.405	80928.3
8.410	80555.6
8.415	80196.9
8.420	79907.1
8.425	79812.2
8.430	80015.0
8.435	80506.6
8.440	81096.2
8.445	81453.9
8.450	81581.8
8.455	81633.8
8.460	81686.8
8.465	81722.7
8.470	81734.7
8.475	81735.7
8.480	81729.7
8.485	81721.8
8.490	81687.8
8.495	81673.8
8.500	81661.8
8.505	81648.8
8.510	81656.8
8.515	81661.8
8.520	81659.8
8.525	81681.8
8.530	81717.8
8.535	81720.8
8.540	81732.8
8.545	81719.8
8.550	81722.8
8.555	81709.8
8.560	81715.8
8.565	81718.8
8.570	81720.8
8.575	81713.8
8.580	81700.8
8.585	81662.8
8.590	81660.9
8.595	81663.9
8.600	81666.9
8.605	81633.9
8.610	81634.9
8.615	81629.9
8.620	81656.9
8.625	81664.9
8.630	81685.9
8.635	81677.9
8.640	81669.9
8.645	81658.9
8.650	81610.9
8.655	81587.0
8.660	81600.9
8.665	81602.0
8.670	81586.0
8.675	81567.0
8.680	81555.0
8.685	81507.0
8.690	81481.1
8.695	81460.1
8.700	81442.1
8.705	81414.1
8.710	81391.1
8.715	81333.2
8.720	81304.2
8.725	81273.2
8.730	81255.3
8.735	81221.3
8.740	81190.3
8.745	81156.3
8.750	81142.4
8.755	81127.4
8.760	81094.4
8.765	81069.4
8.770	81055.4
8.775	81020.5
8.780	80973.5
8.785	80905.6
8.790	80891.6
8.795	80884.6
8.800	80854.6
8.805	80817.6
8.810	80809.7
8.815	80808.7
8.820	80810.7
8.825	80804.7
8.830	80811.7
8.835	80802.7
8.840	80824.7
8.845	80845.6
8.850	80846.7
8.855	80861.6
8.860	80887.6
8.865	80902.6
8.870	80919.6
8.875	80910.6
8.880	80946.6
8.885	80990.6
8.890	81053.5
8.895	81131.5
8.900	81183.4
8.905	81218.4
8.910	81223.4
8.915	81197.4
8.920	81193.5
8.925	81215.4
8.930	81228.4
8.935	81209.5
8.940	81203.5
8.945	81173.5
8.950	81137.5
8.955	81040.6
8.960	80980.7
8.965	80973.7
8.970	81016.6
8.975	81038.6
8.980	81056.6
8.985	81028.6
8.990	81027.7
8.995	81064.6
9.000	81102.6
9.005	81109.6
9.010	81119.6
9.015	81135.6
9.020	81158.6
9.025	81191.6
9.030	81235.6
9.035	81253.6
9.040	81267.6
9.045	81263.6
9.050	81230.6
9.055	81247.6
9.060	81315.6
9.065	81357.5
9.070	81387.5
9.075	81402.5
9.080	81412.5
9.085	81415.5
9.090	81421.5
9.095	81423.5
9.100	81443.5
9.105	81480.5
9.110	81480.5
9.115	81458.5
9.120	81442.6
9.125	81452.6
9.130	81473.6
9.135	81486.6
9.140	81486.6
9.145	81482.6
9.150	81482.6
9.155	81470.6
9.160	81456.6
9.165	81429.7
9.170	81422.7
9.175	81416.7
9.180	81400.7
9.185	81349.8
9.190	81338.8
9.195	81342.8
9.200	81322.8
9.205	81298.9
9.210	81272.9
9.215	81251.9
9.220	81228.0
9.225	81197.0
9.230	81184.0
9.235	81157.1
9.240	81154.1
9.245	81149.1
9.250	81114.2
9.255	81089.2
9.260	81081.2
9.265	81073.3
9.270	81060.3
9.275	80907.4
9.280	80928.4
9.285	80717.6
9.290	80321.8
9.295	80281.8
9.300	80599.6
9.305	80918.5
9.310	81150.4
9.315	81237.4
9.320	81288.4
9.325	81327.4
9.330	81337.4
9.335	81320.4
9.340	81310.5
9.345	81270.5
9.350	81246.6
9.355	81240.6
9.360	81270.7
9.365	81302.7
9.370	81302.7
9.375	81289.8
9.380	81248.9
9.385	81166.0
9.390	81110.1
9.395	81048.2
9.400	80978.3
9.405	80965.4
9.410	80982.4
9.415	81026.5
9.420	80990.7
9.425	80926.8
9.430	80834.1
9.435	80599.4
9.440	80552.7
9.445	80513.9
9.450	80178.4
9.455	79716.0
9.460	79469.4
9.465	79558.6
9.470	79768.6
9.475	79908.6
9.480	79985.7
9.485	80017.7
9.490	80025.6
9.495	80021.5
9.500	80087.2
9.505	80208.8
9.510	80377.3
9.515	80523.6
9.520	80707.8
9.525	80897.9
9.530	81091.0
9.535	81222.3
9.540	81330.8
9.545	81397.5
9.550	81444.4
9.555	81469.3
9.560	81483.2
9.565	81489.2
9.570	81484.2
9.575	81476.2
9.580	81466.2
9.585	81450.2
9.590	81458.2
9.595	81484.2
9.600	81496.2
9.605	81481.2
9.610	81480.2
9.615	81490.2
9.620	81482.2
9.625	81479.2
9.630	81475.2
9.635	81471.2
9.640	81474.2
9.645	81483.2
9.650	81445.2
9.655	81449.2
9.660	81470.2
9.665	81497.2
9.670	81482.2
9.675	81486.2
9.680	81490.2
9.685	81486.2
9.690	81503.2
9.695	81483.2
9.700	81494.2
9.705	81499.2
9.710	81488.2
9.715	81463.2
9.720	81458.2
9.725	81476.2
9.730	81504.2
9.735	81499.2
9.740	81487.2
9.745	81485.2
9.750	81496.2
9.755	81493.2
9.760	81491.2
9.765	81490.2
9.770	81496.2
9.775	81487.2
9.780	81483.2
9.785	81453.2
9.790	81459.2
9.795	81494.2
9.800	81491.2
9.805	81488.2
9.810	81497.2
9.815	81497.2
9.820	81504.2
9.825	81502.2
9.830	81502.2
9.835	81497.2
9.840	81498.2
9.845	81486.2
9.850	81462.2
9.855	81469.2
9.860	81499.2
9.865	81494.2
9.870	81499.2
9.875	81489.2
9.880	81478.2
9.885	81473.2
9.890	81478.2
9.895	81479.2
9.900	81479.2
9.905	81474.2
9.910	81484.2
9.915	81465.2
9.920	81462.2
9.925	81463.2
9.930	81480.2
9.935	81478.2
9.940	81476.2
9.945	81462.2
9.950	81470.2
9.955	81457.2
9.960	81460.2
9.965	81450.2
9.970	81454.2
9.975	81450.2
9.980	81429.2
9.985	81393.2
9.990	81412.2
9.995	81428.2
10.000	81430.2
10.005	81416.2
10.010	81404.2
10.015	81406.2
10.020	81401.2
10.025	81394.2
10.030	81390.2
10.035	81394.2
10.040	81409.2
10.045	81389.2
10.050	81363.3
10.055	81354.3
10.060	81373.2
10.065	81386.2
10.070	81386.2
10.075	81371.2
10.080	81372.2
10.085	81362.3
10.090	81358.3
10.095	81365.3
10.100	81367.2
10.105	81359.3
10.110	81364.3
10.115	81322.3
10.120	81318.3
10.125	81335.3
10.130	81347.3
10.135	81323.3
10.140	81321.3
10.145	81303.3
10.150	81300.3
10.155	81300.3
10.160	81313.3
10.165	81303.3
10.170	81317.3
10.175	81309.3
10.180	81293.3
10.185	81258.3
10.190	81280.3
10.195	81307.3
10.200	81316.3
10.205	81308.3
10.210	81301.3
10.215	81292.3
10.220	81286.3
10.225	81287.3
10.230	81290.3
10.235	81270.3
10.240	81268.3
10.245	81261.3
10.250	81226.4
10.255	81226.4
10.260	81256.3
10.265	81272.3
10.270	81262.3
10.275	81251.3
10.280	81250.3
10.285	81258.3
10.290	81259.3
10.295	81269.3
10.300	81262.3
10.305	81264.3
10.310	81258.3
10.315	81219.4
10.320	81211.4
10.325	81225.3
10.330	81264.3
10.335	81264.3
10.340	81272.3
10.345	81267.3
10.350	81264.3
10.355	81264.3
10.360	81287.3
10.365	81269.3
10.370	81277.3
10.375	81276.3
10.380	81261.3
10.385	81249.3
10.390	81272.3
10.395	81295.3
10.400	81304.3
10.405	81303.3
10.410	81312.3
10.415	81302.3
10.420	81311.3
10.425	81305.3
10.430	81323.3
10.435	81329.3
10.440	81337.3
10.445	81336.3
10.450	81308.3
10.455	81295.3
10.460	81321.3
10.465	81328.3
10.470	81332.3
10.475	81342.3
10.480	81341.3
10.485	81348.3
10.490	81356.2
10.495	81361.2
10.500	81363.2
10.505	81365.2
10.510	81369.2
10.515	81329.3
10.520	81346.2
10.525	81373.2
10.530	81395.2
10.535	81382.2
10.540	81385.2
10.545	81387.2
10.550	81384.2
10.555	81370.2
10.560	81378.2
10.565	81372.2
10.570	81384.2
10.575	81380.2
10.580	81371.2
10.585	81346.2
10.590	81358.2
10.595	81377.2
10.600	81392.2
10.605	81404.2
10.610	81406.2
10.615	81406.2
10.620	81423.2
10.625	81416.2
10.630	81428.2
10.635	81429.2
10.640	81431.2
10.645	81424.2
10.650	81403.2
10.655	81399.2
10.660	81435.2
10.665	81430.2
10.670	81433.2
10.675	81424.2
10.680	81422.2
10.685	81417.2
10.690	81423.2
10.695	81422.2
10.700	81437.2
10.705	81436.2
10.710	81439.2
10.715	81414.2
10.720	81416.2
10.725	81426.2
10.730	81450.2
10.735	81440.2
10.740	81436.2
10.745	81436.2
10.750	81436.2
10.755	81429.2
10.760	81431.2
10.765	81432.2
10.770	81440.2
10.775	81432.2
10.780	81427.2
10.785	81406.2
10.790	81426.2
10.795	81457.2
10.800	81461.2
10.805	81442.2
10.810	81444.2
10.815	81440.2
10.820	81452.2
10.825	81455.2
10.830	81454.2
10.835	81452.2
10.840	81462.1
10.845	81453.2
10.850	81434.2
10.855	81424.2
10.860	81449.2
10.865	81447.2
10.870	81451.2
10.875	81453.2
10.880	81455.1
10.885	81457.1
10.890	81457.1
10.895	81455.1
10.900	81470.1
10.905	81472.1
10.910	81475.1
10.915	81444.2
10.920	81436.2
10.925	81455.1
10.930	81472.1
10.935	81457.1
10.940	81453.1
10.945	81461.1
10.950	81461.1
10.955	81455.1
10.960	81455.1
10.965	81462.1
10.970	81459.1
10.975	81468.1
10.980	81463.1
10.985	81434.2
10.990	81445.1
10.995	81466.1
11.000	81465.1
11.005	81460.1
11.010	81456.1
11.015	81453.1
11.020	81461.1
11.025	81455.1
11.030	81460.1
11.035	81454.1
11.040	81451.1
11.045	81445.1
11.050	81424.2
11.055	81420.2
11.060	81446.2
11.065	81443.1
11.070	81439.2
11.075	81422.2
11.080	81430.2
11.085	81428.2
11.090	81433.2
11.095	81419.2
11.100	81429.2
11.105	81424.2
11.110	81425.2
11.115	81401.2
11.120	81396.2
11.125	81407.2
11.130	81433.2
11.135	81424.2
11.140	81426.2
11.145	81426.2
11.150	81439.2
11.155	81431.2
11.160	81439.2
11.165	81430.2
11.170	81429.2
11.175	81427.2
11.180	81396.2
11.185	81397.2
11.190	81408.2
11.195	81429.2
11.200	81418.2
11.205	81398.2
11.210	81397.2
11.215	81396.2
11.220	81395.2
11.225	81390.2
11.230	81394.2
11.235	81393.2
11.240	81391.2
11.245	81366.2
11.250	81338.2
11.255	81332.2
11.260	81366.2
11.265	81366.2
11.270	81359.2
11.275	81355.2
11.280	81355.2
11.285	81358.2
11.290	81362.2
11.295	81356.2
11.300	81353.2
11.305	81350.2
11.310	81360.2
11.315	81327.2
11.320	81316.2
11.325	81343.2
11.330	81353.2
11.335	81341.2
11.340	81342.2
11.345	81343.2
11.350	81333.2
11.355	81328.2
11.360	81330.2
11.365	81338.2
11.370	81333.2
11.375	81335.2
11.380	81308.2
11.385	81294.3
11.390	81304.2
11.395	81341.2
11.400	81327.2
11.405	81323.2
11.410	81335.2
11.415	81327.2
11.420	81342.2
11.425	81335.2
11.430	81332.2
11.435	81338.2
11.440	81337.2
11.445	81313.2
11.450	81292.3
11.455	81307.2
11.460	81338.2
11.465	81341.2
11.470	81330.2
11.475	81325.2
11.480	81316.2
11.485	81327.2
11.490	81324.2
11.495	81321.2
11.500	81331.2
11.505	81342.2
11.510	81344.2
11.515	81296.2
11.520	81318.2
11.525	81314.2
11.530	81335.2
11.535	81330.2
11.540	81344.2
11.545	81343.2
11.550	81353.2
11.555	81347.2
11.560	81359.2
11.565	81355.2
11.570	81357.2
11.575	81355.2
11.580	81328.2
11.585	81323.2
11.590	81343.2
11.595	81357.2
11.600	81366.2
11.605	81358.2
11.610	81364.2
11.615	81360.2
11.620	81359.2
11.625	81358.2
11.630	81364.2
11.635	81354.2
11.640	81359.2
11.645	81358.2
11.650	81325.2
11.655	81333.2
11.660	81361.2
11.665	81369.2
11.670	81362.2
11.675	81360.2
11.680	81364.2
11.685	81347.2
11.690	81358.2
11.695	81363.2
11.700	81373.2
11.705	81364.2
11.710	81361.2
11.715	81326.2
11.720	81343.2
11.725	81354.2
11.730	81365.2
11.735	81361.2
11.740	81361.2
11.745	81359.2
11.750	81369.2
11.755	81351.2
11.760	81359.2
11.765	81363.2
11.770	81375.2
11.775	81364.2
11.780	81344.2
11.785	81329.2
11.790	81343.2
11.795	81360.2
11.800	81360.2
11.805	81363.2
11.810	81373.2
11.815	81367.2
11.820	81367.2
11.825	81359.2
11.830	81356.2
11.835	81356.2
11.840	81352.2
11.845	81337.2
11.850	81331.2
11.855	81342.2
11.860	81372.2
11.865	81375.2
11.870	81363.2
11.875	81348.2
11.880	81332.2
11.885	81336.2
11.890	81336.2
11.895	81317.2
11.900	81325.2
11.905	81314.2
11.910	81299.2
11.915	81258.3
11.920	81267.3
11.925	81289.2
11.930	81329.2
11.935	81341.2
11.940	81339.2
11.945	81336.2
11.950	81350.2
11.955	81352.2
11.960	81360.2
11.965	81338.2
11.970	81337.2
11.975	81335.2
11.980	81310.2
11.985	81299.2
11.990	81330.2
11.995	81345.2
12.000	81353.2
12.005	81332.2
12.010	81332.2
12.015	81338.2
12.020	81335.2
12.025	81321.2
12.030	81325.2
12.035	81328.2
12.040	81336.2
12.045	81313.2
12.050	81298.2
12.055	81305.2
12.060	81334.2
12.065	81320.2
12.070	81336.2
12.075	81329.2
12.080	81333.2
12.085	81339.2
12.090	81341.2
12.095	81333.2
12.100	81340.2
12.105	81327.2
12.110	81324.2
12.115	81278.2
12.120	81283.2
12.125	81312.2
12.130	81328.2
12.135	81314.2
12.140	81319.2
12.145	81318.2
12.150	81310.2
12.155	81305.2
12.160	81304.2
12.165	81300.2
12.170	81315.2
12.175	81304.2
12.180	81293.2
12.185	81276.2
12.190	81301.2
12.195	81313.2
12.200	81313.2
12.205	81318.2
12.210	81312.2
12.215	81311.2
12.220	81315.2
12.225	81320.2
12.230	81333.2
12.235	81329.2
12.240	81341.2
12.245	81313.2
12.250	81299.2
12.255	81311.2
12.260	81310.2
12.265	81281.2
12.270	81297.2
12.275	81313.2
12.280	81326.2
12.285	81331.2
12.290	81330.2
12.295	81329.2
12.300	81337.2
12.305	81334.2
12.310	81329.2
12.315	81301.2
12.320	81307.2
12.325	81328.2
12.330	81337.2
12.335	81345.2
12.340	81344.2
12.345	81342.2
12.350	81345.2
12.355	81353.2
12.360	81348.2
12.365	81346.2
12.370	81349.2
12.375	81349.2
12.380	81335.2
12.385	81337.2
12.390	81357.2
12.395	81367.2
12.400	81375.2
12.405	81366.2
12.410	81376.2
12.415	81369.2
12.420	81380.2
12.425	81379.2
12.430	81385.1
12.435	81384.1
12.440	81382.1
12.445	81376.2
12.450	81351.2
12.455	81358.2
12.460	81399.1
12.465	81398.1
12.470	81409.1
12.475	81411.1
12.480	81411.1
12.485	81417.1
12.490	81410.1
12.495	81416.1
12.500	81425.1
12.505	81422.1
12.510	81430.1
12.515	81392.1
12.520	81411.1
12.525	81435.1
12.530	81449.1
12.535	81430.1
12.540	81430.1
12.545	81435.1
12.550	81430.1
12.555	81443.1
12.560	81442.1
12.565	81447.1
12.570	81454.1
12.575	81455.1
12.580	81440.1
12.585	81422.1
12.590	81453.1
12.595	81478.1
12.600	81481.1
12.605	81475.1
12.610	81485.1
12.615	81485.1
12.620	81486.1
12.625	81485.1
12.630	81504.1
12.635	81496.1
12.640	81488.1
12.645	81471.1
12.650	81467.1
12.655	81481.1
12.660	81517.0
12.665	81520.0
12.670	81504.0
12.675	81497.1
12.680	81509.0
12.685	81503.0
12.690	81520.0
12.695	81520.0
12.700	81521.0
12.705	81523.0
12.710	81524.0
12.715	81500.1
12.720	81501.0
12.725	81522.0
12.730	81551.0
12.735	81548.0
12.740	81550.0
12.745	81547.0
12.750	81554.0
12.755	81549.0
12.760	81545.0
12.765	81552.0
12.770	81545.0
12.775	81533.0
12.780	81519.0
12.785	81522.0
12.790	81554.0
12.795	81569.0
12.800	81567.0
12.805	81563.0
12.810	81569.0
12.815	81561.0
12.820	81557.0
12.825	81552.0
12.830	81561.0
12.835	81569.0
12.840	81575.0
12.845	81551.0
12.850	81541.0
12.855	81554.0
12.860	81578.0
12.865	81580.0
12.870	81581.0
12.875	81585.0
12.880	81598.0
12.885	81597.0
12.890	81606.0
12.895	81595.0
12.900	81603.0
12.905	81601.0
12.910	81595.0
12.915	81563.0
12.920	81581.0
12.925	81606.0
12.930	81605.0
12.935	81593.0
12.940	81606.0
12.945	81603.0
12.950	81599.0
12.955	81607.0
12.960	81613.0
12.965	81602.0
12.970	81609.0
12.975	81614.0
12.980	81591.0
12.985	81589.0
12.990	81600.0
12.995	81614.0
13.000	81617.9
13.005	81618.0
13.010	81619.9
13.015	81612.9
13.020	81625.9
13.025	81628.9
13.030	81629.9
13.035	81620.9
13.040	81621.9
13.045	81604.0
13.050	81598.0
13.055	81602.0
13.060	81622.9
13.065	81627.9
13.070	81625.9
13.075	81624.9
13.080	81628.9
13.085	81627.9
13.090	81630.9
13.095	81635.9
13.100	81639.9
13.105	81636.9
13.110	81637.9
13.115	81605.0
13.120	81617.9
13.125	81637.9
13.130	81643.9
13.135	81639.9
13.140	81654.9
13.145	81639.9
13.150	81652.9
13.155	81650.9
13.160	81661.9
13.165	81665.9
13.170	81654.9
13.175	81660.9
13.180	81622.9
13.185	81628.9
13.190	81649.9
13.195	81660.9
13.200	81665.9
13.205	81649.9
13.210	81650.9
13.215	81645.9
13.220	81653.9
13.225	81640.9
13.230	81645.9
13.235	81650.9
13.240	81644.9
13.245	81626.9
13.250	81599.0
13.255	81626.9
13.260	81663.9
13.265	81667.9
13.270	81655.9
13.275	81649.9
13.280	81660.9
13.285	81653.9
13.290	81654.9
13.295	81655.9
13.300	81655.9
13.305	81656.9
13.310	81633.9
13.315	81601.9
13.320	81625.9
13.325	81649.9
13.330	81642.9
13.335	81632.9
13.340	81633.9
13.345	81629.9
13.350	81623.9
13.355	81614.9
13.360	81617.9
13.365	81624.9
13.370	81617.9
13.375	81604.9
13.380	81572.0
13.385	81567.0
13.390	81597.9
13.395	81611.9
13.400	81608.9
13.405	81599.9
13.410	81593.9
13.415	81591.9
13.420	81601.9
13.425	81589.9
13.430	81599.9
13.435	81593.9
13.440	81594.9
13.445	81571.0
13.450	81549.0
13.455	81565.0
13.460	81588.0
13.465	81584.0
13.470	81571.0
13.475	81569.0
13.480	81567.0
13.485	81557.0
13.490	81556.0
13.495	81548.0
13.500	81555.0
13.505	81540.0
13.510	81534.0
13.515	81510.0
13.520	81511.0
13.525	81535.0
13.530	81545.0
13.535	81550.0
13.540	81544.0
13.545	81547.0
13.550	81546.0
13.555	81548.0
13.560	81547.0
13.565	81528.0
13.570	81542.0
13.575	81531.0
13.580	81507.0
13.585	81500.0
13.590	81536.0
13.595	81539.0
13.600	81532.0
13.605	81530.0
13.610	81522.0
13.615	81518.0
13.620	81523.0
13.625	81525.0
13.630	81532.0
13.635	81519.0
13.640	81529.0
13.645	81501.0
13.650	81478.0
13.655	81493.0
13.660	81526.0
13.665	81515.0
13.670	81511.0
13.675	81511.0
13.680	81520.0
13.685	81521.0
13.690	81526.0
13.695	81517.0
13.700	81514.0
13.705	81515.0
13.710	81502.0
13.715	81481.0
13.720	81489.0
13.725	81517.0
13.730	81516.0
13.735	81513.0
13.740	81509.0
13.745	81505.0
13.750	81511.0
13.755	81514.0
13.760	81514.0
13.765	81517.0
13.770	81523.0
13.775	81515.0
13.780	81486.0
13.785	81485.0
13.790	81510.0
13.795	81513.0
13.800	81519.0
13.805	81507.0
13.810	81507.0
13.815	81509.0
13.820	81539.0
13.825	81536.0
13.830	81536.0
13.835	81535.0
13.840	81538.0
13.845	81516.0
13.850	81515.0
13.855	81533.0
13.860	81555.0
13.865	81547.0
13.870	81551.0
13.875	81547.0
13.880	81553.0
13.885	81545.0
13.890	81554.0
13.895	81560.0
13.900	81563.0
13.905	81561.0
13.910	81556.0
13.915	81523.0
13.920	81537.0
13.925	81572.9
13.930	81582.9
13.935	81578.9
13.940	81579.9
13.945	81583.9
13.950	81593.9
13.955	81602.9
13.960	81602.9
13.965	81598.9
13.970	81615.9
13.975	81597.9
13.980	81563.9
13.985	81570.9
13.990	81599.9
13.995	81602.9
14.000	81603.9
14.005	81603.9
14.010	81608.9
14.015	81599.9
14.020	81613.9
14.025	81612.9
14.030	81621.9
14.035	81611.9
14.040	81616.9
14.045	81588.9
14.050	81587.9
14.055	81591.9
14.060	81622.9
14.065	81619.9
14.070	81616.9
14.075	81611.9
14.080	81624.9
14.085	81620.9
14.090	81621.9
14.095	81626.9
14.100	81634.9
14.105	81626.9
14.110	81607.9
14.115	81583.9
14.120	81598.9
14.125	81621.9
14.130	81626.9
14.135	81612.9
14.140	81621.9
14.145	81616.9
14.150	81614.9
14.155	81610.9
14.160	81616.9
14.165	81624.9
14.170	81623.9
14.175	81607.9
14.180	81574.9
14.185	81587.9
14.190	81616.9
14.195	81622.9
14.200	81625.9
14.205	81630.9
14.210	81628.9
14.215	81633.9
14.220	81640.9
14.225	81636.9
14.230	81635.9
14.235	81642.9
14.240	81649.9
14.245	81603.9
14.250	81607.9
14.255	81626.9
14.260	81640.9
14.265	81626.9
14.270	81631.9
14.275	81627.9
14.280	81623.9
14.285	81621.9
14.290	81632.9
14.295	81628.9
14.300	81630.9
14.305	81639.9
14.310	81616.9
14.315	81592.9
14.320	81612.9
14.325	81636.9
14.330	81652.9
14.335	81634.9
14.340	81637.9
14.345	81646.9
14.350	81653.9
14.355	81647.9
14.360	81645.9
14.365	81635.9
14.370	81636.9
14.375	81631.9
14.380	81597.9
14.385	81606.9
14.390	81631.9
14.395	81636.9
14.400	81642.9
14.405	81633.9
14.410	81632.9
14.415	81623.9
14.420	81634.9
14.425	81633.9
14.430	81629.9
14.435	81627.9
14.440	81636.9
14.445	81604.9
14.450	81596.9
14.455	81598.9
14.460	81633.9
14.465	81632.9
14.470	81633.9
14.475	81632.9
14.480	81641.9
14.485	81627.9
14.490	81630.9
14.495	81624.9
14.500	81629.9
14.505	81632.9
14.510	81604.9
14.515	81587.9
14.520	81620.9
14.525	81637.9
14.530	81634.9
14.535	81616.9
14.540	81622.9
14.545	81621.9
14.550	81622.9
14.555	81620.9
14.560	81624.9
14.565	81616.9
14.570	81625.9
14.575	81620.9
14.580	81591.9
14.585	81577.9
14.590	81609.9
14.595	81624.9
14.600	81624.9
14.605	81620.9
14.610	81623.9
14.615	81616.9
14.620	81627.9
14.625	81622.9
14.630	81623.9
14.635	81615.9
14.640	81622.9
14.645	81591.9
14.650	81600.9
14.655	81614.9
14.660	81621.9
14.665	81614.9
14.670	81610.9
14.675	81613.9
14.680	81611.9
14.685	81609.9
14.690	81598.9
14.695	81592.9
14.700	81596.9
14.705	81603.9
14.710	81599.9
14.715	81569.9
14.720	81582.9
14.725	81608.9
14.730	81612.9
14.735	81608.9
14.740	81606.9
14.745	81600.9
14.750	81602.9
14.755	81602.9
14.760	81604.9
14.765	81593.9
14.770	81609.9
14.775	81586.9
14.780	81556.9
14.785	81569.9
14.790	81595.9
14.795	81590.9
14.800	81589.9
14.805	81580.9
14.810	81580.9
14.815	81571.9
14.820	81571.9
14.825	81574.9
14.830	81581.9
14.835	81562.9
14.840	81565.9
14.845	81538.9
14.850	81537.9
14.855	81547.9
14.860	81574.9
14.865	81569.9
14.870	81558.9
14.875	81542.9
14.880	81554.9
14.885	81549.9
14.890	81555.9
14.895	81555.9
14.900	81548.9
14.905	81536.9
14.910	81515.9
14.915	81487.0
14.920	81512.9
14.925	81539.9
14.930	81530.9
14.935	81511.9
14.940	81516.9
14.945	81517.9
14.950	81514.9
14.955	81512.9
14.960	81503.9
14.965	81494.9
14.970	81504.9
14.975	81488.9
14.980	81459.0
14.985	81455.0
14.990	81472.0
14.995	81483.0
15.000	81486.0
15.005	81469.0
15.010	81483.0
15.015	81477.0
15.020	81485.0
15.025	81487.0
15.030	81484.0
15.035	81473.0
15.040	81470.0
15.045	81443.0
15.050	81449.0
15.055	81469.0
15.060	81489.9
15.065	81476.0
15.070	81467.0
15.075	81474.0
15.080	81472.0
15.085	81476.0
15.090	81488.9
15.095	81487.9
15.100	81482.9
15.105	81495.9
15.110	81483.9
15.115	81466.0
15.120	81480.9
15.125	81513.9
15.130	81512.9
15.135	81508.9
15.140	81507.9
15.145	81508.9
15.150	81515.9
15.155	81515.9
15.160	81516.9
15.165	81518.9
15.170	81523.9
15.175	81505.9
15.180	81489.9
15.185	81496.9
15.190	81541.9
15.195	81534.9
15.200	81522.9
15.205	81516.9
15.210	81518.9
15.215	81517.9
15.220	81521.9
15.225	81517.9
15.230	81527.9
15.235	81521.9
15.240	81520.9
15.245	81493.9
15.250	81490.9
15.255	81510.9
15.260	81535.9
15.265	81524.9
15.270	81525.9
15.275	81525.9
15.280	81533.9
15.285	81524.9
15.290	81530.9
15.295	81531.9
15.300	81524.9
15.305	81522.9
15.310	81503.9
15.315	81495.9
15.320	81502.9
15.325	81524.9
15.330	81508.9
15.335	81499.9
15.340	81497.9
15.345	81494.9
15.350	81497.9
15.355	81490.9
15.360	81489.9
15.365	81489.9
15.370	81492.9
15.375	81476.9
15.380	81451.0
15.385	81453.0
15.390	81488.9
15.395	81489.9
15.400	81486.9
15.405	81469.9
15.410	81470.9
15.415	81479.9
15.420	81478.9
15.425	81474.9
15.430	81477.9
15.435	81464.9
15.440	81461.9
15.445	81427.0
15.450	81431.0
15.455	81451.0
15.460	81463.9
15.465	81450.0
15.470	81442.0
15.475	81443.0
15.480	81437.0
15.485	81425.0
15.490	81422.0
15.495	81424.0
15.500	81420.0
15.505	81420.0
15.510	81395.0
15.515	81379.0
15.520	81395.0
15.525	81419.0
15.530	81421.0
15.535	81418.0
15.540	81412.0
15.545	81410.0
15.550	81407.0
15.555	81414.0
15.560	81416.0
15.565	81416.0
15.570	81403.0
15.575	81392.0
15.580	81373.0
15.585	81378.0
15.590	81395.0
15.595	81396.0
15.600	81388.0
15.605	81383.0
15.610	81381.0
15.615	81384.0
15.620	81399.0
15.625	81396.0
15.630	81400.0
15.635	81401.0
15.640	81400.0
15.645	81361.0
15.650	81362.0
15.655	81375.0
15.660	81400.0
15.665	81397.0
15.670	81408.0
15.675	81403.0
15.680	81407.0
15.685	81396.0
15.690	81406.0
15.695	81408.0
15.700	81407.0
15.705	81401.0
15.710	81375.0
15.715	81375.0
15.720	81397.0
15.725	81425.0
15.730	81414.0
15.735	81414.0
15.740	81407.0
15.745	81414.0
15.750	81417.0
15.755	81413.0
15.760	81411.0
15.765	81412.0
15.770	81408.0
15.775	81400.0
15.780	81392.0
15.785	81390.0
15.790	81422.9
15.795	81438.9
15.800	81440.9
15.805	81435.9
15.810	81442.9
15.815	81438.9
15.820	81442.9
15.825	81446.9
15.830	81457.9
15.835	81448.9
15.840	81453.9
15.845	81412.0
15.850	81429.9
15.855	81454.9
15.860	81468.9
15.865	81445.9
15.870	81442.9
15.875	81440.9
15.880	81443.9
15.885	81445.9
15.890	81453.9
15.895	81446.9
15.900	81455.9
15.905	81451.9
15.910	81419.9
15.915	81411.9
15.920	81441.9
15.925	81462.9
15.930	81464.9
15.935	81466.9
15.940	81471.9
15.945	81472.9
15.950	81478.9
15.955	81466.9
15.960	81468.9
15.965	81467.9
15.970	81473.9
15.975	81463.9
15.980	81438.9
15.985	81450.9
15.990	81479.9
15.995	81481.9
16.000	81476.9
16.005	81478.9
16.010	81476.9
16.015	81477.9
16.020	81489.9
16.025	81482.9
16.030	81481.9
16.035	81481.9
16.040	81480.9
16.045	81436.9
16.050	81438.9
16.055	81460.9
16.060	81491.9
16.065	81471.9
16.070	81473.9
16.075	81468.9
16.080	81486.9
16.085	81487.9
16.090	81488.9
16.095	81478.9
16.100	81481.9
16.105	81481.9
16.110	81457.9
16.115	81449.9
16.120	81468.9
16.125	81482.9
16.130	81480.9
16.135	81480.9
16.140	81482.9
16.145	81468.9
16.150	81456.9
16.155	81470.9
16.160	81471.9
16.165	81457.9
16.170	81474.9
16.175	81456.9
16.180	81421.9
16.185	81446.9
16.190	81463.9
16.195	81466.9
16.200	81469.9
16.205	81468.9
16.210	81457.9
16.215	81461.9
16.220	81458.9
16.225	81455.9
16.230	81463.9
16.235	81458.9
16.240	81467.9
16.245	81424.9
16.250	81422.9
16.255	81444.9
16.260	81458.9
16.265	81449.9
16.270	81446.9
16.275	81444.9
16.280	81439.9
16.285	81451.9
16.290	81458.9
16.295	81449.9
16.300	81446.9
16.305	81448.9
16.310	81429.9
16.315	81418.9
16.320	81442.9
16.325	81464.9
16.330	81458.9
16.335	81463.9
16.340	81469.9
16.345	81456.9
16.350	81449.9
16.355	81446.9
16.360	81462.9
16.365	81463.9
16.370	81458.9
16.375	81428.9
16.380	81410.9
16.385	81432.9
16.390	81448.9
16.395	81445.9
16.400	81438.9
16.405	81438.9
16.410	81430.9
16.415	81414.9
16.420	81425.9
16.425	81425.9
16.430	81430.9
16.435	81433.9
16.440	81434.9
16.445	81386.9
16.450	81384.9
16.455	81404.9
16.460	81430.9
16.465	81413.9
16.470	81414.9
16.475	81419.9
16.480	81424.9
16.485	81424.9
16.490	81416.9
16.495	81415.9
16.500	81417.9
16.505	81411.9
16.510	81376.9
16.515	81378.9
16.520	81391.9
16.525	81410.9
16.530	81400.9
16.535	81388.9
16.540	81392.9
16.545	81385.9
16.550	81380.9
16.555	81383.9
16.560	81394.9
16.565	81386.9
16.570	81398.9
16.575	81379.9
16.580	81363.9
16.585	81373.9
16.590	81393.9
16.595	81401.9
16.600	81410.9
16.605	81404.9
16.610	81401.9
16.615	81411.9
16.620	81413.9
16.625	81408.9
16.630	81415.9
16.635	81410.9
16.640	81410.9
16.645	81371.9
16.650	81386.9
16.655	81415.9
16.660	81422.9
16.665	81422.9
16.670	81405.9
16.675	81407.9
16.680	81410.9
16.685	81422.9
16.690	81421.9
16.695	81415.9
16.700	81422.9
16.705	81426.9
16.710	81412.9
16.715	81394.9
16.720	81415.9
16.725	81426.9
16.730	81429.9
16.735	81421.9
16.740	81420.9
16.745	81427.9
16.750	81435.9
16.755	81434.9
16.760	81444.9
16.765	81421.9
16.770	81427.9
16.775	81396.9
16.780	81380.9
16.785	81403.9
16.790	81422.9
16.795	81406.9
16.800	81407.9
16.805	81393.9
16.810	81396.9
16.815	81391.9
16.820	81389.9
16.825	81378.9
16.830	81383.9
16.835	81387.9
16.840	81382.9
16.845	81343.9
16.850	81358.9
16.855	81364.9
16.860	81383.9
16.865	81373.9
16.870	81367.9
16.875	81349.9
16.880	81356.9
16.885	81349.9
16.890	81359.9
16.895	81350.9
16.900	81347.9
16.905	81331.9
16.910	81277.0
16.915	81275.0
16.920	81298.0
16.925	81311.0
16.930	81308.0
16.935	81288.0
16.940	81288.0
16.945	81275.0
16.950	81267.0
16.955	81266.0
16.960	81253.0
16.965	81254.0
16.970	81259.0
16.975	81235.0
16.980	81228.0
16.985	81219.0
16.990	81240.0
16.995	81223.0
17.000	81216.0
17.005	81201.0
17.010	81202.0
17.015	81178.0
17.020	81185.0
17.025	81177.0
17.030	81171.0
17.035	81162.1
17.040	81152.1
17.045	81108.1
17.050	81123.1
17.055	81162.1
17.060	81172.0
17.065	81156.1
17.070	81159.1
17.075	81150.1
17.080	81144.1
17.085	81130.1
17.090	81139.1
17.095	81143.1
17.100	81157.1
17.105	81165.0
17.110	81134.1
17.115	81132.1
17.120	81167.0
17.125	81198.0
17.130	81194.0
17.135	81176.0
17.140	81164.0
17.145	81177.0
17.150	81181.0
17.155	81189.0
17.160	81193.0
17.165	81209.0
17.170	81206.0
17.175	81173.0
17.180	81170.0
17.185	81192.0
17.190	81232.0
17.195	81237.0
17.200	81243.0
17.205	81233.0
17.210	81237.0
17.215	81224.0
17.220	81223.0
17.225	81231.0
17.230	81242.0
17.235	81239.0
17.240	81233.0
17.245	81206.0
17.250	81206.0
17.255	81222.0
17.260	81231.0
17.265	81244.0
17.270	81256.0
17.275	81263.0
17.280	81277.9
17.285	81265.0
17.290	81257.0
17.295	81250.0
17.300	81259.0
17.305	81257.0
17.310	81240.0
17.315	81236.0
17.320	81257.0
17.325	81277.9
17.330	81279.9
17.335	81271.9
17.340	81266.9
17.345	81252.0
17.350	81268.9
17.355	81267.9
17.360	81274.9
17.365	81266.9
17.370	81271.9
17.375	81238.0
17.380	81225.0
17.385	81228.0
17.390	81271.9
17.395	81262.9
17.400	81262.9
17.405	81249.0
17.410	81261.9
17.415	81260.9
17.420	81269.9
17.425	81260.9
17.430	81260.9
17.435	81261.9
17.440	81252.9
17.445	81222.0
17.450	81244.9
17.455	81257.9
17.460	81270.9
17.465	81257.9
17.470	81255.9
17.475	81236.0
17.480	81234.0
17.485	81236.0
17.490	81242.9
17.495	81239.9
17.500	81231.0
17.505	81229.0
17.510	81194.0
17.515	81203.0
17.520	81223.0
17.525	81248.9
17.530	81242.9
17.535	81235.0
17.540	81235.0
17.545	81234.0
17.550	81246.9
17.555	81249.9
17.560	81258.9
17.565	81261.9
17.570	81251.9
17.575	81225.0
17.580	81221.0
17.585	81237.9
17.590	81266.9
17.595	81256.9
17.600	81254.9
17.605	81262.9
17.610	81255.9
17.615	81247.9
17.620	81268.9
17.625	81263.9
17.630	81273.9
17.635	81270.9
17.640	81261.9
17.645	81233.9
17.650	81237.9
17.655	81266.9
17.660	81280.9
17.665	81283.9
17.670	81285.9
17.675	81266.9
17.680	81271.9
17.685	81274.9
17.690	81272.9
17.695	81261.9
17.700	81259.9
17.705	81254.9
17.710	81218.9
17.715	81222.9
17.720	81247.9
17.725	81255.9
17.730	81251.9
17.735	81239.9
17.740	81253.9
17.745	81259.9
17.750	81257.9
17.755	81267.9
17.760	81268.9
17.765	81262.9
17.770	81268.9
17.775	81246.9
17.780	81226.9
17.785	81251.9
17.790	81281.9
17.795	81271.9
17.800	81269.9
17.805	81277.9
17.810	81277.9
17.815	81288.9
17.820	81295.9
17.825	81294.9
17.830	81302.9
17.835	81287.9
17.840	81279.9
17.845	81262.9
17.850	81280.9
17.855	81305.9
17.860	81317.9
17.865	81306.9
17.870	81298.9
17.875	81301.9
17.880	81304.9
17.885	81302.9
17.890	81301.9
17.895	81304.9
17.900	81318.8
17.905	81311.8
17.910	81293.9
17.915	81301.9
17.920	81339.8
17.925	81349.8
17.930	81349.8
17.935	81344.8
17.940	81357.8
17.945	81367.8
17.950	81376.8
17.955	81393.8
17.960	81401.8
17.965	81402.8
17.970	81406.8
17.975	81383.8
17.980	81379.8
17.985	81408.8
17.990	81433.7
17.995	81431.7
18.000	81423.7
18.005	81410.8
18.010	81422.7
18.015	81432.7
18.020	81440.7
18.025	81451.7
18.030	81449.7
18.035	81457.7
18.040	81453.7
18.045	81430.7
18.050	81449.7
18.055	81457.7
18.060	81474.7
18.065	81477.7
18.070	81477.7
18.075	81466.7
18.080	81477.7
18.085	81477.7
18.090	81485.7
18.095	81469.7
18.100	81463.7
18.105	81461.7
18.110	81430.7
18.115	81441.7
18.120	81449.7
18.125	81438.7
18.130	81430.7
18.135	81439.7
18.140	81447.7
18.145	81435.7
18.150	81451.7
18.155	81440.7
18.160	81437.7
18.165	81440.7
18.170	81440.7
18.175	81404.7
18.180	81384.8
18.185	81387.8
18.190	81422.7
18.195	81429.7
18.200	81421.7
18.205	81413.7
18.210	81402.7
18.215	81405.7
18.220	81406.7
18.225	81422.7
18.230	81421.7
18.235	81405.7
18.240	81375.8
18.245	81368.8
18.250	81389.7
18.255	81421.7
18.260	81423.7
18.265	81405.7
18.270	81399.7
18.275	81391.7
18.280	81409.7
18.285	81402.7
18.290	81425.7
18.295	81411.7
18.300	81409.7
18.305	81390.7
18.310	81352.8
18.315	81365.8
18.320	81402.7
18.325	81400.7
18.330	81398.7
18.335	81386.7
18.340	81377.7
18.345	81377.7
18.350	81394.7
18.355	81400.7
18.360	81396.7
18.365	81378.7
18.370	81379.7
18.375	81342.8
18.380	81353.8
18.385	81356.7
18.390	81375.7
18.395	81366.7
18.400	81361.7
18.405	81350.8
18.410	81353.7
18.415	81357.7
18.420	81358.7
18.425	81343.8
18.430	81353.7
18.435	81364.7
18.440	81352.7
18.445	81330.8
18.450	81329.8
18.455	81327.8
18.460	81343.7
18.465	81355.7
18.470	81349.7
18.475	81355.7
18.480	81367.7
18.485	81374.7
18.490	81359.7
18.495	81359.7
18.500	81366.7
18.505	81352.7
18.510	81327.8
18.515	81328.8
18.520	81365.7
18.525	81351.7
18.530	81352.7
18.535	81338.7
18.540	81338.7
18.545	81326.8
18.550	81339.7
18.555	81333.7
18.560	81330.7
18.565	81327.7
18.570	81334.7
18.575	81294.8
18.580	81283.8
18.585	81282.8
18.590	81315.8
18.595	81300.8
18.600	81308.8
18.605	81304.8
18.610	81305.8
18.615	81296.8
18.620	81302.8
18.625	81284.8
18.630	81269.8
18.635	81260.8
18.640	81243.8
18.645	81231.8
18.650	81244.8
18.655	81263.8
18.660	81256.8
18.665	81231.8
18.670	81222.8
18.675	81212.8
18.680	81213.8
18.685	81224.8
18.690	81224.8
18.695	81221.8
18.700	81210.8
18.705	81197.8
18.710	81169.8
18.715	81167.8
18.720	81203.8
18.725	81208.8
18.730	81209.8
18.735	81196.8
18.740	81203.8
18.745	81198.8
18.750	81200.8
18.755	81209.8
18.760	81213.8
18.765	81204.8
18.770	81192.8
18.775	81162.8
18.780	81160.8
18.785	81184.8
18.790	81191.8
18.795	81183.8
18.800	81173.8
18.805	81158.8
18.810	81167.8
18.815	81169.8
18.820	81170.8
18.825	81154.8
18.830	81164.8
18.835	81152.8
18.840	81131.8
18.845	81102.9
18.850	81108.9
18.855	81149.8
18.860	81157.8
18.865	81163.8
18.870	81166.8
18.875	81154.8
18.880	81157.8
18.885	81150.8
18.890	81147.8
18.895	81156.8
18.900	81149.8
18.905	81141.8
18.910	81117.8
18.915	81118.8
18.920	81146.8
18.925	81148.8
18.930	81140.8
18.935	81139.8
18.940	81130.8
18.945	81127.8
18.950	81129.8
18.955	81119.8
18.960	81104.8
18.965	81092.8
18.970	81111.8
18.975	81066.9
18.980	81074.9
18.985	81087.9
18.990	81114.8
18.995	81102.8
19.000	81092.8
19.005	81073.9
19.010	81065.9
19.015	81047.9
19.020	81033.9
19.025	81029.9
19.030	81023.9
19.035	81010.9
19.040	80981.9
19.045	80947.9
19.050	80958.9
19.055	80976.9
19.060	80964.9
19.065	80947.9
19.070	80944.9
19.075	80956.9
19.080	80990.9
19.085	81011.9
19.090	80998.9
19.095	80978.9
19.100	80977.9
19.105	80956.9
19.110	80934.9
19.115	80936.9
19.120	80989.9
19.125	81020.9
19.130	81038.9
19.135	81054.8
19.140	81064.8
19.145	81096.8
19.150	81108.8
19.155	81115.8
19.160	81100.8
19.165	81096.8
19.170	81089.8
19.175	81076.8
19.180	81096.8
19.185	81106.8
19.190	81128.8
19.195	81111.8
19.200	81116.8
19.205	81111.8
19.210	81126.8
19.215	81122.8
19.220	81132.8
19.225	81131.8
19.230	81132.8
19.235	81130.8
19.240	81122.8
19.245	81105.8
19.250	81120.8
19.255	81144.8
19.260	81144.8
19.265	81132.8
19.270	81122.8
19.275	81112.8
19.280	81131.8
19.285	81119.8
19.290	81116.8
19.295	81119.8
19.300	81126.8
19.305	81126.8
19.310	81110.8
19.315	81118.8
19.320	81125.7
19.325	81106.8
19.330	81097.8
19.335	81089.8
19.340	81070.8
19.345	81066.8
19.350	81052.8
19.355	81038.8
19.360	81023.8
19.365	81003.8
19.370	80994.8
19.375	80941.9
19.380	80929.9
19.385	80929.9
19.390	80932.9
19.395	80922.9
19.400	80925.9
19.405	80929.9
19.410	80935.9
19.415	80938.9
19.420	80937.9
19.425	80936.9
19.430	80944.9
19.435	80947.9
19.440	80928.9
19.445	80911.9
19.450	80933.9
19.455	80959.8
19.460	80965.8
19.465	80963.8
19.470	80985.8
19.475	80988.8
19.480	80995.8
19.485	80983.8
19.490	81003.8
19.495	81013.8
19.500	81041.8
19.505	81041.8
19.510	81029.8
19.515	81045.8
19.520	81079.7
19.525	81094.7
19.530	81091.7
19.535	81089.7
19.540	81089.7
19.545	81087.7
19.550	81083.7
19.555	81086.7
19.560	81091.7
19.565	81085.7
19.570	81095.7
19.575	81060.7
19.580	81082.7
19.585	81094.7
19.590	81111.7
19.595	81104.7
19.600	81103.7
19.605	81092.7
19.610	81090.7
19.615	81092.7
19.620	81091.7
19.625	81093.7
19.630	81092.7
19.635	81072.7
19.640	81062.7
19.645	81039.7
19.650	81046.7
19.655	81052.7
19.660	81052.7
19.665	81028.7
19.670	81031.7
19.675	81016.7
19.680	81016.7
19.685	81002.7
19.690	81008.7
19.695	80999.7
19.700	81005.7
19.705	80983.7
19.710	80964.8
19.715	80969.8
19.720	80992.7
19.725	80979.7
19.730	80969.8
19.735	80950.8
19.740	80940.8
19.745	80933.8
19.750	80939.8
19.755	80940.8
19.760	80938.8
19.765	80925.8
19.770	80914.8
19.775	80888.8
19.780	80909.8
19.785	80936.8
19.790	80955.7
19.795	80948.8
19.800	80944.8
19.805	80901.8
19.810	80891.8
19.815	80893.8
19.820	80886.8
19.825	80871.8
19.830	80873.8
19.835	80869.8
19.840	80833.8
19.845	80801.8
19.850	80812.8
19.855	80817.8
19.860	80820.8
19.865	80802.8
19.870	80787.8
19.875	80777.9
19.880	80779.9
19.885	80796.8
19.890	80818.8
19.895	80805.8
19.900	80783.8
19.905	80748.9
19.910	80735.9
19.915	80764.8
19.920	80799.8
19.925	80795.8
19.930	80763.8
19.935	80727.9
19.940	80729.9
19.945	80717.9
19.950	80725.9
19.955	80717.9
19.960	80710.9
19.965	80702.9
19.970	80683.9
19.975	80660.9
19.980	80664.9
19.985	80683.9
19.990	80687.9
19.995	80670.9
20.000	80664.9
20.005	80655.9
20.010	80672.9
20.015	80677.9
20.020	80694.9
20.025	80712.8
20.030	80735.8
20.035	80749.8
20.040	80750.8
20.045	80753.8
20.050	80775.8
20.055	80817.7
20.060	80831.7
20.065	80852.7
20.070	80878.7
20.075	80886.7
20.080	80902.7
20.085	80901.7
20.090	80904.7
20.095	80902.7
20.100	80912.7
20.105	80887.7
20.110	80879.7
20.115	80893.7
20.120	80935.6
20.125	80930.6
20.130	80933.6
20.135	80937.6
20.140	80940.6
20.145	80943.6
20.150	80951.6
20.155	80943.6
20.160	80939.6
20.165	80944.6
20.170	80941.6
20.175	80899.6
20.180	80899.6
20.185	80907.6
20.190	80922.6
20.195	80915.6
20.200	80902.6
20.205	80896.6
20.210	80896.6
20.215	80880.6
20.220	80865.6
20.225	80856.6
20.230	80859.6
20.235	80849.6
20.240	80813.7
20.245	80814.7
20.250	80827.6
20.255	80851.6
20.260	80850.6
20.265	80843.6
20.270	80832.6
20.275	80823.6
20.280	80824.6
20.285	80828.6
20.290	80821.6
20.295	80816.6
20.300	80805.6
20.305	80775.7
20.310	80745.7
20.315	80742.7
20.320	80758.7
20.325	80740.7
20.330	80733.7
20.335	80716.7
20.340	80693.7
20.345	80671.7
20.350	80666.7
20.355	80666.7
20.360	80658.7
20.365	80611.7
20.370	80591.8
20.375	80528.8
20.380	80519.8
20.385	80535.8
20.390	80526.8
20.395	80501.8
20.400	80498.8
20.405	80511.8
20.410	80532.8
20.415	80537.8
20.420	80555.7
20.425	80563.7
20.430	80560.7
20.435	80560.7
20.440	80534.8
20.445	80529.8
20.450	80540.7
20.455	80552.7
20.460	80534.7
20.465	80521.7
20.470	80512.7
20.475	80486.8
20.480	80477.8
20.485	80479.8
20.490	80487.8
20.495	80450.8
20.500	80419.8
20.505	80349.8
20.510	80280.9
20.515	80248.9
20.520	80265.9
20.525	80232.9
20.530	80201.9
20.535	80166.0
20.540	80139.0
20.545	80115.0
20.550	80131.0
20.555	80143.0
20.560	80159.0
20.565	80165.9
20.570	80178.9
20.575	80147.9
20.580	80172.9
20.585	80202.9
20.590	80215.9
20.595	80231.9
20.600	80265.8
20.605	80280.8
20.610	80285.8
20.615	80268.8
20.620	80258.8
20.625	80242.8
20.630	80239.8
20.635	80213.8
20.640	80160.9
20.645	80131.9
20.650	80157.9
20.655	80187.8
20.660	80171.8
20.665	80133.9
20.670	80113.9
20.675	80090.9
20.680	80023.9
20.685	79956.0
20.690	79911.0
20.695	79863.1
20.700	79823.1
20.705	79800.1
20.710	79768.1
20.715	79753.1
20.720	79765.1
20.725	79767.1
20.730	79737.1
20.735	79699.1
20.740	79671.2
20.745	79638.2
20.750	79661.2
20.755	79727.1
20.760	79767.1
20.765	79776.0
20.770	79797.0
20.775	79770.0
20.780	79805.0
20.785	79836.0
20.790	79843.0
20.795	79831.0
20.800	79797.0
20.805	79757.0
20.810	79718.0
20.815	79671.1
20.820	79628.1
20.825	79573.1
20.830	79519.2
20.835	79457.2
20.840	79383.3
20.845	79302.3
20.850	79237.4
20.855	79261.3
20.860	79259.3
20.865	79241.3
20.870	79256.3
20.875	79215.3
20.880	79169.4
20.885	79099.4
20.890	79005.5
20.895	78948.5
20.900	78960.5
20.905	78987.5
20.910	79011.4
20.915	79057.4
20.920	79119.3
20.925	79125.3
20.930	79138.3
20.935	79161.3
20.940	79197.2
20.945	79203.2
20.950	79219.2
20.955	79226.2
20.960	79223.2
20.965	79218.2
20.970	79232.1
20.975	79224.1
20.980	79237.1
20.985	79224.1
20.990	79205.1
20.995	79193.1
21.000	79188.1
21.005	79154.1
21.010	79140.1
21.015	79068.2
21.020	78971.2
21.025	78881.3
21.030	78778.4
21.035	78649.5
21.040	78530.5
21.045	78442.6
21.050	78362.7
21.055	78330.7
21.060	78345.6
21.065	78342.6
21.070	78349.6
21.075	78450.5
21.080	78616.4
21.085	78800.2
21.090	78910.1
21.095	78885.1
21.100	78803.2
21.105	78677.3
21.110	78516.4
21.115	78286.5
21.120	78086.7
21.125	77936.8
21.130	77909.8
21.135	78019.7
21.140	78335.4
21.145	78557.2
21.150	78639.2
21.155	78760.1
21.160	78937.9
21.165	79178.7
21.170	79332.5
21.175	79375.5
21.180	79369.5
21.185	79275.5
21.190	79112.6
21.195	78944.7
21.200	78957.7
21.205	79037.6
21.210	79136.5
21.215	79255.4
21.220	79329.3
21.225	79228.4
21.230	79022.5
21.235	78912.6
21.240	78883.6
21.245	78893.5
21.250	78884.5
21.255	78658.6
21.260	78084.1
21.265	77640.4
21.270	77161.7
21.275	76518.2
21.280	76351.3
21.285	76665.0
21.290	76763.9
21.295	76481.1
21.300	76704.9
21.305	77767.0
21.310	78426.4
21.315	78111.6
21.320	77912.7
21.325	77951.6
21.330	77806.7
21.335	77564.8
21.340	77611.7
21.345	77743.6
21.350	77165.0
21.355	75220.5
21.360	72759.3
21.365	72507.5
21.370	73814.3
21.375	73895.1
21.380	73082.8
21.385	73555.3
21.390	76028.1
21.395	77189.1
21.400	76751.4
21.405	76077.8
21.410	75633.0
21.415	75221.3
21.420	74858.5
21.425	74451.9
21.430	74091.2
21.435	74122.2
21.440	74494.0
21.445	74735.9
21.450	74761.1
21.455	74781.4
21.460	75025.6
21.465	75628.5
21.470	76466.2
21.475	77325.9
21.480	78161.7
21.485	79011.5
21.490	79886.3
21.495	80718.1
21.500	81409.9
21.505	81886.8
21.510	82226.7
21.515	82424.6
21.520	82555.5
21.525	82604.5
21.530	82636.5
21.535	82647.5
21.540	82651.5
21.545	82656.5
21.550	82670.5
21.555	82667.5
21.560	82675.5
21.565	82672.5
21.570	82655.5
21.575	82641.5
21.580	82650.5
21.585	82685.5
21.590	82682.5
21.595	82674.5
21.600	82673.5
21.605	82673.5
21.610	82673.5
21.615	82662.5
21.620	82676.5
21.625	82670.5
21.630	82676.5
21.635	82662.5
21.640	82645.5
21.645	82637.5
21.650	82664.5
21.655	82676.5
21.660	82669.5
21.665	82682.5
21.670	82671.5
21.675	82678.5
21.680	82682.5
21.685	82680.5
21.690	82689.5
21.695	82685.5
21.700	82684.5
21.705	82652.5
21.710	82650.5
21.715	82669.5
21.720	82691.5
21.725	82688.5
21.730	82684.5
21.735	82674.5
21.740	82674.5
21.745	82670.5
21.750	82674.5
21.755	82679.5
21.760	82681.5
21.765	82689.5
21.770	82663.5
21.775	82638.5
21.780	82655.5
21.785	82684.5
21.790	82688.5
21.795	82685.5
21.800	82690.5
21.805	82682.5
21.810	82687.5
21.815	82692.5
21.820	82700.5
21.825	82694.5
21.830	82693.5
21.835	82687.5
21.840	82660.5
21.845	82659.5
21.850	82689.5
21.855	82694.5
21.860	82690.5
21.865	82684.5
21.870	82682.5
21.875	82676.5
21.880	82680.5
21.885	82683.5
21.890	82696.5
21.895	82677.5
21.900	82695.5
21.905	82661.5
21.910	82653.5
21.915	82664.5
21.920	82689.5
21.925	82695.5
21.930	82693.5
21.935	82687.5
21.940	82698.5
21.945	82688.5
21.950	82688.5
21.955	82687.5
21.960	82699.5
21.965	82693.5
21.970	82677.5
21.975	82659.5
21.980	82676.5
21.985	82690.5
21.990	82693.5
21.995	82692.5
22.000	82691.5
22.005	82688.5
22.010	82687.5
22.015	82692.5
22.020	82696.5
22.025	82687.5
22.030	82699.5
22.035	82687.5
22.040	82659.5
22.045	82656.5
22.050	82677.5
22.055	82693.5
22.060	82699.5
22.065	82692.5
22.070	82691.5
22.075	82692.5
22.080	82692.5
22.085	82699.5
22.090	82700.5
22.095	82697.5
22.100	82700.5
22.105	82666.5
22.110	82664.5
22.115	82686.5
22.120	82706.5
22.125	82697.5
22.130	82687.5
22.135	82689.5
22.140	82687.5
22.145	82686.5
22.150	82692.5
22.155	82683.5
22.160	82684.5
22.165	82688.5
22.170	82686.5
22.175	82654.5
22.180	82671.5
22.185	82695.5
22.190	82700.5
22.195	82691.5
22.200	82699.5
22.205	82694.5
22.210	82698.5
22.215	82697.5
22.220	82705.5
22.225	82699.5
22.230	82701.5
22.235	82699.5
22.240	82665.5
22.245	82672.5
22.250	82696.5
22.255	82703.5
22.260	82694.5
22.265	82691.5
22.270	82695.5
22.275	82694.5
22.280	82688.5
22.285	82691.5
22.290	82692.5
22.295	82696.5
22.300	82696.5
22.305	82672.5
22.310	82662.5
22.315	82673.5
22.320	82695.5
22.325	82692.5
22.330	82703.5
22.335	82699.5
22.340	82697.5
22.345	82697.5
22.350	82708.5
22.355	82701.5
22.360	82713.5
22.365	82702.5
22.370	82681.5
22.375	82657.5
22.380	82676.5
22.385	82702.5
22.390	82702.5
22.395	82693.5
22.400	82691.5
22.405	82688.5
22.410	82688.5
22.415	82689.5
22.420	82696.5
22.425	82688.5
22.430	82695.5
22.435	82697.5
22.440	82662.5
22.445	82662.5
22.450	82693.5
22.455	82696.5
22.460	82703.5
22.465	82700.5
22.470	82693.5
22.475	82692.5
22.480	82695.5
22.485	82697.5
22.490	82700.5
22.495	82693.5
22.500	82703.5
22.505	82656.5
22.510	82662.5
22.515	82676.5
22.520	82704.5
22.525	82694.5
22.530	82703.5
22.535	82690.5
22.540	82689.5
22.545	82685.5
22.550	82692.5
22.555	82689.5
22.560	82691.5
22.565	82697.5
22.570	82679.5
22.575	82653.5
22.580	82671.5
22.585	82694.5
22.590	82697.5
22.595	82696.5
22.600	82706.5
22.605	82703.5
22.610	82708.5
22.615	82695.5
22.620	82703.5
22.625	82707.5
22.630	82703.5
22.635	82690.5
22.640	82658.5
22.645	82669.5
22.650	82702.5
22.655	82710.5
22.660	82699.5
22.665	82688.5
22.670	82693.5
22.675	82683.5
22.680	82694.5
22.685	82687.5
22.690	82694.5
22.695	82687.5
22.700	82700.5
22.705	82666.5
22.710	82662.5
22.715	82678.5
22.720	82699.5
22.725	82697.5
22.730	82696.5
22.735	82697.5
22.740	82695.5
22.745	82705.5
22.750	82697.5
22.755	82700.5
22.760	82701.5
22.765	82697.5
22.770	82677.5
22.775	82656.5
22.780	82685.5
22.785	82694.5
22.790	82698.5
22.795	82688.5
22.800	82692.5
22.805	82689.5
22.810	82688.5
22.815	82695.5
22.820	82690.5
22.825	82692.5
22.830	82693.5
22.835	82693.5
22.840	82660.5
22.845	82664.5
22.850	82688.5
22.855	82699.5
22.860	82700.5
22.865	82692.5
22.870	82702.5
22.875	82695.5
22.880	82707.5
22.885	82702.5
22.890	82697.5
22.895	82684.5
22.900	82693.5
22.905	82657.5
22.910	82663.5
22.915	82681.5
22.920	82702.5
22.925	82694.5
22.930	82686.5
22.935	82685.5
22.940	82694.5
22.945	82695.5
22.950	82689.5
22.955	82685.5
22.960	82692.5
22.965	82686.5
22.970	82669.5
22.975	82650.5
22.980	82666.5
22.985	82688.5
22.990	82691.5
22.995	82692.5
23.000	82688.5
23.005	82693.5
23.010	82688.5
23.015	82695.5
23.020	82701.5
23.025	82701.5
23.030	82700.5
23.035	82678.5
23.040	82660.5
23.045	82672.5
23.050	82684.5
23.055	82692.5
23.060	82694.5
23.065	82676.5
23.070	82686.5
23.075	82675.5
23.080	82685.5
23.085	82678.5
23.090	82686.5
23.095	82688.5
23.100	82690.5
23.105	82653.5
23.110	82660.5
23.115	82666.5
23.120	82692.5
23.125	82692.5
23.130	82697.5
23.135	82689.5
23.140	82697.5
23.145	82689.5
23.150	82696.5
23.155	82688.5
23.160	82690.5
23.165	82691.5
23.170	82672.5
23.175	82648.5
23.180	82681.5
23.185	82695.5
23.190	82697.5
23.195	82684.5
23.200	82669.5
23.205	82678.5
23.210	82682.5
23.215	82676.5
23.220	82674.5
23.225	82689.5
23.230	82695.5
23.235	82677.5
23.240	82651.5
23.245	82649.5
23.250	82673.5
23.255	82681.5
23.260	82685.5
23.265	82684.5
23.270	82690.5
23.275	82692.5
23.280	82681.5
23.285	82696.5
23.290	82696.5
23.295	82691.5
23.300	82691.5
23.305	82645.5
23.310	82653.5
23.315	82672.5
23.320	82695.5
23.325	82680.5
23.330	82687.5
23.335	82677.5
23.340	82675.5
23.345	82673.5
23.350	82683.5
23.355	82678.5
23.360	82684.5
23.365	82681.5
23.370	82663.5
23.375	82642.5
23.380	82650.5
23.385	82688.5
23.390	82682.5
23.395	82688.5
23.400	82687.5
23.405	82686.5
23.410	82684.5
23.415	82692.5
23.420	82689.5
23.425	82694.5
23.430	82685.5
23.435	82672.5
23.440	82646.5
23.445	82661.5
23.450	82688.5
23.455	82694.5
23.460	82679.5
23.465	82679.5
23.470	82671.5
23.475	82674.5
23.480	82679.5
23.485	82684.5
23.490	82680.5
23.495	82680.5
23.500	82678.5
23.505	82643.5
23.510	82648.5
23.515	82657.5
23.520	82687.5
23.525	82687.5
23.530	82688.5
23.535	82682.5
23.540	82691.5
23.545	82693.5
23.550	82692.5
23.555	82689.5
23.560	82690.5
23.565	82682.5
23.570	82656.5
23.575	82649.5
23.580	82676.5
23.585	82689.5
23.590	82690.5
23.595	82675.5
23.600	82680.5
23.605	82675.5
23.610	82683.5
23.615	82679.5
23.620	82682.5
23.625	82679.5
23.630	82674.5
23.635	82666.5
23.640	82646.5
23.645	82656.5
23.650	82677.5
23.655	82685.5
23.660	82684.5
23.665	82680.5
23.670	82683.5
23.675	82688.5
23.680	82683.5
23.685	82684.5
23.690	82692.5
23.695	82686.5
23.700	82685.5
23.705	82649.5
23.710	82667.5
23.715	82678.5
23.720	82698.5
23.725	82684.5
23.730	82684.5
23.735	82683.5
23.740	82676.5
23.745	82677.5
23.750	82674.5
23.755	82672.5
23.760	82687.5
23.765	82679.5
23.770	82655.5
23.775	82642.5
23.780	82660.5
23.785	82673.5
23.790	82685.5
23.795	82677.5
23.800	82683.5
23.805	82682.5
23.810	82691.5
23.815	82683.5
23.820	82688.5
23.825	82682.5
23.830	82681.5
23.835	82668.5
23.840	82647.5
23.845	82666.5
23.850	82686.5
23.855	82684.5
23.860	82678.5
23.865	82678.5
23.870	82675.5
23.875	82676.5
23.880	82688.5
23.885	82678.5
23.890	82677.5
23.895	82679.5
23.900	82684.5
23.905	82640.5
23.910	82646.5
23.915	82662.5
23.920	82684.5
23.925	82680.5
23.930	82683.5
23.935	82689.5
23.940	82687.5
23.945	82689.5
23.950	82687.5
23.955	82682.5
23.960	82685.5
23.965	82677.5
23.970	82659.5
23.975	82645.5
23.980	82680.5
23.985	82679.5
23.990	82682.5
23.995	82670.5
24.000	82681.5
24.005	82673.5
24.010	82677.5
24.015	82681.5
24.020	82686.5
24.025	82672.5
24.030	82674.5
24.035	82661.5
24.040	82643.5
24.045	82657.5
24.050	82674.5
24.055	82680.5
24.060	82683.5
24.065	82678.5
24.070	82686.5
24.075	82678.5
24.080	82686.5
24.085	82685.5
24.090	82681.5
24.095	82671.5
24.100	82680.5
24.105	82655.5
24.110	82654.5
24.115	82680.5
24.120	82684.5
24.125	82674.5
24.130	82674.5
24.135	82671.5
24.140	82682.5
24.145	82674.5
24.150	82674.5
24.155	82674.5
24.160	82680.5
24.165	82668.5
24.170	82651.5
24.175	82636.5
24.180	82658.5
24.185	82671.5
24.190	82685.5
24.195	82675.5
24.200	82678.5
24.205	82675.5
24.210	82681.5
24.215	82684.5
24.220	82682.5
24.225	82676.5
24.230	82685.5
24.235	82660.5
24.240	82640.5
24.245	82657.5
24.250	82692.5
24.255	82672.5
24.260	82679.5
24.265	82668.5
24.270	82675.5
24.275	82667.5
24.280	82672.5
24.285	82663.5
24.290	82674.5
24.295	82670.5
24.300	82669.5
24.305	82638.5
24.310	82638.5
24.315	82657.5
24.320	82675.5
24.325	82674.5
24.330	82681.5
24.335	82677.5
24.340	82673.5
24.345	82677.5
24.350	82680.5
24.355	82678.5
24.360	82683.5
24.365	82670.5
24.370	82651.5
24.375	82642.5
24.380	82670.5
24.385	82687.5
24.390	82684.5
24.395	82673.5
24.400	82671.5
24.405	82663.5
24.410	82669.5
24.415	82672.5
24.420	82663.5
24.425	82676.5
24.430	82667.5
24.435	82655.5
24.440	82639.5
24.445	82643.5
24.450	82677.5
24.455	82671.5
24.460	82675.5
24.465	82670.5
24.470	82677.5
24.475	82668.5
24.480	82678.5
24.485	82673.5
24.490	82680.5
24.495	82673.5
24.500	82674.5
24.505	82636.5
24.510	82649.5
24.515	82672.5
24.520	82669.5
24.525	82671.5
24.530	82672.5
24.535	82658.5
24.540	82663.5
24.545	82659.5
24.550	82661.5
24.555	82656.5
24.560	82674.5
24.565	82669.5
24.570	82642.5
24.575	82632.5
24.580	82655.5
24.585	82677.5
24.590	82674.5
24.595	82670.5
24.600	82675.5
24.605	82672.5
24.610	82676.5
24.615	82675.5
24.620	82682.5
24.625	82677.5
24.630	82678.5
24.635	82652.5
24.640	82636.5
24.645	82658.5
24.650	82683.5
24.655	82674.5
24.660	82670.5
24.665	82664.5
24.670	82664.5
24.675	82653.5
24.680	82659.5
24.685	82661.5
24.690	82671.5
24.695	82668.5
24.700	82665.5
24.705	82635.5
24.710	82639.5
24.715	82667.5
24.720	82678.5
24.725	82675.5
24.730	82680.5
24.735	82669.5
24.740	82680.5
24.745	82675.5
24.750	82682.5
24.755	82679.5
24.760	82680.5
24.765	82676.5
24.770	82651.5
24.775	82646.5
24.780	82673.5
24.785	82691.5
24.790	82682.5
24.795	82677.5
24.800	82670.5
24.805	82665.5
24.810	82665.5
24.815	82666.5
24.820	82670.5
24.825	82669.5
24.830	82682.5
24.835	82652.5
24.840	82634.5
24.845	82648.5
24.850	82685.5
24.855	82682.5
24.860	82685.5
24.865	82688.5
24.870	82681.5
24.875	82675.5
24.880	82677.5
24.885	82681.5
24.890	82690.5
24.895	82676.5
24.900	82676.5
24.905	82646.5
24.910	82650.5
24.915	82679.5
24.920	82692.5
24.925	82674.5
24.930	82672.5
24.935	82672.5
24.940	82668.5
24.945	82667.5
24.950	82671.5
24.955	82674.5
24.960	82675.5
24.965	82678.5
24.970	82646.5
24.975	82641.5
24.980	82663.5
24.985	82681.5
24.990	82684.5
24.995	82678.5
25.000	82672.5
25.005	82682.5
25.010	82678.5
25.015	82680.5
25.020	82686.5
25.025	82685.5
25.030	82683.5
25.035	82654.5
25.040	82646.5
25.045	82664.5
25.050	82692.5
25.055	82683.5
25.060	82677.5
25.065	82674.5
25.070	82675.5
25.075	82669.5
25.080	82675.5
25.085	82671.5
25.090	82671.5
25.095	82679.5
25.100	82672.5
25.105	82636.5
25.110	82653.5
25.115	82662.5
25.120	82685.5
25.125	82678.5
25.130	82688.5
25.135	82679.5
25.140	82681.5
25.145	82680.5
25.150	82679.5
25.155	82687.5
25.160	82686.5
25.165	82674.5
25.170	82654.5
25.175	82654.5
25.180	82677.5
25.185	82686.5
25.190	82681.5
25.195	82676.5
25.200	82666.5
25.205	82663.5
25.210	82670.5
25.215	82673.5
25.220	82674.5
25.225	82680.5
25.230	82674.5
25.235	82660.5
25.240	82643.5
25.245	82644.5
25.250	82683.5
25.255	82683.5
25.260	82685.5
25.265	82682.5
25.270	82680.5
25.275	82682.5
25.280	82686.5
25.285	82684.5
25.290	82694.5
25.295	82683.5
25.300	82674.5
25.305	82644.5
25.310	82663.5
25.315	82689.5
25.320	82679.5
25.325	82674.5
25.330	82682.5
25.335	82668.5
25.340	82675.5
25.345	82675.5
25.350	82670.5
25.355	82667.5
25.360	82675.5
25.365	82677.5
25.370	82637.5
25.375	82639.5
25.380	82664.5
25.385	82681.5
25.390	82685.5
25.395	82681.5
25.400	82679.5
25.405	82682.5
25.410	82686.5
25.415	82692.5
25.420	82692.5
25.425	82689.5
25.430	82685.5
25.435	82656.5
25.440	82644.5
25.445	82674.5
25.450	82688.5
25.455	82689.5
25.460	82685.5
25.465	82682.5
25.470	82678.5
25.475	82672.5
25.480	82677.5
25.485	82678.5
25.490	82681.5
25.495	82675.5
25.500	82667.5
25.505	82641.5
25.510	82655.5
25.515	82681.5
25.520	82685.5
25.525	82683.5
25.530	82688.5
25.535	82680.5
25.540	82680.5
25.545	82689.5
25.550	82694.5
25.555	82686.5
25.560	82691.5
25.565	82683.5
25.570	82659.5
25.575	82655.5
25.580	82686.5
25.585	82687.5
25.590	82684.5
25.595	82677.5
25.600	82679.5
25.605	82674.5
25.610	82678.5
25.615	82674.5
25.620	82681.5
25.625	82685.5
25.630	82690.5
25.635	82664.5
25.640	82649.5
25.645	82674.5
25.650	82692.5
25.655	82690.5
25.660	82694.5
25.665	82686.5
25.670	82684.5
25.675	82687.5
25.680	82687.5
25.685	82691.5
25.690	82694.5
25.695	82688.5
25.700	82680.5
25.705	82660.5
25.710	82676.5
25.715	82692.5
25.720	82697.5
25.725	82693.5
25.730	82689.5
25.735	82686.5
25.740	82685.5
25.745	82688.5
25.750	82694.5
25.755	82686.5
25.760	82693.5
25.765	82692.5
25.770	82672.5
25.775	82650.5
25.780	82685.5
25.785	82690.5
25.790	82701.5
25.795	82688.5
25.800	82692.5
25.805	82692.5
25.810	82699.5
25.815	82693.5
25.820	82701.5
25.825	82700.5
25.830	82699.5
25.835	82668.5
25.840	82668.5
25.845	82686.5
25.850	82707.5
25.855	82694.5
25.860	82689.5
25.865	82688.5
25.870	82690.5
25.875	82687.5
25.880	82692.5
25.885	82690.5
25.890	82695.5
25.895	82691.5
25.900	82680.5
25.905	82666.5
25.910	82672.5
25.915	82694.5
25.920	82695.5
25.925	82698.5
25.930	82692.5
25.935	82690.5
25.940	82709.5
25.945	82694.5
25.950	82705.5
25.955	82704.5
25.960	82698.5
25.965	82694.5
25.970	82669.5
25.975	82675.5
25.980	82701.5
25.985	82703.5
25.990	82701.5
25.995	82691.5
26.000	82692.5
26.005	82685.5
26.010	82695.5
26.015	82689.5
26.020	82698.5
26.025	82692.5
26.030	82696.5
26.035	82663.5
26.040	82659.5
26.045	82675.5
26.050	82696.5
26.055	82692.5
26.060	82695.5
26.065	82703.5
26.070	82694.5
26.075	82693.5
26.080	82706.5
26.085	82710.5
26.090	82708.5
26.095	82701.5
26.100	82684.5
26.105	82664.5
26.110	82684.5
26.115	82710.5
26.120	82707.5
26.125	82698.5
26.130	82697.5
26.135	82694.5
26.140	82694.5
26.145	82693.5
26.150	82698.5
26.155	82698.5
26.160	82698.5
26.165	82688.5
26.170	82672.5
26.175	82666.5
26.180	82688.5
26.185	82699.5
26.190	82703.5
26.195	82697.5
26.200	82705.5
26.205	82705.5
26.210	82709.5
26.215	82701.5
26.220	82710.5
26.225	82703.5
26.230	82708.5
26.235	82674.5
26.240	82671.5
26.245	82695.5
26.250	82706.5
26.255	82698.5
26.260	82702.5
26.265	82692.5
26.270	82694.5
26.275	82692.5
26.280	82693.5
26.285	82698.5
26.290	82695.5
26.295	82701.5
26.300	82685.5
26.305	82663.5
26.310	82672.5
26.315	82694.5
26.320	82703.5
26.325	82703.5
26.330	82697.5
26.335	82705.5
26.340	82705.5
26.345	82699.5
26.350	82713.5
26.355	82711.5
26.360	82704.5
26.365	82702.5
26.370	82665.5
26.375	82666.5
26.380	82706.5
26.385	82714.5
26.390	82701.5
26.395	82699.5
26.400	82700.5
26.405	82702.5
26.410	82700.5
26.415	82689.5
26.420	82694.5
26.425	82698.5
26.430	82703.5
26.435	82666.5
26.440	82672.5
26.445	82680.5
26.450	82701.5
26.455	82691.5
26.460	82705.5
26.465	82697.5
26.470	82703.5
