PK2650 Power Data
Z Position (mm)	100.000	W Position (deg)	72.00
Preform ID	Diameter (mm)	Time Stamp	Start Time	Operator	Serial Number
Test 1	25	03-Nov-22 18:05:01	03-Nov-22 18:05:53	[no user]	266007708
Radius (mm)	Power
-26.345	82708.8
-26.340	82708.8
-26.335	82718.8
-26.330	82722.8
-26.325	82717.8
-26.320	82686.8
-26.315	82685.8
-26.310	82699.8
-26.305	82715.8
-26.300	82703.8
-26.295	82709.8
-26.290	82703.8
-26.285	82709.8
-26.280	82713.8
-26.275	82712.8
-26.270	82720.8
-26.265	82722.8
-26.260	82732.7
-26.255	82717.8
-26.250	82689.8
-26.245	82705.8
-26.240	82724.8
-26.235	82738.7
-26.230	82731.8
-26.225	82735.7
-26.220	82734.7
-26.215	82738.7
-26.210	82737.7
-26.205	82741.7
-26.200	82741.7
-26.195	82745.7
-26.190	82740.7
-26.185	82715.8
-26.180	82726.8
-26.175	82750.7
-26.170	82749.7
-26.165	82741.7
-26.160	82727.8
-26.155	82749.7
-26.150	82737.7
-26.145	82741.7
-26.140	82745.7
-26.135	82756.7
-26.130	82742.7
-26.125	82745.7
-26.120	82716.8
-26.115	82715.8
-26.110	82738.7
-26.105	82748.7
-26.100	82750.7
-26.095	82759.7
-26.090	82757.7
-26.085	82758.7
-26.080	82755.7
-26.075	82764.7
-26.070	82761.7
-26.065	82773.7
-26.060	82763.7
-26.055	82743.7
-26.050	82730.7
-26.045	82742.7
-26.040	82765.7
-26.035	82754.7
-26.030	82757.7
-26.025	82753.7
-26.020	82750.7
-26.015	82756.7
-26.010	82756.7
-26.005	82762.7
-26.000	82763.7
-25.995	82772.7
-25.990	82756.7
-25.985	82740.7
-25.980	82732.7
-25.975	82765.7
-25.970	82773.7
-25.965	82768.7
-25.960	82759.7
-25.955	82770.7
-25.950	82768.7
-25.945	82777.7
-25.940	82771.7
-25.935	82782.7
-25.930	82772.7
-25.925	82782.7
-25.920	82739.7
-25.915	82741.7
-25.910	82755.7
-25.905	82774.7
-25.900	82768.7
-25.895	82759.7
-25.890	82769.7
-25.885	82763.7
-25.880	82766.7
-25.875	82770.7
-25.870	82764.7
-25.865	82773.7
-25.860	82773.7
-25.855	82755.7
-25.850	82739.7
-25.845	82745.7
-25.840	82769.7
-25.835	82773.7
-25.830	82773.7
-25.825	82771.7
-25.820	82772.7
-25.815	82781.7
-25.810	82780.7
-25.805	82790.7
-25.800	82780.7
-25.795	82793.7
-25.790	82773.7
-25.785	82746.7
-25.780	82751.7
-25.775	82773.7
-25.770	82775.7
-25.765	82771.7
-25.760	82765.7
-25.755	82764.7
-25.750	82770.7
-25.745	82774.7
-25.740	82764.7
-25.735	82775.7
-25.730	82780.7
-25.725	82779.7
-25.720	82745.7
-25.715	82750.7
-25.710	82754.7
-25.705	82780.7
-25.700	82776.7
-25.695	82780.7
-25.690	82771.7
-25.685	82775.7
-25.680	82778.7
-25.675	82792.7
-25.670	82788.7
-25.665	82791.7
-25.660	82777.7
-25.655	82759.7
-25.650	82751.7
-25.645	82758.7
-25.640	82782.7
-25.635	82778.7
-25.630	82778.7
-25.625	82774.7
-25.620	82770.7
-25.615	82769.7
-25.610	82769.7
-25.605	82776.7
-25.600	82775.7
-25.595	82780.7
-25.590	82771.7
-25.585	82743.7
-25.580	82746.7
-25.575	82776.7
-25.570	82776.7
-25.565	82775.7
-25.560	82779.7
-25.555	82771.7
-25.550	82779.7
-25.545	82778.7
-25.540	82782.7
-25.535	82791.7
-25.530	82789.7
-25.525	82788.7
-25.520	82745.7
-25.515	82753.7
-25.510	82760.7
-25.505	82783.7
-25.500	82778.7
-25.495	82773.7
-25.490	82764.7
-25.485	82767.7
-25.480	82764.7
-25.475	82765.7
-25.470	82774.7
-25.465	82777.7
-25.460	82769.7
-25.455	82753.7
-25.450	82733.8
-25.445	82753.7
-25.440	82775.7
-25.435	82771.7
-25.430	82774.7
-25.425	82774.7
-25.420	82769.7
-25.415	82783.7
-25.410	82786.7
-25.405	82782.7
-25.400	82778.7
-25.395	82784.7
-25.390	82764.7
-25.385	82742.7
-25.380	82749.7
-25.375	82776.7
-25.370	82773.7
-25.365	82774.7
-25.360	82768.7
-25.355	82766.7
-25.350	82768.7
-25.345	82767.7
-25.340	82773.7
-25.335	82776.7
-25.330	82775.7
-25.325	82783.7
-25.320	82742.7
-25.315	82744.7
-25.310	82756.7
-25.305	82768.7
-25.300	82767.7
-25.295	82779.7
-25.290	82766.7
-25.285	82774.7
-25.280	82771.7
-25.275	82779.7
-25.270	82781.7
-25.265	82784.7
-25.260	82772.7
-25.255	82752.7
-25.250	82745.7
-25.245	82754.7
-25.240	82769.7
-25.235	82772.7
-25.230	82761.7
-25.225	82764.7
-25.220	82760.7
-25.215	82778.7
-25.210	82761.7
-25.205	82776.7
-25.200	82773.7
-25.195	82772.7
-25.190	82755.7
-25.185	82737.7
-25.180	82742.7
-25.175	82762.7
-25.170	82773.7
-25.165	82771.7
-25.160	82765.7
-25.155	82774.7
-25.150	82767.7
-25.145	82771.7
-25.140	82769.7
-25.135	82774.7
-25.130	82777.7
-25.125	82774.7
-25.120	82733.8
-25.115	82746.7
-25.110	82761.7
-25.105	82769.7
-25.100	82763.7
-25.095	82755.7
-25.090	82766.7
-25.085	82762.7
-25.080	82755.7
-25.075	82766.7
-25.070	82759.7
-25.065	82768.7
-25.060	82766.7
-25.055	82740.7
-25.050	82726.8
-25.045	82745.7
-25.040	82762.7
-25.035	82767.7
-25.030	82758.7
-25.025	82762.7
-25.020	82757.7
-25.015	82764.7
-25.010	82761.7
-25.005	82770.7
-25.000	82763.7
-24.995	82770.7
-24.990	82757.7
-24.985	82734.7
-24.980	82735.7
-24.975	82764.7
-24.970	82748.7
-24.965	82744.7
-24.960	82740.7
-24.955	82744.7
-24.950	82747.7
-24.945	82750.7
-24.940	82741.7
-24.935	82748.7
-24.930	82755.7
-24.925	82755.7
-24.920	82716.8
-24.915	82722.8
-24.910	82738.7
-24.905	82748.7
-24.900	82749.7
-24.895	82752.7
-24.890	82748.7
-24.885	82751.7
-24.880	82747.7
-24.875	82751.7
-24.870	82756.7
-24.865	82758.7
-24.860	82742.7
-24.855	82718.8
-24.850	82710.8
-24.845	82734.7
-24.840	82740.7
-24.835	82742.7
-24.830	82732.8
-24.825	82731.7
-24.820	82726.8
-24.815	82735.7
-24.810	82728.8
-24.805	82732.8
-24.800	82742.7
-24.795	82743.7
-24.790	82723.8
-24.785	82706.8
-24.780	82694.8
-24.775	82732.7
-24.770	82727.8
-24.765	82725.8
-24.760	82728.8
-24.755	82735.7
-24.750	82731.8
-24.745	82733.7
-24.740	82735.7
-24.735	82735.7
-24.730	82728.8
-24.725	82732.7
-24.720	82701.8
-24.715	82697.8
-24.710	82719.8
-24.705	82721.8
-24.700	82715.8
-24.695	82719.8
-24.690	82718.8
-24.685	82710.8
-24.680	82715.8
-24.675	82721.8
-24.670	82722.8
-24.665	82725.8
-24.660	82719.8
-24.655	82700.8
-24.650	82690.8
-24.645	82701.8
-24.640	82725.8
-24.635	82723.8
-24.630	82708.8
-24.625	82719.8
-24.620	82712.8
-24.615	82719.8
-24.610	82720.8
-24.605	82735.7
-24.600	82717.8
-24.595	82728.8
-24.590	82707.8
-24.585	82700.8
-24.580	82694.8
-24.575	82726.8
-24.570	82717.8
-24.565	82707.8
-24.560	82702.8
-24.555	82709.8
-24.550	82708.8
-24.545	82711.8
-24.540	82711.8
-24.535	82712.8
-24.530	82714.8
-24.525	82718.8
-24.520	82683.8
-24.515	82680.8
-24.510	82702.8
-24.505	82715.8
-24.500	82705.8
-24.495	82712.8
-24.490	82706.8
-24.485	82714.8
-24.480	82711.8
-24.475	82720.8
-24.470	82714.8
-24.465	82719.8
-24.460	82721.8
-24.455	82685.8
-24.450	82682.8
-24.445	82695.8
-24.440	82707.8
-24.435	82702.8
-24.430	82697.8
-24.425	82691.8
-24.420	82688.8
-24.415	82696.8
-24.410	82693.8
-24.405	82705.8
-24.400	82704.8
-24.395	82704.8
-24.390	82685.8
-24.385	82673.8
-24.380	82672.8
-24.375	82705.8
-24.370	82697.8
-24.365	82708.8
-24.360	82695.8
-24.355	82706.8
-24.350	82706.8
-24.345	82715.8
-24.340	82708.8
-24.335	82706.8
-24.330	82719.8
-24.325	82713.8
-24.320	82671.8
-24.315	82685.8
-24.310	82707.8
-24.305	82707.8
-24.300	82701.8
-24.295	82694.8
-24.290	82695.8
-24.285	82703.8
-24.280	82696.8
-24.275	82706.8
-24.270	82706.8
-24.265	82710.8
-24.260	82707.8
-24.255	82685.8
-24.250	82670.8
-24.245	82679.8
-24.240	82699.8
-24.235	82697.8
-24.230	82699.8
-24.225	82703.8
-24.220	82700.8
-24.215	82700.8
-24.210	82710.8
-24.205	82713.8
-24.200	82707.8
-24.195	82715.8
-24.190	82686.8
-24.185	82671.8
-24.180	82684.8
-24.175	82711.8
-24.170	82700.8
-24.165	82703.8
-24.160	82685.8
-24.155	82700.8
-24.150	82696.8
-24.145	82701.8
-24.140	82696.8
-24.135	82711.8
-24.130	82699.8
-24.125	82700.8
-24.120	82673.8
-24.115	82666.8
-24.110	82689.8
-24.105	82702.8
-24.100	82698.8
-24.095	82702.8
-24.090	82704.8
-24.085	82707.8
-24.080	82706.8
-24.075	82710.8
-24.070	82704.8
-24.065	82711.8
-24.060	82705.8
-24.055	82680.8
-24.050	82687.8
-24.045	82702.8
-24.040	82707.8
-24.035	82701.8
-24.030	82698.8
-24.025	82696.8
-24.020	82689.8
-24.015	82700.8
-24.010	82698.8
-24.005	82704.8
-24.000	82703.8
-23.995	82716.8
-23.990	82679.8
-23.985	82676.8
-23.980	82676.8
-23.975	82704.8
-23.970	82702.8
-23.965	82716.8
-23.960	82693.8
-23.955	82708.8
-23.950	82709.8
-23.945	82721.8
-23.940	82713.8
-23.935	82719.8
-23.930	82721.8
-23.925	82715.8
-23.920	82679.8
-23.915	82696.8
-23.910	82718.8
-23.905	82715.8
-23.900	82707.8
-23.895	82709.8
-23.890	82708.8
-23.885	82717.8
-23.880	82711.8
-23.875	82721.8
-23.870	82732.8
-23.865	82726.8
-23.860	82726.8
-23.855	82693.8
-23.850	82684.8
-23.845	82709.8
-23.840	82721.8
-23.835	82722.8
-23.830	82727.8
-23.825	82732.7
-23.820	82729.8
-23.815	82727.8
-23.810	82734.8
-23.805	82740.7
-23.800	82732.7
-23.795	82739.7
-23.790	82712.8
-23.785	82702.8
-23.780	82698.8
-23.775	82734.7
-23.770	82723.8
-23.765	82719.8
-23.760	82714.8
-23.755	82720.8
-23.750	82708.8
-23.745	82728.8
-23.740	82718.8
-23.735	82732.8
-23.730	82733.7
-23.725	82720.8
-23.720	82694.8
-23.715	82704.8
-23.710	82724.8
-23.705	82727.8
-23.700	82727.8
-23.695	82740.7
-23.690	82720.8
-23.685	82732.8
-23.680	82733.7
-23.675	82741.7
-23.670	82746.7
-23.665	82738.7
-23.660	82740.7
-23.655	82709.8
-23.650	82707.8
-23.645	82727.7
-23.640	82736.7
-23.635	82724.8
-23.630	82718.8
-23.625	82726.8
-23.620	82724.8
-23.615	82723.8
-23.610	82731.8
-23.605	82737.7
-23.600	82728.7
-23.595	82737.7
-23.590	82717.8
-23.585	82708.8
-23.580	82705.8
-23.575	82744.7
-23.570	82734.7
-23.565	82738.7
-23.560	82735.7
-23.555	82738.7
-23.550	82736.7
-23.545	82750.7
-23.540	82748.7
-23.535	82753.7
-23.530	82745.7
-23.525	82747.7
-23.520	82716.8
-23.515	82725.8
-23.510	82748.7
-23.505	82748.7
-23.500	82734.7
-23.495	82746.7
-23.490	82734.7
-23.485	82744.7
-23.480	82744.7
-23.475	82744.7
-23.470	82754.7
-23.465	82756.7
-23.460	82760.7
-23.455	82728.7
-23.450	82715.8
-23.445	82735.7
-23.440	82749.7
-23.435	82745.7
-23.430	82754.7
-23.425	82756.7
-23.420	82762.7
-23.415	82761.7
-23.410	82767.7
-23.405	82776.7
-23.400	82766.7
-23.395	82770.7
-23.390	82744.7
-23.385	82741.7
-23.380	82748.7
-23.375	82771.7
-23.370	82770.7
-23.365	82762.7
-23.360	82760.7
-23.355	82767.7
-23.350	82762.7
-23.345	82767.7
-23.340	82762.7
-23.335	82779.7
-23.330	82770.7
-23.325	82765.7
-23.320	82732.7
-23.315	82746.7
-23.310	82758.7
-23.305	82773.7
-23.300	82766.7
-23.295	82765.7
-23.290	82760.7
-23.285	82781.7
-23.280	82777.7
-23.275	82783.7
-23.270	82784.7
-23.265	82781.7
-23.260	82770.7
-23.255	82753.7
-23.250	82753.7
-23.245	82775.7
-23.240	82778.7
-23.235	82776.7
-23.230	82770.7
-23.225	82773.7
-23.220	82772.7
-23.215	82781.7
-23.210	82777.7
-23.205	82771.7
-23.200	82775.7
-23.195	82783.7
-23.190	82751.7
-23.185	82743.7
-23.180	82755.7
-23.175	82783.7
-23.170	82770.7
-23.165	82773.7
-23.160	82778.7
-23.155	82787.7
-23.150	82777.7
-23.145	82790.7
-23.140	82793.7
-23.135	82794.7
-23.130	82788.7
-23.125	82783.7
-23.120	82751.7
-23.115	82770.7
-23.110	82779.7
-23.105	82783.7
-23.100	82771.7
-23.095	82777.7
-23.090	82779.7
-23.085	82780.7
-23.080	82774.7
-23.075	82787.7
-23.070	82778.7
-23.065	82794.7
-23.060	82792.7
-23.055	82759.7
-23.050	82757.7
-23.045	82769.7
-23.040	82791.7
-23.035	82775.7
-23.030	82782.7
-23.025	82775.7
-23.020	82780.7
-23.015	82784.7
-23.010	82785.7
-23.005	82791.7
-23.000	82792.7
-22.995	82790.7
-22.990	82756.7
-22.985	82759.7
-22.980	82765.7
-22.975	82790.7
-22.970	82781.7
-22.965	82776.7
-22.960	82771.7
-22.955	82787.7
-22.950	82786.7
-22.945	82783.7
-22.940	82778.7
-22.935	82782.7
-22.930	82779.7
-22.925	82775.7
-22.920	82749.7
-22.915	82755.7
-22.910	82777.7
-22.905	82780.7
-22.900	82778.7
-22.895	82783.7
-22.890	82779.7
-22.885	82793.7
-22.880	82793.7
-22.875	82801.7
-22.870	82791.7
-22.865	82796.7
-22.860	82782.7
-22.855	82759.7
-22.850	82759.7
-22.845	82781.7
-22.840	82784.7
-22.835	82790.7
-22.830	82774.7
-22.825	82770.7
-22.820	82774.7
-22.815	82788.7
-22.810	82781.7
-22.805	82788.7
-22.800	82788.7
-22.795	82799.7
-22.790	82755.7
-22.785	82752.7
-22.780	82759.7
-22.775	82790.7
-22.770	82780.7
-22.765	82786.7
-22.760	82781.7
-22.755	82782.7
-22.750	82787.7
-22.745	82787.7
-22.740	82784.7
-22.735	82789.7
-22.730	82792.7
-22.725	82775.7
-22.720	82753.7
-22.715	82768.7
-22.710	82793.7
-22.705	82789.7
-22.700	82780.7
-22.695	82783.7
-22.690	82780.7
-22.685	82781.7
-22.680	82780.7
-22.675	82788.7
-22.670	82790.7
-22.665	82789.7
-22.660	82780.7
-22.655	82761.7
-22.650	82757.7
-22.645	82775.7
-22.640	82784.7
-22.635	82785.7
-22.630	82788.7
-22.625	82786.7
-22.620	82794.7
-22.615	82798.7
-22.610	82790.7
-22.605	82802.7
-22.600	82794.7
-22.595	82803.7
-22.590	82766.7
-22.585	82764.7
-22.580	82779.7
-22.575	82795.7
-22.570	82788.7
-22.565	82787.7
-22.560	82780.7
-22.555	82785.7
-22.550	82773.7
-22.545	82792.7
-22.540	82791.7
-22.535	82796.7
-22.530	82795.7
-22.525	82780.7
-22.520	82758.7
-22.515	82762.7
-22.510	82785.7
-22.505	82798.7
-22.500	82791.7
-22.495	82789.7
-22.490	82797.7
-22.485	82800.7
-22.480	82792.7
-22.475	82807.7
-22.470	82798.7
-22.465	82797.7
-22.460	82791.7
-22.455	82772.7
-22.450	82772.7
-22.445	82794.7
-22.440	82800.7
-22.435	82794.7
-22.430	82780.7
-22.425	82787.7
-22.420	82785.7
-22.415	82784.7
-22.410	82781.7
-22.405	82794.7
-22.400	82790.7
-22.395	82800.7
-22.390	82768.7
-22.385	82761.7
-22.380	82766.7
-22.375	82792.7
-22.370	82800.7
-22.365	82798.7
-22.360	82792.7
-22.355	82798.7
-22.350	82800.7
-22.345	82804.7
-22.340	82800.7
-22.335	82806.7
-22.330	82800.7
-22.325	82775.7
-22.320	82762.7
-22.315	82774.7
-22.310	82790.7
-22.305	82794.7
-22.300	82780.7
-22.295	82783.7
-22.290	82783.7
-22.285	82784.7
-22.280	82782.7
-22.275	82795.7
-22.270	82795.7
-22.265	82789.7
-22.260	82788.7
-22.255	82759.7
-22.250	82763.7
-22.245	82785.7
-22.240	82785.7
-22.235	82792.7
-22.230	82799.7
-22.225	82791.7
-22.220	82786.7
-22.215	82784.7
-22.210	82796.7
-22.205	82805.7
-22.200	82790.7
-22.195	82802.7
-22.190	82760.7
-22.185	82759.7
-22.180	82781.7
-22.175	82791.7
-22.170	82787.7
-22.165	82784.7
-22.160	82780.7
-22.155	82786.7
-22.150	82780.7
-22.145	82779.7
-22.140	82786.7
-22.135	82791.7
-22.130	82791.7
-22.125	82768.7
-22.120	82741.7
-22.115	82755.7
-22.110	82782.7
-22.105	82788.7
-22.100	82777.7
-22.095	82781.7
-22.090	82789.7
-22.085	82780.7
-22.080	82786.7
-22.075	82791.7
-22.070	82799.7
-22.065	82786.7
-22.060	82777.7
-22.055	82751.7
-22.050	82762.7
-22.045	82791.7
-22.040	82787.7
-22.035	82778.7
-22.030	82781.7
-22.025	82777.7
-22.020	82773.7
-22.015	82780.7
-22.010	82775.7
-22.005	82785.7
-22.000	82775.7
-21.995	82778.7
-21.990	82744.7
-21.985	82748.7
-21.980	82757.7
-21.975	82785.7
-21.970	82774.7
-21.965	82781.7
-21.960	82777.7
-21.955	82776.7
-21.950	82781.7
-21.945	82788.7
-21.940	82783.7
-21.935	82782.7
-21.930	82781.7
-21.925	82756.7
-21.920	82739.7
-21.915	82761.7
-21.910	82771.7
-21.905	82777.7
-21.900	82761.7
-21.895	82766.7
-21.890	82765.7
-21.885	82772.7
-21.880	82766.7
-21.875	82767.7
-21.870	82769.7
-21.865	82778.7
-21.860	82762.7
-21.855	82738.7
-21.850	82745.7
-21.845	82758.7
-21.840	82763.7
-21.835	82769.7
-21.830	82765.7
-21.825	82767.7
-21.820	82775.7
-21.815	82775.7
-21.810	82773.7
-21.805	82782.7
-21.800	82778.7
-21.795	82768.7
-21.790	82742.7
-21.785	82744.7
-21.780	82763.7
-21.775	82776.7
-21.770	82766.7
-21.765	82762.7
-21.760	82749.7
-21.755	82762.7
-21.750	82759.7
-21.745	82757.7
-21.740	82761.7
-21.735	82765.7
-21.730	82765.7
-21.725	82742.7
-21.720	82723.7
-21.715	82736.7
-21.710	82759.7
-21.705	82768.7
-21.700	82755.7
-21.695	82769.7
-21.690	82758.7
-21.685	82763.7
-21.680	82761.7
-21.675	82772.7
-21.670	82768.7
-21.665	82766.7
-21.660	82750.7
-21.655	82727.7
-21.650	82745.7
-21.645	82766.7
-21.640	82763.7
-21.635	82754.7
-21.630	82745.7
-21.625	82751.7
-21.620	82746.7
-21.615	82759.7
-21.610	82751.7
-21.605	82755.7
-21.600	82757.7
-21.595	82761.7
-21.590	82731.7
-21.585	82728.7
-21.580	82739.7
-21.575	82756.7
-21.570	82753.7
-21.565	82750.7
-21.560	82746.7
-21.555	82756.7
-21.550	82757.7
-21.545	82763.7
-21.540	82764.7
-21.535	82758.7
-21.530	82756.7
-21.525	82739.7
-21.520	82718.8
-21.515	82740.7
-21.510	82755.7
-21.505	82757.7
-21.500	82739.7
-21.495	82746.7
-21.490	82747.7
-21.485	82742.7
-21.480	82740.7
-21.475	82739.7
-21.470	82737.7
-21.465	82742.7
-21.460	82725.8
-21.455	82692.8
-21.450	82687.8
-21.445	82699.8
-21.440	82660.8
-21.435	82614.9
-21.430	82544.0
-21.425	82452.1
-21.420	82314.2
-21.415	82142.4
-21.410	81904.7
-21.405	81583.0
-21.400	81175.5
-21.395	80713.0
-21.390	80211.6
-21.385	79777.1
-21.380	79354.7
-21.375	78890.3
-21.370	78318.1
-21.365	77682.9
-21.360	77058.7
-21.355	76451.5
-21.350	75794.4
-21.345	74992.3
-21.340	74011.4
-21.335	73225.3
-21.330	72962.8
-21.325	72633.3
-21.320	72276.6
-21.315	72806.1
-21.310	73410.6
-21.305	73263.5
-21.300	73705.1
-21.295	74745.2
-21.290	75799.4
-21.285	76482.9
-21.280	76402.8
-21.275	75252.6
-21.270	74089.3
-21.265	74586.8
-21.260	75515.1
-21.255	75291.1
-21.250	75348.0
-21.245	76147.4
-21.240	74892.2
-21.235	74072.7
-21.230	75990.3
-21.225	77278.3
-21.220	77721.0
-21.215	77798.9
-21.210	77540.0
-21.205	76822.5
-21.200	75674.2
-21.195	75649.2
-21.190	76568.6
-21.185	76948.3
-21.180	77244.0
-21.175	77933.4
-21.170	78268.1
-21.165	77781.5
-21.160	76353.4
-21.155	75165.2
-21.150	75912.7
-21.145	77574.5
-21.140	77136.8
-21.135	74873.4
-21.130	73976.0
-21.125	75824.6
-21.120	77791.2
-21.115	78237.8
-21.110	77858.1
-21.105	77445.4
-21.100	77551.3
-21.095	77612.2
-21.090	77335.4
-21.085	77464.3
-21.080	78074.8
-21.075	78549.4
-21.070	78630.3
-21.065	78452.5
-21.060	78297.5
-21.055	78192.6
-21.050	78154.6
-21.045	78149.6
-21.040	78109.6
-21.035	78325.4
-21.030	78763.1
-21.025	79082.9
-21.020	79127.8
-21.015	78993.9
-21.010	78635.1
-21.005	78164.5
-21.000	77962.6
-20.995	78105.5
-20.990	78327.3
-20.985	78580.1
-20.980	78674.0
-20.975	78649.0
-20.970	78688.0
-20.965	78823.9
-20.960	78947.8
-20.955	78963.7
-20.950	78883.8
-20.945	78823.8
-20.940	78769.8
-20.935	78748.8
-20.930	78828.8
-20.925	78877.7
-20.920	78963.7
-20.915	79032.6
-20.910	79037.6
-20.905	78994.6
-20.900	78928.6
-20.895	78835.7
-20.890	78765.7
-20.885	78722.8
-20.880	78588.8
-20.875	78483.9
-20.870	78495.9
-20.865	78572.8
-20.860	78622.8
-20.855	78682.7
-20.850	78761.7
-20.845	78859.6
-20.840	78896.5
-20.835	78884.5
-20.830	78832.6
-20.825	78821.6
-20.820	78846.5
-20.815	78914.5
-20.810	78997.4
-20.805	79047.4
-20.800	79062.3
-20.795	79132.3
-20.790	79158.3
-20.785	79222.2
-20.780	79323.1
-20.775	79376.1
-20.770	79419.0
-20.765	79483.0
-20.760	79495.0
-20.755	79528.9
-20.750	79551.9
-20.745	79571.9
-20.740	79606.8
-20.735	79632.8
-20.730	79649.8
-20.725	79644.8
-20.720	79632.8
-20.715	79639.8
-20.710	79624.8
-20.705	79597.8
-20.700	79560.8
-20.695	79549.8
-20.690	79532.8
-20.685	79506.8
-20.680	79515.8
-20.675	79558.8
-20.670	79604.8
-20.665	79619.7
-20.660	79627.7
-20.655	79634.7
-20.650	79619.7
-20.645	79635.7
-20.640	79657.7
-20.635	79684.7
-20.630	79657.7
-20.625	79632.7
-20.620	79597.7
-20.615	79597.7
-20.610	79621.7
-20.605	79656.7
-20.600	79694.6
-20.595	79778.6
-20.590	79811.5
-20.585	79881.5
-20.580	79931.4
-20.575	79958.4
-20.570	79985.4
-20.565	80019.3
-20.560	80051.3
-20.555	80072.3
-20.550	80084.3
-20.545	80098.3
-20.540	80102.3
-20.535	80124.2
-20.530	80120.2
-20.525	80098.2
-20.520	80092.2
-20.515	80121.2
-20.510	80130.2
-20.505	80128.2
-20.500	80116.2
-20.495	80122.2
-20.490	80140.2
-20.485	80141.2
-20.480	80131.2
-20.475	80112.2
-20.470	80102.2
-20.465	80087.2
-20.460	80077.2
-20.455	80076.2
-20.450	80088.2
-20.445	80098.2
-20.440	80060.2
-20.435	80021.2
-20.430	80013.2
-20.425	80038.2
-20.420	80034.2
-20.415	80018.2
-20.410	80001.2
-20.405	79985.2
-20.400	79980.2
-20.395	79963.2
-20.390	79911.3
-20.385	79883.3
-20.380	79894.3
-20.375	79911.3
-20.370	79915.3
-20.365	79927.2
-20.360	79952.2
-20.355	80002.2
-20.350	80033.2
-20.345	80066.1
-20.340	80095.1
-20.335	80143.1
-20.330	80177.0
-20.325	80174.0
-20.320	80199.0
-20.315	80249.0
-20.310	80286.9
-20.305	80306.9
-20.300	80312.9
-20.295	80326.9
-20.290	80350.9
-20.285	80366.9
-20.280	80380.8
-20.275	80376.8
-20.270	80379.8
-20.265	80383.8
-20.260	80335.9
-20.255	80292.9
-20.250	80300.9
-20.245	80330.9
-20.240	80321.9
-20.235	80299.9
-20.230	80273.9
-20.225	80291.9
-20.220	80294.9
-20.215	80319.9
-20.210	80318.8
-20.205	80316.8
-20.200	80320.8
-20.195	80337.8
-20.190	80319.8
-20.185	80342.8
-20.180	80377.8
-20.175	80385.8
-20.170	80381.8
-20.165	80380.8
-20.160	80376.8
-20.155	80392.8
-20.150	80394.8
-20.145	80401.8
-20.140	80412.7
-20.135	80438.7
-20.130	80456.7
-20.125	80447.7
-20.120	80459.7
-20.115	80503.7
-20.110	80537.6
-20.105	80560.6
-20.100	80575.6
-20.095	80595.6
-20.090	80614.6
-20.085	80628.5
-20.080	80642.5
-20.075	80652.5
-20.070	80653.5
-20.065	80647.5
-20.060	80620.5
-20.055	80612.5
-20.050	80626.5
-20.045	80654.5
-20.040	80655.5
-20.035	80651.5
-20.030	80643.5
-20.025	80644.5
-20.020	80653.5
-20.015	80645.5
-20.010	80647.5
-20.005	80651.5
-20.000	80653.5
-19.995	80640.5
-19.990	80620.5
-19.985	80649.5
-19.980	80671.5
-19.975	80693.4
-19.970	80683.5
-19.965	80683.4
-19.960	80678.4
-19.955	80668.5
-19.950	80651.5
-19.945	80659.5
-19.940	80658.5
-19.935	80659.5
-19.930	80652.5
-19.925	80613.5
-19.920	80605.5
-19.915	80615.5
-19.910	80592.5
-19.905	80573.5
-19.900	80544.5
-19.895	80542.5
-19.890	80529.5
-19.885	80520.5
-19.880	80508.5
-19.875	80508.5
-19.870	80490.6
-19.865	80475.6
-19.860	80456.6
-19.855	80426.6
-19.850	80421.6
-19.845	80420.6
-19.840	80391.6
-19.835	80391.6
-19.830	80392.6
-19.825	80408.6
-19.820	80422.6
-19.815	80404.6
-19.810	80393.6
-19.805	80407.6
-19.800	80421.6
-19.795	80421.6
-19.790	80399.6
-19.785	80424.6
-19.780	80448.5
-19.775	80433.6
-19.770	80435.5
-19.765	80440.5
-19.760	80432.5
-19.755	80421.6
-19.750	80419.5
-19.745	80426.5
-19.740	80425.5
-19.735	80438.5
-19.730	80438.5
-19.725	80412.5
-19.720	80400.6
-19.715	80417.5
-19.710	80440.5
-19.705	80448.5
-19.700	80435.5
-19.695	80433.5
-19.690	80427.5
-19.685	80419.5
-19.680	80414.5
-19.675	80412.5
-19.670	80427.5
-19.665	80440.5
-19.660	80415.5
-19.655	80414.5
-19.650	80411.5
-19.645	80421.5
-19.640	80401.5
-19.635	80399.5
-19.630	80402.5
-19.625	80397.5
-19.620	80387.5
-19.615	80391.5
-19.610	80396.5
-19.605	80423.5
-19.600	80439.5
-19.595	80450.5
-19.590	80430.5
-19.585	80444.5
-19.580	80496.4
-19.575	80539.4
-19.570	80575.4
-19.565	80592.4
-19.560	80596.4
-19.555	80600.4
-19.550	80596.3
-19.545	80603.3
-19.540	80639.3
-19.535	80657.3
-19.530	80660.3
-19.525	80639.3
-19.520	80650.3
-19.515	80679.3
-19.510	80700.3
-19.505	80728.2
-19.500	80744.2
-19.495	80759.2
-19.490	80758.2
-19.485	80782.2
-19.480	80779.2
-19.475	80774.2
-19.470	80767.2
-19.465	80769.2
-19.460	80723.2
-19.455	80718.2
-19.450	80734.2
-19.445	80746.2
-19.440	80732.2
-19.435	80723.2
-19.430	80707.2
-19.425	80706.2
-19.420	80688.2
-19.415	80691.2
-19.410	80681.2
-19.405	80668.3
-19.400	80660.3
-19.395	80634.3
-19.390	80618.3
-19.385	80626.3
-19.380	80650.3
-19.375	80632.3
-19.370	80617.3
-19.365	80583.3
-19.360	80585.3
-19.355	80596.3
-19.350	80617.3
-19.345	80638.3
-19.340	80639.3
-19.335	80624.3
-19.330	80616.3
-19.325	80607.3
-19.320	80640.3
-19.315	80692.2
-19.310	80700.2
-19.305	80707.2
-19.300	80718.2
-19.295	80729.2
-19.290	80762.2
-19.285	80802.1
-19.280	80850.1
-19.275	80875.1
-19.270	80892.1
-19.265	80905.0
-19.260	80894.1
-19.255	80909.0
-19.250	80932.0
-19.245	80978.0
-19.240	80974.0
-19.235	80983.0
-19.230	80993.0
-19.225	81012.0
-19.220	81010.0
-19.215	81019.9
-19.210	81023.9
-19.205	81025.9
-19.200	81014.9
-19.195	81002.0
-19.190	80965.0
-19.185	80978.0
-19.180	80994.0
-19.175	81003.0
-19.170	80978.0
-19.165	80974.0
-19.160	80957.0
-19.155	80953.0
-19.150	80939.0
-19.145	80934.0
-19.140	80918.0
-19.135	80910.0
-19.130	80899.0
-19.125	80865.0
-19.120	80853.1
-19.115	80871.0
-19.110	80868.0
-19.105	80853.1
-19.100	80834.1
-19.095	80843.1
-19.090	80865.0
-19.085	80876.0
-19.080	80875.0
-19.075	80881.0
-19.070	80874.0
-19.065	80877.0
-19.060	80846.0
-19.055	80838.1
-19.050	80856.0
-19.045	80892.0
-19.040	80874.0
-19.035	80886.0
-19.030	80871.0
-19.025	80896.0
-19.020	80897.0
-19.015	80900.0
-19.010	80909.0
-19.005	80908.0
-19.000	80884.0
-18.995	80860.0
-18.990	80833.0
-18.985	80848.0
-18.980	80864.0
-18.975	80863.0
-18.970	80845.0
-18.965	80847.0
-18.960	80851.0
-18.955	80850.0
-18.950	80861.0
-18.945	80868.0
-18.940	80873.0
-18.935	80878.0
-18.930	80869.0
-18.925	80823.0
-18.920	80819.0
-18.915	80836.0
-18.910	80845.0
-18.905	80845.0
-18.900	80844.0
-18.895	80839.0
-18.890	80841.0
-18.885	80831.0
-18.880	80818.0
-18.875	80814.0
-18.870	80820.0
-18.865	80818.0
-18.860	80795.0
-18.855	80807.0
-18.850	80835.0
-18.845	80853.0
-18.840	80834.0
-18.835	80831.0
-18.830	80820.0
-18.825	80843.0
-18.820	80832.0
-18.815	80844.0
-18.810	80830.0
-18.805	80853.0
-18.800	80870.0
-18.795	80877.0
-18.790	80866.0
-18.785	80887.9
-18.780	80942.9
-18.775	80968.9
-18.770	80994.9
-18.765	81012.9
-18.760	81017.9
-18.755	81041.8
-18.750	81041.8
-18.745	81057.8
-18.740	81066.8
-18.735	81083.8
-18.730	81071.8
-18.725	81043.8
-18.720	81053.8
-18.715	81075.8
-18.710	81088.8
-18.705	81093.8
-18.700	81103.8
-18.695	81106.8
-18.690	81112.8
-18.685	81122.8
-18.680	81123.8
-18.675	81123.8
-18.670	81136.7
-18.665	81145.7
-18.660	81121.8
-18.655	81120.8
-18.650	81146.7
-18.645	81174.7
-18.640	81170.7
-18.635	81179.7
-18.630	81181.7
-18.625	81199.7
-18.620	81194.7
-18.615	81206.7
-18.610	81208.7
-18.605	81219.7
-18.600	81212.7
-18.595	81207.7
-18.590	81191.7
-18.585	81209.7
-18.580	81221.7
-18.575	81215.7
-18.570	81201.7
-18.565	81205.7
-18.560	81210.7
-18.555	81213.7
-18.550	81215.7
-18.545	81221.7
-18.540	81222.7
-18.535	81235.6
-18.530	81221.7
-18.525	81199.7
-18.520	81185.7
-18.515	81207.7
-18.510	81220.7
-18.505	81219.7
-18.500	81215.7
-18.495	81219.7
-18.490	81211.7
-18.485	81220.7
-18.480	81223.6
-18.475	81228.6
-18.470	81227.6
-18.465	81219.7
-18.460	81179.7
-18.455	81187.7
-18.450	81211.7
-18.445	81229.6
-18.440	81223.6
-18.435	81223.6
-18.430	81222.6
-18.425	81233.6
-18.420	81233.6
-18.415	81235.6
-18.410	81238.6
-18.405	81229.6
-18.400	81239.6
-18.395	81218.6
-18.390	81203.7
-18.385	81217.6
-18.380	81232.6
-18.375	81236.6
-18.370	81225.6
-18.365	81240.6
-18.360	81227.6
-18.355	81249.6
-18.350	81238.6
-18.345	81254.6
-18.340	81247.6
-18.335	81247.6
-18.330	81236.6
-18.325	81222.6
-18.320	81230.6
-18.315	81261.6
-18.310	81269.6
-18.305	81260.6
-18.300	81252.6
-18.295	81252.6
-18.290	81254.6
-18.285	81258.6
-18.280	81257.6
-18.275	81263.6
-18.270	81263.6
-18.265	81278.6
-18.260	81238.6
-18.255	81235.6
-18.250	81259.6
-18.245	81269.6
-18.240	81257.6
-18.235	81254.6
-18.230	81237.6
-18.225	81227.6
-18.220	81223.6
-18.215	81227.6
-18.210	81224.6
-18.205	81205.6
-18.200	81199.6
-18.195	81170.6
-18.190	81150.7
-18.185	81163.6
-18.180	81162.6
-18.175	81155.7
-18.170	81133.7
-18.165	81132.7
-18.160	81123.7
-18.155	81118.7
-18.150	81106.7
-18.145	81113.7
-18.140	81105.7
-18.135	81115.7
-18.130	81096.7
-18.125	81067.7
-18.120	81058.7
-18.115	81067.7
-18.110	81061.7
-18.105	81035.7
-18.100	81029.7
-18.095	81023.7
-18.090	81018.7
-18.085	81021.7
-18.080	81032.7
-18.075	81033.7
-18.070	81017.7
-18.065	81034.7
-18.060	80983.8
-18.055	81001.8
-18.050	81021.7
-18.045	81044.7
-18.040	81059.7
-18.035	81057.7
-18.030	81059.7
-18.025	81065.7
-18.020	81064.7
-18.015	81074.7
-18.010	81094.7
-18.005	81103.7
-18.000	81110.7
-17.995	81101.7
-17.990	81080.7
-17.985	81111.7
-17.980	81134.7
-17.975	81147.6
-17.970	81152.6
-17.965	81159.6
-17.960	81162.6
-17.955	81170.6
-17.950	81177.6
-17.945	81191.6
-17.940	81190.6
-17.935	81205.6
-17.930	81185.6
-17.925	81166.6
-17.920	81164.6
-17.915	81207.6
-17.910	81201.6
-17.905	81200.6
-17.900	81196.6
-17.895	81201.6
-17.890	81199.6
-17.885	81203.6
-17.880	81207.6
-17.875	81211.6
-17.870	81209.6
-17.865	81210.6
-17.860	81171.6
-17.855	81182.6
-17.850	81205.6
-17.845	81225.6
-17.840	81226.6
-17.835	81231.6
-17.830	81226.6
-17.825	81224.6
-17.820	81229.6
-17.815	81237.5
-17.810	81234.6
-17.805	81235.5
-17.800	81231.6
-17.795	81215.6
-17.790	81221.6
-17.785	81244.5
-17.780	81273.5
-17.775	81270.5
-17.770	81261.5
-17.765	81257.5
-17.760	81263.5
-17.755	81272.5
-17.750	81280.5
-17.745	81292.5
-17.740	81295.5
-17.735	81305.5
-17.730	81294.5
-17.725	81268.5
-17.720	81274.5
-17.715	81305.5
-17.710	81307.5
-17.705	81317.5
-17.700	81307.5
-17.695	81310.5
-17.690	81316.5
-17.685	81324.5
-17.680	81327.5
-17.675	81340.5
-17.670	81328.5
-17.665	81311.5
-17.660	81259.5
-17.655	81245.5
-17.650	81276.5
-17.645	81305.5
-17.640	81306.5
-17.635	81311.5
-17.630	81296.5
-17.625	81294.5
-17.620	81287.5
-17.615	81291.5
-17.610	81296.5
-17.605	81301.5
-17.600	81289.5
-17.595	81253.5
-17.590	81242.5
-17.585	81260.5
-17.580	81288.5
-17.575	81286.5
-17.570	81284.5
-17.565	81284.5
-17.560	81292.5
-17.555	81311.5
-17.550	81297.5
-17.545	81309.5
-17.540	81307.5
-17.535	81310.5
-17.530	81289.5
-17.525	81281.5
-17.520	81293.5
-17.515	81320.5
-17.510	81309.5
-17.505	81303.5
-17.500	81315.5
-17.495	81317.5
-17.490	81308.5
-17.485	81314.4
-17.480	81322.4
-17.475	81340.4
-17.470	81354.4
-17.465	81353.4
-17.460	81331.4
-17.455	81330.4
-17.450	81355.4
-17.445	81363.4
-17.440	81352.4
-17.435	81370.4
-17.430	81374.4
-17.425	81374.4
-17.420	81362.4
-17.415	81376.4
-17.410	81374.4
-17.405	81382.4
-17.400	81386.4
-17.395	81352.4
-17.390	81354.4
-17.385	81368.4
-17.380	81385.4
-17.375	81389.4
-17.370	81389.4
-17.365	81395.4
-17.360	81397.4
-17.355	81401.4
-17.350	81405.4
-17.345	81416.4
-17.340	81428.3
-17.335	81435.3
-17.330	81409.4
-17.325	81398.4
-17.320	81412.4
-17.315	81438.3
-17.310	81440.3
-17.305	81450.3
-17.300	81439.3
-17.295	81454.3
-17.290	81451.3
-17.285	81462.3
-17.280	81471.3
-17.275	81476.3
-17.270	81467.3
-17.265	81464.3
-17.260	81430.3
-17.255	81439.3
-17.250	81459.3
-17.245	81465.3
-17.240	81459.3
-17.235	81449.3
-17.230	81453.3
-17.225	81463.3
-17.220	81473.3
-17.215	81470.3
-17.210	81471.3
-17.205	81478.3
-17.200	81460.3
-17.195	81420.3
-17.190	81411.3
-17.185	81426.3
-17.180	81445.3
-17.175	81437.3
-17.170	81428.3
-17.165	81432.3
-17.160	81435.3
-17.155	81438.3
-17.150	81447.3
-17.145	81452.3
-17.140	81463.3
-17.135	81456.3
-17.130	81431.3
-17.125	81416.3
-17.120	81430.3
-17.115	81464.3
-17.110	81460.3
-17.105	81455.3
-17.100	81461.3
-17.095	81462.3
-17.090	81474.3
-17.085	81463.3
-17.080	81463.3
-17.075	81472.3
-17.070	81467.3
-17.065	81471.3
-17.060	81428.3
-17.055	81446.3
-17.050	81475.3
-17.045	81496.3
-17.040	81485.3
-17.035	81494.3
-17.030	81496.3
-17.025	81494.3
-17.020	81502.3
-17.015	81509.3
-17.010	81501.3
-17.005	81505.3
-17.000	81490.3
-16.995	81473.3
-16.990	81473.3
-16.985	81490.3
-16.980	81493.3
-16.975	81494.3
-16.970	81491.3
-16.965	81478.3
-16.960	81480.3
-16.955	81486.3
-16.950	81480.3
-16.945	81475.3
-16.940	81479.3
-16.935	81488.3
-16.930	81473.3
-16.925	81456.3
-16.920	81466.3
-16.915	81501.3
-16.910	81487.3
-16.905	81479.3
-16.900	81475.3
-16.895	81478.3
-16.890	81476.3
-16.885	81480.3
-16.880	81482.3
-16.875	81489.3
-16.870	81469.3
-16.865	81457.3
-16.860	81421.3
-16.855	81427.3
-16.850	81435.3
-16.845	81442.3
-16.840	81421.3
-16.835	81411.3
-16.830	81397.3
-16.825	81388.3
-16.820	81385.3
-16.815	81393.3
-16.810	81389.3
-16.805	81392.3
-16.800	81410.3
-16.795	81379.3
-16.790	81364.3
-16.785	81376.3
-16.780	81393.3
-16.775	81397.3
-16.770	81390.3
-16.765	81389.3
-16.760	81387.3
-16.755	81406.3
-16.750	81396.3
-16.745	81404.3
-16.740	81413.3
-16.735	81403.3
-16.730	81373.3
-16.725	81363.3
-16.720	81379.3
-16.715	81396.3
-16.710	81390.3
-16.705	81379.3
-16.700	81371.3
-16.695	81383.3
-16.690	81390.3
-16.685	81397.3
-16.680	81398.3
-16.675	81400.3
-16.670	81401.3
-16.665	81389.3
-16.660	81357.3
-16.655	81355.3
-16.650	81363.3
-16.645	81372.3
-16.640	81366.3
-16.635	81380.3
-16.630	81371.3
-16.625	81370.3
-16.620	81369.3
-16.615	81377.3
-16.610	81368.3
-16.605	81368.3
-16.600	81358.3
-16.595	81325.4
-16.590	81318.4
-16.585	81345.3
-16.580	81352.3
-16.575	81356.3
-16.570	81345.3
-16.565	81349.3
-16.560	81350.3
-16.555	81352.3
-16.550	81342.3
-16.545	81351.3
-16.540	81346.3
-16.535	81357.3
-16.530	81336.3
-16.525	81314.4
-16.520	81318.4
-16.515	81350.3
-16.510	81341.3
-16.505	81335.3
-16.500	81338.3
-16.495	81339.3
-16.490	81350.3
-16.485	81352.3
-16.480	81363.3
-16.475	81370.3
-16.470	81379.3
-16.465	81377.3
-16.460	81354.3
-16.455	81362.3
-16.450	81387.3
-16.445	81382.3
-16.440	81376.3
-16.435	81370.3
-16.430	81381.3
-16.425	81389.3
-16.420	81397.3
-16.415	81401.3
-16.410	81398.3
-16.405	81408.3
-16.400	81410.3
-16.395	81387.3
-16.390	81379.3
-16.385	81397.3
-16.380	81416.3
-16.375	81415.3
-16.370	81406.3
-16.365	81415.3
-16.360	81422.3
-16.355	81435.3
-16.350	81434.3
-16.345	81449.2
-16.340	81440.3
-16.335	81455.2
-16.330	81420.3
-16.325	81422.3
-16.320	81438.3
-16.315	81456.2
-16.310	81436.3
-16.305	81433.3
-16.300	81426.3
-16.295	81423.3
-16.290	81428.3
-16.285	81435.3
-16.280	81421.3
-16.275	81438.2
-16.270	81447.2
-16.265	81438.2
-16.260	81401.3
-16.255	81414.3
-16.250	81428.3
-16.245	81420.3
-16.240	81420.3
-16.235	81422.3
-16.230	81404.3
-16.225	81406.3
-16.220	81406.3
-16.215	81404.3
-16.210	81407.3
-16.205	81404.3
-16.200	81397.3
-16.195	81370.3
-16.190	81367.3
-16.185	81379.3
-16.180	81385.3
-16.175	81373.3
-16.170	81358.3
-16.165	81346.3
-16.160	81323.3
-16.155	81341.3
-16.150	81339.3
-16.145	81338.3
-16.140	81328.3
-16.135	81327.3
-16.130	81282.4
-16.125	81258.4
-16.120	81276.4
-16.115	81299.3
-16.110	81281.4
-16.105	81270.4
-16.100	81265.4
-16.095	81243.4
-16.090	81251.4
-16.085	81265.4
-16.080	81262.4
-16.075	81268.4
-16.070	81257.4
-16.065	81238.4
-16.060	81221.4
-16.055	81247.4
-16.050	81269.4
-16.045	81266.4
-16.040	81266.4
-16.035	81269.4
-16.030	81267.4
-16.025	81261.4
-16.020	81263.4
-16.015	81258.4
-16.010	81265.4
-16.005	81270.4
-16.000	81276.4
-15.995	81246.4
-15.990	81241.4
-15.985	81270.4
-15.980	81290.3
-15.975	81311.3
-15.970	81305.3
-15.965	81309.3
-15.960	81298.3
-15.955	81314.3
-15.950	81320.3
-15.945	81337.3
-15.940	81337.3
-15.935	81340.3
-15.930	81319.3
-15.925	81319.3
-15.920	81343.3
-15.915	81371.3
-15.910	81360.3
-15.905	81354.3
-15.900	81354.3
-15.895	81367.3
-15.890	81371.3
-15.885	81379.3
-15.880	81379.3
-15.875	81392.3
-15.870	81406.2
-15.865	81403.2
-15.860	81375.3
-15.855	81391.3
-15.850	81426.2
-15.845	81435.2
-15.840	81425.2
-15.835	81442.2
-15.830	81447.2
-15.825	81454.2
-15.820	81459.2
-15.815	81459.2
-15.810	81464.2
-15.805	81473.2
-15.800	81473.2
-15.795	81450.2
-15.790	81444.2
-15.785	81459.2
-15.780	81466.2
-15.775	81467.2
-15.770	81462.2
-15.765	81462.2
-15.760	81456.2
-15.755	81459.2
-15.750	81456.2
-15.745	81466.2
-15.740	81471.2
-15.735	81478.2
-15.730	81446.2
-15.725	81438.2
-15.720	81445.2
-15.715	81464.2
-15.710	81457.2
-15.705	81449.2
-15.700	81442.2
-15.695	81451.2
-15.690	81456.2
-15.685	81459.2
-15.680	81444.2
-15.675	81454.2
-15.670	81453.2
-15.665	81431.2
-15.660	81411.2
-15.655	81422.2
-15.650	81440.2
-15.645	81437.2
-15.640	81423.2
-15.635	81416.2
-15.630	81412.2
-15.625	81415.2
-15.620	81407.2
-15.615	81408.2
-15.610	81407.2
-15.605	81407.2
-15.600	81395.2
-15.595	81362.3
-15.590	81377.2
-15.585	81387.2
-15.580	81399.2
-15.575	81390.2
-15.570	81401.2
-15.565	81404.2
-15.560	81405.2
-15.555	81406.2
-15.550	81410.2
-15.545	81402.2
-15.540	81398.2
-15.535	81396.2
-15.530	81379.2
-15.525	81377.2
-15.520	81383.2
-15.515	81406.2
-15.510	81396.2
-15.505	81393.2
-15.500	81387.2
-15.495	81388.2
-15.490	81377.2
-15.485	81377.2
-15.480	81374.2
-15.475	81374.2
-15.470	81376.2
-15.465	81362.2
-15.460	81345.3
-15.455	81353.3
-15.450	81381.2
-15.445	81388.2
-15.440	81378.2
-15.435	81386.2
-15.430	81389.2
-15.425	81390.2
-15.420	81388.2
-15.415	81391.2
-15.410	81391.2
-15.405	81390.2
-15.400	81385.2
-15.395	81356.3
-15.390	81374.2
-15.385	81382.2
-15.380	81388.2
-15.375	81387.2
-15.370	81390.2
-15.365	81392.2
-15.360	81401.2
-15.355	81395.2
-15.350	81395.2
-15.345	81388.2
-15.340	81394.2
-15.335	81396.2
-15.330	81368.2
-15.325	81364.2
-15.320	81367.2
-15.315	81399.2
-15.310	81387.2
-15.305	81397.2
-15.300	81393.2
-15.295	81396.2
-15.290	81366.2
-15.285	81362.2
-15.280	81381.2
-15.275	81395.2
-15.270	81380.2
-15.265	81362.2
-15.260	81336.3
-15.255	81351.2
-15.250	81355.2
-15.245	81350.2
-15.240	81325.3
-15.235	81328.3
-15.230	81337.3
-15.225	81335.3
-15.220	81327.3
-15.215	81315.3
-15.210	81301.3
-15.205	81292.3
-15.200	81281.3
-15.195	81239.3
-15.190	81224.3
-15.185	81233.3
-15.180	81224.3
-15.175	81213.3
-15.170	81195.4
-15.165	81187.4
-15.160	81163.4
-15.155	81159.4
-15.150	81141.4
-15.145	81125.4
-15.140	81111.4
-15.135	81097.4
-15.130	81069.4
-15.125	81058.5
-15.120	81066.4
-15.115	81076.4
-15.110	81071.4
-15.105	81065.4
-15.100	81060.5
-15.095	81068.4
-15.090	81062.5
-15.085	81058.5
-15.080	81066.5
-15.075	81080.4
-15.070	81074.4
-15.065	81061.5
-15.060	81045.5
-15.055	81047.5
-15.050	81063.4
-15.045	81062.4
-15.040	81064.4
-15.035	81066.4
-15.030	81062.5
-15.025	81071.4
-15.020	81075.4
-15.015	81077.4
-15.010	81076.4
-15.005	81090.4
-15.000	81090.4
-14.995	81079.4
-14.990	81093.4
-14.985	81134.4
-14.980	81141.4
-14.975	81154.4
-14.970	81162.4
-14.965	81170.4
-14.960	81181.4
-14.955	81201.3
-14.950	81216.3
-14.945	81230.3
-14.940	81236.3
-14.935	81242.3
-14.930	81215.3
-14.925	81224.3
-14.920	81243.3
-14.915	81267.3
-14.910	81275.3
-14.905	81295.3
-14.900	81297.3
-14.895	81306.3
-14.890	81318.3
-14.885	81330.2
-14.880	81335.2
-14.875	81335.2
-14.870	81339.2
-14.865	81326.2
-14.860	81320.2
-14.855	81343.2
-14.850	81367.2
-14.845	81368.2
-14.840	81370.2
-14.835	81364.2
-14.830	81375.2
-14.825	81389.2
-14.820	81371.2
-14.815	81351.2
-14.810	81351.2
-14.805	81380.2
-14.800	81381.2
-14.795	81357.2
-14.790	81362.2
-14.785	81383.2
-14.780	81388.2
-14.775	81390.2
-14.770	81399.2
-14.765	81398.2
-14.760	81383.2
-14.755	81395.2
-14.750	81397.2
-14.745	81395.2
-14.740	81395.2
-14.735	81398.2
-14.730	81336.2
-14.725	81349.2
-14.720	81356.2
-14.715	81375.2
-14.710	81362.2
-14.705	81359.2
-14.700	81359.2
-14.695	81363.2
-14.690	81373.2
-14.685	81368.2
-14.680	81361.2
-14.675	81351.2
-14.670	81356.2
-14.665	81338.2
-14.660	81327.2
-14.655	81346.2
-14.650	81362.2
-14.645	81358.2
-14.640	81352.2
-14.635	81347.2
-14.630	81356.2
-14.625	81356.2
-14.620	81352.2
-14.615	81375.2
-14.610	81372.2
-14.605	81387.2
-14.600	81374.2
-14.595	81347.2
-14.590	81349.2
-14.585	81379.2
-14.580	81378.2
-14.575	81384.2
-14.570	81365.2
-14.565	81366.2
-14.560	81389.2
-14.555	81397.2
-14.550	81393.2
-14.545	81409.2
-14.540	81408.2
-14.535	81421.2
-14.530	81396.2
-14.525	81383.2
-14.520	81399.2
-14.515	81415.2
-14.510	81411.2
-14.505	81422.2
-14.500	81416.2
-14.495	81424.1
-14.490	81432.1
-14.485	81449.1
-14.480	81449.1
-14.475	81445.1
-14.470	81448.1
-14.465	81435.1
-14.460	81417.1
-14.455	81441.1
-14.450	81458.1
-14.445	81461.1
-14.440	81450.1
-14.435	81445.1
-14.430	81451.1
-14.425	81472.1
-14.420	81472.1
-14.415	81486.1
-14.410	81484.1
-14.405	81486.1
-14.400	81474.1
-14.395	81462.1
-14.390	81466.1
-14.385	81498.1
-14.380	81496.1
-14.375	81500.1
-14.370	81493.1
-14.365	81501.1
-14.360	81489.1
-14.355	81494.1
-14.350	81490.1
-14.345	81495.1
-14.340	81496.1
-14.335	81504.1
-14.330	81460.1
-14.325	81475.1
-14.320	81486.1
-14.315	81494.1
-14.310	81488.1
-14.305	81497.1
-14.300	81495.1
-14.295	81498.1
-14.290	81488.1
-14.285	81491.1
-14.280	81491.1
-14.275	81497.1
-14.270	81496.1
-14.265	81469.1
-14.260	81456.1
-14.255	81471.1
-14.250	81499.1
-14.245	81485.1
-14.240	81486.1
-14.235	81487.1
-14.230	81474.1
-14.225	81488.1
-14.220	81490.1
-14.215	81489.1
-14.210	81486.1
-14.205	81485.1
-14.200	81474.1
-14.195	81456.1
-14.190	81464.1
-14.185	81495.1
-14.180	81488.1
-14.175	81490.1
-14.170	81481.1
-14.165	81485.1
-14.160	81481.1
-14.155	81498.1
-14.150	81491.1
-14.145	81500.1
-14.140	81492.1
-14.135	81494.1
-14.130	81463.1
-14.125	81468.1
-14.120	81479.1
-14.115	81502.1
-14.110	81501.1
-14.105	81504.1
-14.100	81511.1
-14.095	81516.1
-14.090	81526.1
-14.085	81534.0
-14.080	81521.1
-14.075	81522.1
-14.070	81531.0
-14.065	81497.1
-14.060	81492.1
-14.055	81502.1
-14.050	81524.0
-14.045	81525.0
-14.040	81514.1
-14.035	81528.0
-14.030	81518.1
-14.025	81533.0
-14.020	81540.0
-14.015	81538.0
-14.010	81543.0
-14.005	81546.0
-14.000	81528.0
-13.995	81493.1
-13.990	81495.1
-13.985	81521.0
-13.980	81510.1
-13.975	81531.0
-13.970	81533.0
-13.965	81549.0
-13.960	81539.0
-13.955	81551.0
-13.950	81544.0
-13.945	81553.0
-13.940	81548.0
-13.935	81547.0
-13.930	81510.1
-13.925	81506.1
-13.920	81546.0
-13.915	81550.0
-13.910	81539.0
-13.905	81534.0
-13.900	81523.0
-13.895	81527.0
-13.890	81526.0
-13.885	81534.0
-13.880	81528.0
-13.875	81531.0
-13.870	81537.0
-13.865	81511.0
-13.860	81495.1
-13.855	81508.0
-13.850	81543.0
-13.845	81542.0
-13.840	81540.0
-13.835	81544.0
-13.830	81542.0
-13.825	81553.0
-13.820	81554.0
-13.815	81555.0
-13.810	81560.0
-13.805	81566.0
-13.800	81539.0
-13.795	81531.0
-13.790	81546.0
-13.785	81565.0
-13.780	81562.0
-13.775	81563.0
-13.770	81562.0
-13.765	81567.0
-13.760	81562.0
-13.755	81574.0
-13.750	81583.0
-13.745	81580.0
-13.740	81582.0
-13.735	81582.0
-13.730	81549.0
-13.725	81556.0
-13.720	81569.0
-13.715	81591.0
-13.710	81599.0
-13.705	81590.0
-13.700	81580.0
-13.695	81593.0
-13.690	81597.0
-13.685	81607.0
-13.680	81602.0
-13.675	81621.0
-13.670	81612.0
-13.665	81582.0
-13.660	81581.0
-13.655	81591.0
-13.650	81610.0
-13.645	81610.0
-13.640	81591.0
-13.635	81601.0
-13.630	81585.0
-13.625	81591.0
-13.620	81596.0
-13.615	81596.0
-13.610	81589.0
-13.605	81598.0
-13.600	81563.0
-13.595	81540.0
-13.590	81557.0
-13.585	81569.0
-13.580	81571.0
-13.575	81572.0
-13.570	81573.0
-13.565	81572.0
-13.560	81570.0
-13.555	81563.0
-13.550	81573.0
-13.545	81574.0
-13.540	81552.0
-13.535	81561.0
-13.530	81506.0
-13.525	81518.0
-13.520	81532.0
-13.515	81536.0
-13.510	81522.0
-13.505	81514.0
-13.500	81498.0
-13.495	81503.0
-13.490	81509.0
-13.485	81498.0
-13.480	81498.0
-13.475	81486.0
-13.470	81466.1
-13.465	81461.1
-13.460	81431.1
-13.455	81440.1
-13.450	81461.1
-13.445	81452.1
-13.440	81435.1
-13.435	81431.1
-13.430	81425.1
-13.425	81422.1
-13.420	81418.1
-13.415	81419.1
-13.410	81409.1
-13.405	81413.1
-13.400	81386.1
-13.395	81383.1
-13.390	81389.1
-13.385	81416.1
-13.380	81408.1
-13.375	81399.1
-13.370	81392.1
-13.365	81394.1
-13.360	81374.1
-13.355	81365.1
-13.350	81355.1
-13.345	81378.1
-13.340	81394.1
-13.335	81412.1
-13.330	81373.1
-13.325	81382.1
-13.320	81405.1
-13.315	81421.1
-13.310	81422.1
-13.305	81420.1
-13.300	81429.1
-13.295	81438.1
-13.290	81444.1
-13.285	81448.1
-13.280	81445.1
-13.275	81451.1
-13.270	81448.1
-13.265	81428.1
-13.260	81420.1
-13.255	81443.1
-13.250	81455.1
-13.245	81457.1
-13.240	81448.1
-13.235	81457.1
-13.230	81447.1
-13.225	81462.1
-13.220	81461.1
-13.215	81466.1
-13.210	81470.1
-13.205	81477.0
-13.200	81451.1
-13.195	81449.1
-13.190	81455.1
-13.185	81488.0
-13.180	81488.0
-13.175	81491.0
-13.170	81492.0
-13.165	81498.0
-13.160	81494.0
-13.155	81501.0
-13.150	81504.0
-13.145	81510.0
-13.140	81511.0
-13.135	81508.0
-13.130	81474.0
-13.125	81485.0
-13.120	81518.0
-13.115	81511.0
-13.110	81508.0
-13.105	81506.0
-13.100	81506.0
-13.095	81506.0
-13.090	81500.0
-13.085	81501.0
-13.080	81496.0
-13.075	81499.0
-13.070	81506.0
-13.065	81477.0
-13.060	81463.1
-13.055	81480.0
-13.050	81508.0
-13.045	81500.0
-13.040	81501.0
-13.035	81506.0
-13.030	81504.0
-13.025	81508.0
-13.020	81505.0
-13.015	81503.0
-13.010	81502.0
-13.005	81505.0
-13.000	81471.0
-12.995	81465.0
-12.990	81476.0
-12.985	81497.0
-12.980	81494.0
-12.975	81486.0
-12.970	81482.0
-12.965	81477.0
-12.960	81482.0
-12.955	81487.0
-12.950	81491.0
-12.945	81501.0
-12.940	81487.0
-12.935	81473.0
-12.930	81444.1
-12.925	81460.0
-12.920	81478.0
-12.915	81485.0
-12.910	81482.0
-12.905	81487.0
-12.900	81486.0
-12.895	81492.0
-12.890	81495.0
-12.885	81497.0
-12.880	81497.0
-12.875	81499.0
-12.870	81494.0
-12.865	81464.0
-12.860	81467.0
-12.855	81485.0
-12.850	81507.0
-12.845	81500.0
-12.840	81503.0
-12.835	81499.0
-12.830	81499.0
-12.825	81510.0
-12.820	81513.0
-12.815	81523.0
-12.810	81517.0
-12.805	81524.0
-12.800	81505.0
-12.795	81491.0
-12.790	81498.0
-12.785	81532.0
-12.780	81526.0
-12.775	81530.0
-12.770	81531.0
-12.765	81530.0
-12.760	81534.0
-12.755	81550.0
-12.750	81554.0
-12.745	81564.0
-12.740	81552.0
-12.735	81543.0
-12.730	81515.0
-12.725	81526.0
-12.720	81537.0
-12.715	81552.0
-12.710	81545.0
-12.705	81538.0
-12.700	81539.0
-12.695	81544.0
-12.690	81541.0
-12.685	81547.0
-12.680	81559.0
-12.675	81567.0
-12.670	81560.0
-12.665	81533.0
-12.660	81530.0
-12.655	81552.0
-12.650	81571.0
-12.645	81575.0
-12.640	81582.9
-12.635	81575.9
-12.630	81581.9
-12.625	81582.9
-12.620	81585.9
-12.615	81581.9
-12.610	81582.9
-12.605	81583.9
-12.600	81558.0
-12.595	81542.0
-12.590	81566.9
-12.585	81590.9
-12.580	81581.9
-12.575	81578.9
-12.570	81586.9
-12.565	81570.0
-12.560	81572.9
-12.555	81576.9
-12.550	81577.9
-12.545	81585.9
-12.540	81580.9
-12.535	81579.9
-12.530	81548.0
-12.525	81566.0
-12.520	81585.9
-12.515	81594.9
-12.510	81586.9
-12.505	81592.9
-12.500	81586.9
-12.495	81584.9
-12.490	81584.9
-12.485	81602.9
-12.480	81600.9
-12.475	81589.9
-12.470	81585.9
-12.465	81550.0
-12.460	81554.0
-12.455	81579.9
-12.450	81591.9
-12.445	81597.9
-12.440	81579.9
-12.435	81588.9
-12.430	81583.9
-12.425	81589.9
-12.420	81596.9
-12.415	81605.9
-12.410	81602.9
-12.405	81599.9
-12.400	81581.9
-12.395	81563.9
-12.390	81574.9
-12.385	81601.9
-12.380	81598.9
-12.375	81598.9
-12.370	81598.9
-12.365	81610.9
-12.360	81603.9
-12.355	81611.9
-12.350	81615.9
-12.345	81613.9
-12.340	81605.9
-12.335	81596.9
-12.330	81568.9
-12.325	81589.9
-12.320	81619.9
-12.315	81619.9
-12.310	81610.9
-12.305	81616.9
-12.300	81607.9
-12.295	81613.9
-12.290	81617.9
-12.285	81621.9
-12.280	81608.9
-12.275	81621.9
-12.270	81616.9
-12.265	81591.9
-12.260	81589.9
-12.255	81615.9
-12.250	81623.9
-12.245	81632.9
-12.240	81622.9
-12.235	81628.9
-12.230	81624.9
-12.225	81631.9
-12.220	81636.9
-12.215	81641.9
-12.210	81637.9
-12.205	81642.9
-12.200	81605.9
-12.195	81605.9
-12.190	81631.9
-12.185	81648.9
-12.180	81653.9
-12.175	81652.9
-12.170	81649.9
-12.165	81643.9
-12.160	81642.9
-12.155	81656.9
-12.150	81651.9
-12.145	81651.9
-12.140	81659.9
-12.135	81652.9
-12.130	81627.9
-12.125	81638.9
-12.120	81659.9
-12.115	81668.9
-12.110	81669.9
-12.105	81666.9
-12.100	81663.9
-12.095	81675.8
-12.090	81682.8
-12.085	81693.8
-12.080	81684.8
-12.075	81689.8
-12.070	81675.8
-12.065	81646.9
-12.060	81654.9
-12.055	81681.8
-12.050	81681.8
-12.045	81685.8
-12.040	81681.8
-12.035	81684.8
-12.030	81683.8
-12.025	81691.8
-12.020	81684.8
-12.015	81694.8
-12.010	81693.8
-12.005	81700.8
-12.000	81664.9
-11.995	81668.9
-11.990	81679.8
-11.985	81698.8
-11.980	81694.8
-11.975	81712.8
-11.970	81695.8
-11.965	81709.8
-11.960	81698.8
-11.955	81705.8
-11.950	81696.8
-11.945	81698.8
-11.940	81703.8
-11.935	81687.8
-11.930	81675.8
-11.925	81680.8
-11.920	81702.8
-11.915	81696.8
-11.910	81699.8
-11.905	81699.8
-11.900	81699.8
-11.895	81694.8
-11.890	81704.8
-11.885	81704.8
-11.880	81702.8
-11.875	81714.8
-11.870	81696.8
-11.865	81682.8
-11.860	81668.8
-11.855	81700.8
-11.850	81713.8
-11.845	81715.8
-11.840	81706.8
-11.835	81705.8
-11.830	81708.8
-11.825	81714.8
-11.820	81708.8
-11.815	81709.8
-11.810	81712.8
-11.805	81715.8
-11.800	81668.8
-11.795	81673.8
-11.790	81686.8
-11.785	81692.8
-11.780	81696.8
-11.775	81697.8
-11.770	81695.8
-11.765	81693.8
-11.760	81685.8
-11.755	81685.8
-11.750	81687.8
-11.745	81692.8
-11.740	81688.8
-11.735	81667.8
-11.730	81647.9
-11.725	81658.9
-11.720	81675.8
-11.715	81672.8
-11.710	81662.8
-11.705	81662.8
-11.700	81674.8
-11.695	81671.8
-11.690	81668.8
-11.685	81672.8
-11.680	81676.8
-11.675	81661.8
-11.670	81649.9
-11.665	81635.9
-11.660	81636.9
-11.655	81659.8
-11.650	81655.9
-11.645	81658.9
-11.640	81652.9
-11.635	81649.9
-11.630	81636.9
-11.625	81633.9
-11.620	81624.9
-11.615	81640.9
-11.610	81637.9
-11.605	81642.9
-11.600	81600.9
-11.595	81603.9
-11.590	81613.9
-11.585	81635.9
-11.580	81631.9
-11.575	81639.9
-11.570	81628.9
-11.565	81638.9
-11.560	81632.9
-11.555	81630.9
-11.550	81635.9
-11.545	81641.9
-11.540	81622.9
-11.535	81599.9
-11.530	81591.9
-11.525	81611.9
-11.520	81623.9
-11.515	81631.9
-11.510	81608.9
-11.505	81602.9
-11.500	81610.9
-11.495	81597.9
-11.490	81609.9
-11.485	81608.9
-11.480	81615.9
-11.475	81612.9
-11.470	81613.9
-11.465	81576.9
-11.460	81573.9
-11.455	81595.9
-11.450	81610.9
-11.445	81604.9
-11.440	81602.9
-11.435	81607.9
-11.430	81609.9
-11.425	81613.9
-11.420	81613.9
-11.415	81616.9
-11.410	81617.9
-11.405	81616.9
-11.400	81580.9
-11.395	81590.9
-11.390	81605.9
-11.385	81620.9
-11.380	81609.9
-11.375	81615.9
-11.370	81614.9
-11.365	81613.9
-11.360	81610.9
-11.355	81610.9
-11.350	81615.9
-11.345	81627.9
-11.340	81613.9
-11.335	81590.9
-11.330	81564.9
-11.325	81586.9
-11.320	81600.9
-11.315	81615.9
-11.310	81612.9
-11.305	81617.9
-11.300	81616.9
-11.295	81617.9
-11.290	81618.9
-11.285	81618.9
-11.280	81617.9
-11.275	81618.9
-11.270	81602.9
-11.265	81579.9
-11.260	81580.9
-11.255	81609.9
-11.250	81600.9
-11.245	81600.9
-11.240	81595.9
-11.235	81603.9
-11.230	81597.9
-11.225	81592.9
-11.220	81599.9
-11.215	81610.9
-11.210	81606.9
-11.205	81604.9
-11.200	81580.9
-11.195	81574.9
-11.190	81588.9
-11.185	81614.9
-11.180	81610.9
-11.175	81606.9
-11.170	81601.9
-11.165	81609.9
-11.160	81609.9
-11.155	81606.9
-11.150	81603.9
-11.145	81611.9
-11.140	81605.9
-11.135	81580.9
-11.130	81576.9
-11.125	81586.9
-11.120	81613.9
-11.115	81610.9
-11.110	81597.9
-11.105	81605.9
-11.100	81585.9
-11.095	81602.9
-11.090	81600.9
-11.085	81606.9
-11.080	81586.9
-11.075	81609.9
-11.070	81597.9
-11.065	81564.9
-11.060	81568.9
-11.055	81596.9
-11.050	81600.9
-11.045	81604.9
-11.040	81602.9
-11.035	81601.9
-11.030	81599.9
-11.025	81602.9
-11.020	81600.9
-11.015	81609.9
-11.010	81611.9
-11.005	81615.9
-11.000	81570.9
-10.995	81579.9
-10.990	81589.9
-10.985	81607.9
-10.980	81600.9
-10.975	81601.9
-10.970	81592.9
-10.965	81591.9
-10.960	81596.9
-10.955	81602.9
-10.950	81603.9
-10.945	81613.9
-10.940	81616.9
-10.935	81596.9
-10.930	81576.9
-10.925	81600.9
-10.920	81627.9
-10.915	81633.8
-10.910	81629.8
-10.905	81616.9
-10.900	81626.9
-10.895	81628.8
-10.890	81633.8
-10.885	81648.8
-10.880	81645.8
-10.875	81646.8
-10.870	81629.8
-10.865	81599.9
-10.860	81609.9
-10.855	81652.8
-10.850	81642.8
-10.845	81643.8
-10.840	81641.8
-10.835	81637.8
-10.830	81640.8
-10.825	81647.8
-10.820	81653.8
-10.815	81656.8
-10.810	81665.8
-10.805	81659.8
-10.800	81620.9
-10.795	81619.9
-10.790	81638.8
-10.785	81657.8
-10.780	81654.8
-10.775	81668.8
-10.770	81662.8
-10.765	81667.8
-10.760	81671.8
-10.755	81668.8
-10.750	81669.8
-10.745	81673.8
-10.740	81670.8
-10.735	81641.8
-10.730	81636.8
-10.725	81653.8
-10.720	81661.8
-10.715	81665.8
-10.710	81660.8
-10.705	81661.8
-10.700	81655.8
-10.695	81661.8
-10.690	81660.8
-10.685	81664.8
-10.680	81663.8
-10.675	81664.8
-10.670	81651.8
-10.665	81620.8
-10.660	81622.8
-10.655	81646.8
-10.650	81649.8
-10.645	81651.8
-10.640	81650.8
-10.635	81651.8
-10.630	81664.8
-10.625	81656.8
-10.620	81650.8
-10.615	81651.8
-10.610	81654.8
-10.605	81648.8
-10.600	81607.9
-10.595	81609.9
-10.590	81630.8
-10.585	81650.8
-10.580	81626.8
-10.575	81619.8
-10.570	81607.9
-10.565	81610.9
-10.560	81609.9
-10.555	81605.9
-10.550	81599.9
-10.545	81605.9
-10.540	81596.9
-10.535	81574.9
-10.530	81568.9
-10.525	81585.9
-10.520	81608.9
-10.515	81607.9
-10.510	81595.9
-10.505	81591.9
-10.500	81583.9
-10.495	81586.9
-10.490	81587.9
-10.485	81598.9
-10.480	81598.9
-10.475	81592.9
-10.470	81578.9
-10.465	81559.9
-10.460	81575.9
-10.455	81602.9
-10.450	81588.9
-10.445	81582.9
-10.440	81575.9
-10.435	81588.9
-10.430	81573.9
-10.425	81580.9
-10.420	81587.9
-10.415	81586.9
-10.410	81597.9
-10.405	81594.9
-10.400	81560.9
-10.395	81556.9
-10.390	81573.9
-10.385	81593.9
-10.380	81586.9
-10.375	81590.9
-10.370	81592.9
-10.365	81603.9
-10.360	81594.9
-10.355	81596.9
-10.350	81594.9
-10.345	81605.9
-10.340	81599.9
-10.335	81579.9
-10.330	81575.9
-10.325	81591.9
-10.320	81608.8
-10.315	81596.9
-10.310	81600.9
-10.305	81612.8
-10.300	81609.8
-10.295	81610.8
-10.290	81617.8
-10.285	81617.8
-10.280	81624.8
-10.275	81630.8
-10.270	81611.8
-10.265	81592.9
-10.260	81595.9
-10.255	81622.8
-10.250	81622.8
-10.245	81630.8
-10.240	81621.8
-10.235	81619.8
-10.230	81628.8
-10.225	81639.8
-10.220	81631.8
-10.215	81639.8
-10.210	81635.8
-10.205	81628.8
-10.200	81582.9
-10.195	81601.9
-10.190	81612.8
-10.185	81625.8
-10.180	81621.8
-10.175	81620.8
-10.170	81619.8
-10.165	81626.8
-10.160	81624.8
-10.155	81632.8
-10.150	81621.8
-10.145	81627.8
-10.140	81621.8
-10.135	81606.8
-10.130	81600.9
-10.125	81612.8
-10.120	81644.8
-10.115	81631.8
-10.110	81638.8
-10.105	81635.8
-10.100	81635.8
-10.095	81633.8
-10.090	81640.8
-10.085	81642.8
-10.080	81638.8
-10.075	81634.8
-10.070	81613.8
-10.065	81601.8
-10.060	81610.8
-10.055	81644.8
-10.050	81637.8
-10.045	81631.8
-10.040	81631.8
-10.035	81632.8
-10.030	81639.8
-10.025	81640.8
-10.020	81646.8
-10.015	81652.8
-10.010	81650.8
-10.005	81648.8
-10.000	81616.8
-9.995	81609.8
-9.990	81624.8
-9.985	81649.8
-9.980	81641.8
-9.975	81645.8
-9.970	81633.8
-9.965	81643.8
-9.960	81633.8
-9.955	81656.8
-9.950	81650.8
-9.945	81646.8
-9.940	81639.8
-9.935	81617.8
-9.930	81605.8
-9.925	81629.8
-9.920	81650.8
-9.915	81639.8
-9.910	81625.8
-9.905	81616.8
-9.900	81623.8
-9.895	81628.8
-9.890	81630.8
-9.885	81632.8
-9.880	81633.8
-9.875	81632.8
-9.870	81619.8
-9.865	81595.8
-9.860	81598.8
-9.855	81626.8
-9.850	81618.8
-9.845	81626.8
-9.840	81617.8
-9.835	81622.8
-9.830	81630.8
-9.825	81637.8
-9.820	81634.8
-9.815	81644.8
-9.810	81634.8
-9.805	81628.8
-9.800	81590.8
-9.795	81603.8
-9.790	81633.8
-9.785	81633.8
-9.780	81631.8
-9.775	81623.8
-9.770	81623.8
-9.765	81619.8
-9.760	81620.8
-9.755	81627.8
-9.750	81625.8
-9.745	81627.8
-9.740	81617.8
-9.735	81602.8
-9.730	81589.8
-9.725	81613.8
-9.720	81626.8
-9.715	81627.8
-9.710	81623.8
-9.705	81623.8
-9.700	81621.8
-9.695	81633.8
-9.690	81634.8
-9.685	81638.8
-9.680	81632.8
-9.675	81629.8
-9.670	81598.8
-9.665	81596.8
-9.660	81605.8
-9.655	81632.8
-9.650	81624.8
-9.645	81617.8
-9.640	81614.8
-9.635	81612.8
-9.630	81613.8
-9.625	81611.8
-9.620	81609.8
-9.615	81611.8
-9.610	81618.8
-9.605	81615.8
-9.600	81577.8
-9.595	81582.8
-9.590	81607.8
-9.585	81625.8
-9.580	81614.8
-9.575	81615.8
-9.570	81606.8
-9.565	81611.7
-9.560	81587.6
-9.555	81557.6
-9.550	81507.5
-9.545	81442.3
-9.540	81364.1
-9.535	81268.9
-9.530	81182.7
-9.525	81114.4
-9.520	81042.0
-9.515	80923.7
-9.510	80820.3
-9.505	80766.9
-9.500	80679.5
-9.495	80583.1
-9.490	80504.7
-9.485	80426.4
-9.480	80360.1
-9.475	80328.8
-9.470	80333.8
-9.465	80414.0
-9.460	80534.3
-9.455	80655.7
-9.450	80770.0
-9.445	80932.2
-9.440	81052.4
-9.435	81109.6
-9.430	81152.8
-9.425	81166.9
-9.420	81193.0
-9.415	81276.0
-9.410	81317.1
-9.405	81266.2
-9.400	81196.4
-9.395	81176.4
-9.390	81183.5
-9.385	81197.5
-9.380	81198.6
-9.375	81224.6
-9.370	81221.7
-9.365	81199.8
-9.360	81207.8
-9.355	81209.8
-9.350	81220.9
-9.345	81225.9
-9.340	81226.9
-9.335	81210.0
-9.330	81203.0
-9.325	81223.0
-9.320	81256.0
-9.315	81255.1
-9.310	81249.1
-9.305	81257.1
-9.300	81271.1
-9.295	81261.2
-9.290	81257.2
-9.285	81279.2
-9.280	81277.2
-9.275	81280.3
-9.270	81250.3
-9.265	81240.3
-9.260	81254.3
-9.255	81295.3
-9.250	81282.4
-9.245	81271.4
-9.240	81255.4
-9.235	81254.4
-9.230	81259.4
-9.225	81268.5
-9.220	81249.5
-9.215	81255.5
-9.210	81226.5
-9.205	81206.6
-9.200	81177.6
-9.195	81198.6
-9.190	81221.6
-9.185	81219.6
-9.180	81225.6
-9.175	81203.6
-9.170	81144.7
-9.165	81178.7
-9.160	81225.7
-9.155	81256.7
-9.150	81259.7
-9.145	81263.7
-9.140	81244.7
-9.135	81212.7
-9.130	81228.7
-9.125	81258.7
-9.120	81274.7
-9.115	81262.7
-9.110	81245.8
-9.105	81229.8
-9.100	81206.8
-9.095	81213.8
-9.090	81219.8
-9.085	81238.8
-9.080	81247.8
-9.075	81268.8
-9.070	81253.8
-9.065	81247.8
-9.060	81248.8
-9.055	81283.8
-9.050	81259.9
-9.045	81277.8
-9.040	81301.8
-9.035	81325.8
-9.030	81313.8
-9.025	81318.8
-9.020	81332.8
-9.015	81353.8
-9.010	81367.8
-9.005	81357.8
-9.000	81329.9
-8.995	81342.9
-8.990	81369.9
-8.985	81368.9
-8.980	81345.9
-8.975	81347.9
-8.970	81332.9
-8.965	81349.9
-8.960	81370.9
-8.955	81371.9
-8.950	81313.9
-8.945	81249.0
-8.940	81260.0
-8.935	81300.0
-8.930	81333.9
-8.925	81365.9
-8.920	81382.9
-8.915	81381.9
-8.910	81377.9
-8.905	81366.0
-8.900	81346.0
-8.895	81362.0
-8.890	81373.0
-8.885	81388.9
-8.880	81392.0
-8.875	81404.0
-8.870	81383.0
-8.865	81380.0
-8.860	81392.0
-8.855	81440.9
-8.850	81460.9
-8.845	81446.9
-8.840	81439.0
-8.835	81438.0
-8.830	81442.0
-8.825	81456.0
-8.820	81467.9
-8.815	81477.0
-8.810	81452.0
-8.805	81412.0
-8.800	81376.0
-8.795	81408.0
-8.790	81461.0
-8.785	81493.0
-8.780	81506.0
-8.775	81515.9
-8.770	81502.0
-8.765	81515.0
-8.760	81511.0
-8.755	81523.0
-8.750	81508.0
-8.745	81505.0
-8.740	81494.0
-8.735	81468.0
-8.730	81481.0
-8.725	81509.0
-8.720	81499.0
-8.715	81488.0
-8.710	81501.0
-8.705	81522.0
-8.700	81524.0
-8.695	81536.0
-8.690	81537.0
-8.685	81527.0
-8.680	81547.0
-8.675	81534.0
-8.670	81490.0
-8.665	81444.1
-8.660	81381.1
-8.655	81282.2
-8.650	81211.3
-8.645	81256.2
-8.640	81363.2
-8.635	81450.1
-8.630	81462.1
-8.625	81470.1
-8.620	81466.1
-8.615	81451.1
-8.610	81433.1
-8.605	81412.1
-8.600	81397.2
-8.595	81411.2
-8.590	81420.1
-8.585	81404.2
-8.580	81393.2
-8.575	81375.2
-8.570	81366.2
-8.565	81338.2
-8.560	81320.2
-8.555	81324.2
-8.550	81306.3
-8.545	81318.3
-8.540	81308.3
-8.535	81273.3
-8.530	81262.3
-8.525	81278.3
-8.520	81281.3
-8.515	81282.3
-8.510	81268.3
-8.505	81250.3
-8.500	81243.3
-8.495	81241.3
-8.490	81240.3
-8.485	81250.3
-8.480	81260.3
-8.475	81255.3
-8.470	81202.4
-8.465	81196.4
-8.460	81234.4
-8.455	81255.3
-8.450	81240.4
-8.445	81220.4
-8.440	81249.4
-8.435	81289.3
-8.430	81295.3
-8.425	81286.3
-8.420	81289.3
-8.415	81315.3
-8.410	81350.3
-8.405	81353.3
-8.400	81320.3
-8.395	81319.3
-8.390	81350.3
-8.385	81380.3
-8.380	81410.3
-8.375	81428.2
-8.370	81421.3
-8.365	81402.3
-8.360	81378.3
-8.355	81375.3
-8.350	81371.3
-8.345	81406.3
-8.340	81425.3
-8.335	81430.3
-8.330	81483.2
-8.325	81548.2
-8.320	81562.2
-8.315	81584.1
-8.310	81601.1
-8.305	81610.1
-8.300	81601.1
-8.295	81616.1
-8.290	81613.1
-8.285	81620.1
-8.280	81610.1
-8.275	81611.1
-8.270	81587.2
-8.265	81587.2
-8.260	81607.1
-8.255	81646.1
-8.250	81640.1
-8.245	81639.1
-8.240	81638.1
-8.235	81626.1
-8.230	81631.1
-8.225	81640.1
-8.220	81646.1
-8.215	81642.1
-8.210	81651.1
-8.205	81640.1
-8.200	81615.2
-8.195	81624.2
-8.190	81648.1
-8.185	81650.1
-8.180	81638.1
-8.175	81635.2
-8.170	81636.2
-8.165	81632.2
-8.160	81630.2
-8.155	81632.2
-8.150	81628.2
-8.145	81624.2
-8.140	81616.2
-8.135	81590.2
-8.130	81590.2
-8.125	81619.2
-8.120	81632.2
-8.115	81634.2
-8.110	81625.2
-8.105	81612.2
-8.100	81600.2
-8.095	81605.2
-8.090	81611.2
-8.085	81624.2
-8.080	81615.2
-8.075	81621.2
-8.070	81573.2
-8.065	81584.2
-8.060	81593.2
-8.055	81619.2
-8.050	81599.2
-8.045	81585.2
-8.040	81573.2
-8.035	81569.2
-8.030	81570.2
-8.025	81563.3
-8.020	81568.2
-8.015	81562.3
-8.010	81550.3
-8.005	81523.3
-8.000	81521.3
-7.995	81549.3
-7.990	81584.2
-7.985	81611.2
-7.980	81619.2
-7.975	81623.2
-7.970	81631.2
-7.965	81640.2
-7.960	81641.2
-7.955	81641.2
-7.950	81660.2
-7.945	81652.2
-7.940	81652.2
-7.935	81620.2
-7.930	81635.2
-7.925	81652.2
-7.920	81661.2
-7.915	81663.2
-7.910	81647.2
-7.905	81659.2
-7.900	81643.2
-7.895	81652.2
-7.890	81650.2
-7.885	81654.2
-7.880	81643.2
-7.875	81650.2
-7.870	81617.2
-7.865	81617.2
-7.860	81621.2
-7.855	81651.2
-7.850	81640.2
-7.845	81645.2
-7.840	81639.2
-7.835	81635.2
-7.830	81634.2
-7.825	81642.2
-7.820	81644.2
-7.815	81654.2
-7.810	81640.2
-7.805	81622.2
-7.800	81604.3
-7.795	81619.3
-7.790	81642.2
-7.785	81643.2
-7.780	81631.2
-7.775	81622.3
-7.770	81624.3
-7.765	81627.3
-7.760	81630.3
-7.755	81629.3
-7.750	81634.2
-7.745	81634.3
-7.740	81622.3
-7.735	81594.3
-7.730	81598.3
-7.725	81615.3
-7.720	81631.3
-7.715	81629.3
-7.710	81630.3
-7.705	81632.3
-7.700	81636.3
-7.695	81644.3
-7.690	81651.2
-7.685	81647.2
-7.680	81647.2
-7.675	81656.2
-7.670	81618.3
-7.665	81626.3
-7.660	81638.3
-7.655	81648.2
-7.650	81649.3
-7.645	81646.3
-7.640	81639.3
-7.635	81647.3
-7.630	81642.3
-7.625	81649.3
-7.620	81645.3
-7.615	81656.3
-7.610	81656.3
-7.605	81631.3
-7.600	81612.3
-7.595	81632.3
-7.590	81650.3
-7.585	81647.3
-7.580	81649.3
-7.575	81642.3
-7.570	81640.3
-7.565	81642.3
-7.560	81627.3
-7.555	81639.3
-7.550	81628.3
-7.545	81634.3
-7.540	81607.3
-7.535	81593.3
-7.530	81601.3
-7.525	81623.3
-7.520	81622.3
-7.515	81617.3
-7.510	81600.3
-7.505	81598.3
-7.500	81593.3
-7.495	81598.3
-7.490	81599.3
-7.485	81599.3
-7.480	81590.3
-7.475	81585.3
-7.470	81557.4
-7.465	81553.4
-7.460	81557.4
-7.455	81581.3
-7.450	81583.3
-7.445	81577.3
-7.440	81578.3
-7.435	81578.3
-7.430	81585.3
-7.425	81584.3
-7.420	81581.3
-7.415	81590.3
-7.410	81592.3
-7.405	81566.4
-7.400	81549.4
-7.395	81574.3
-7.390	81587.3
-7.385	81597.3
-7.380	81580.3
-7.375	81574.4
-7.370	81577.3
-7.365	81584.3
-7.360	81592.3
-7.355	81607.3
-7.350	81603.3
-7.345	81613.3
-7.340	81604.3
-7.335	81587.4
-7.330	81585.4
-7.325	81621.3
-7.320	81629.3
-7.315	81639.3
-7.310	81645.3
-7.305	81662.3
-7.300	81658.3
-7.295	81674.3
-7.290	81678.3
-7.285	81688.3
-7.280	81687.3
-7.275	81693.3
-7.270	81661.3
-7.265	81661.3
-7.260	81684.3
-7.255	81710.3
-7.250	81699.3
-7.245	81705.3
-7.240	81704.3
-7.235	81708.3
-7.230	81705.3
-7.225	81714.3
-7.220	81711.3
-7.215	81709.3
-7.210	81714.3
-7.205	81691.3
-7.200	81676.3
-7.195	81692.3
-7.190	81713.3
-7.185	81723.3
-7.180	81723.3
-7.175	81722.3
-7.170	81722.3
-7.165	81741.3
-7.160	81743.3
-7.155	81742.3
-7.150	81739.3
-7.145	81743.3
-7.140	81733.3
-7.135	81712.3
-7.130	81722.3
-7.125	81747.3
-7.120	81745.3
-7.115	81740.3
-7.110	81742.3
-7.105	81746.3
-7.100	81737.3
-7.095	81749.3
-7.090	81754.3
-7.085	81752.3
-7.080	81750.3
-7.075	81755.2
-7.070	81727.3
-7.065	81726.3
-7.060	81735.3
-7.055	81752.3
-7.050	81757.3
-7.045	81755.3
-7.040	81755.3
-7.035	81762.3
-7.030	81757.3
-7.025	81766.2
-7.020	81765.2
-7.015	81769.2
-7.010	81759.2
-7.005	81741.3
-7.000	81729.3
-6.995	81750.3
-6.990	81759.3
-6.985	81756.3
-6.980	81752.3
-6.975	81740.3
-6.970	81743.3
-6.965	81748.3
-6.960	81737.3
-6.955	81751.3
-6.950	81746.3
-6.945	81749.3
-6.940	81728.3
-6.935	81704.3
-6.930	81709.3
-6.925	81731.3
-6.920	81733.3
-6.915	81728.3
-6.910	81717.3
-6.905	81723.3
-6.900	81722.3
-6.895	81734.3
-6.890	81722.3
-6.885	81731.3
-6.880	81731.3
-6.875	81729.3
-6.870	81691.3
-6.865	81699.3
-6.860	81718.3
-6.855	81724.3
-6.850	81720.3
-6.845	81708.3
-6.840	81708.3
-6.835	81703.3
-6.830	81703.3
-6.825	81711.3
-6.820	81701.3
-6.815	81709.3
-6.810	81711.3
-6.805	81682.3
-6.800	81674.3
-6.795	81686.3
-6.790	81713.3
-6.785	81707.3
-6.780	81712.3
-6.775	81715.3
-6.770	81719.3
-6.765	81717.3
-6.760	81711.3
-6.755	81715.3
-6.750	81704.3
-6.745	81705.3
-6.740	81680.3
-6.735	81665.3
-6.730	81666.3
-6.725	81700.3
-6.720	81691.3
-6.715	81683.3
-6.710	81676.3
-6.705	81672.3
-6.700	81667.3
-6.695	81672.3
-6.690	81668.3
-6.685	81670.3
-6.680	81667.3
-6.675	81671.3
-6.670	81636.4
-6.665	81636.4
-6.660	81654.4
-6.655	81663.3
-6.650	81663.4
-6.645	81661.4
-6.640	81655.4
-6.635	81670.3
-6.630	81658.4
-6.625	81667.3
-6.620	81663.4
-6.615	81659.4
-6.610	81658.4
-6.605	81626.4
-6.600	81615.4
-6.595	81630.4
-6.590	81643.4
-6.585	81642.4
-6.580	81638.4
-6.575	81637.4
-6.570	81635.4
-6.565	81633.4
-6.560	81632.4
-6.555	81632.4
-6.550	81637.4
-6.545	81644.4
-6.540	81628.4
-6.535	81610.4
-6.530	81617.4
-6.525	81649.4
-6.520	81647.4
-6.515	81646.4
-6.510	81648.4
-6.505	81656.4
-6.500	81649.4
-6.495	81662.4
-6.490	81658.4
-6.485	81663.4
-6.480	81661.4
-6.475	81661.4
-6.470	81624.4
-6.465	81638.4
-6.460	81659.4
-6.455	81662.4
-6.450	81653.4
-6.445	81653.4
-6.440	81642.4
-6.435	81648.4
-6.430	81651.4
-6.425	81662.4
-6.420	81655.4
-6.415	81667.4
-6.410	81661.4
-6.405	81633.4
-6.400	81621.4
-6.395	81635.4
-6.390	81657.4
-6.385	81659.4
-6.380	81657.4
-6.375	81654.4
-6.370	81655.4
-6.365	81663.4
-6.360	81660.4
-6.355	81662.4
-6.350	81665.4
-6.345	81666.4
-6.340	81652.4
-6.335	81631.4
-6.330	81638.4
-6.325	81661.4
-6.320	81656.4
-6.315	81646.4
-6.310	81653.4
-6.305	81655.4
-6.300	81655.4
-6.295	81647.4
-6.290	81650.4
-6.285	81657.4
-6.280	81656.4
-6.275	81655.4
-6.270	81621.4
-6.265	81629.4
-6.260	81638.4
-6.255	81668.4
-6.250	81660.4
-6.245	81664.4
-6.240	81660.4
-6.235	81670.4
-6.230	81668.4
-6.225	81660.4
-6.220	81661.4
-6.215	81657.4
-6.210	81660.4
-6.205	81633.4
-6.200	81637.4
-6.195	81655.4
-6.190	81664.4
-6.185	81660.4
-6.180	81654.4
-6.175	81652.4
-6.170	81648.4
-6.165	81654.4
-6.160	81642.4
-6.155	81657.4
-6.150	81653.4
-6.145	81664.4
-6.140	81646.4
-6.135	81615.4
-6.130	81641.4
-6.125	81662.4
-6.120	81663.4
-6.115	81667.4
-6.110	81661.4
-6.105	81668.4
-6.100	81668.4
-6.095	81686.4
-6.090	81679.4
-6.085	81679.4
-6.080	81672.4
-6.075	81672.4
-6.070	81630.4
-6.065	81643.4
-6.060	81664.4
-6.055	81674.4
-6.050	81662.4
-6.045	81657.4
-6.040	81660.4
-6.035	81670.4
-6.030	81666.4
-6.025	81673.4
-6.020	81669.4
-6.015	81684.4
-6.010	81677.4
-6.005	81650.4
-6.000	81641.4
-5.995	81666.4
-5.990	81679.4
-5.985	81684.4
-5.980	81674.4
-5.975	81680.4
-5.970	81680.4
-5.965	81696.4
-5.960	81700.4
-5.955	81693.4
-5.950	81694.4
-5.945	81696.4
-5.940	81678.4
-5.935	81666.4
-5.930	81692.4
-5.925	81716.4
-5.920	81701.4
-5.915	81689.4
-5.910	81687.4
-5.905	81681.4
-5.900	81686.4
-5.895	81689.4
-5.890	81683.4
-5.885	81687.4
-5.880	81687.4
-5.875	81687.4
-5.870	81651.4
-5.865	81659.4
-5.860	81679.4
-5.855	81699.4
-5.850	81693.4
-5.845	81694.4
-5.840	81690.4
-5.835	81689.4
-5.830	81695.4
-5.825	81689.4
-5.820	81690.4
-5.815	81681.4
-5.810	81674.4
-5.805	81646.4
-5.800	81650.4
-5.795	81665.4
-5.790	81681.4
-5.785	81679.4
-5.780	81661.4
-5.775	81651.4
-5.770	81658.4
-5.765	81654.4
-5.760	81653.4
-5.755	81650.3
-5.750	81645.3
-5.745	81649.3
-5.740	81633.3
-5.735	81627.3
-5.730	81644.3
-5.725	81666.3
-5.720	81650.3
-5.715	81675.3
-5.710	81672.3
-5.705	81682.3
-5.700	81676.3
-5.695	81681.3
-5.690	81673.3
-5.685	81671.3
-5.680	81673.3
-5.675	81653.3
-5.670	81627.4
-5.665	81627.4
-5.660	81649.4
-5.655	81639.4
-5.650	81627.4
-5.645	81627.5
-5.640	81624.5
-5.635	81630.5
-5.630	81629.5
-5.625	81635.5
-5.620	81629.5
-5.615	81630.5
-5.610	81621.5
-5.605	81594.5
-5.600	81585.5
-5.595	81601.5
-5.590	81621.5
-5.585	81618.5
-5.580	81617.5
-5.575	81607.5
-5.570	81606.5
-5.565	81622.5
-5.560	81605.5
-5.555	81624.5
-5.550	81613.5
-5.545	81612.5
-5.540	81567.5
-5.535	81562.5
-5.530	81576.5
-5.525	81602.5
-5.520	81587.5
-5.515	81581.5
-5.510	81573.5
-5.505	81587.5
-5.500	81576.5
-5.495	81577.5
-5.490	81567.5
-5.485	81575.5
-5.480	81574.5
-5.475	81556.5
-5.470	81535.5
-5.465	81532.5
-5.460	81537.5
-5.455	81544.6
-5.450	81517.6
-5.445	81509.7
-5.440	81487.8
-5.435	81462.0
-5.430	81429.2
-5.425	81374.6
-5.420	81292.0
-5.415	81212.4
-5.410	81148.9
-5.405	81023.5
-5.400	80972.1
-5.395	80926.7
-5.390	80834.4
-5.385	80728.2
-5.380	80677.9
-5.375	80656.4
-5.370	80583.1
-5.365	80514.8
-5.360	80523.3
-5.355	80675.3
-5.350	80856.0
-5.345	81059.5
-5.340	81168.0
-5.335	81235.5
-5.330	81336.0
-5.325	81446.6
-5.320	81480.2
-5.315	81515.0
-5.310	81530.7
-5.305	81558.5
-5.300	81571.3
-5.295	81562.2
-5.290	81556.0
-5.285	81551.9
-5.280	81533.8
-5.275	81516.7
-5.270	81493.6
-5.265	81520.5
-5.260	81561.4
-5.255	81578.3
-5.250	81586.3
-5.245	81601.2
-5.240	81606.1
-5.235	81620.0
-5.230	81628.0
-5.225	81630.9
-5.220	81644.8
-5.215	81654.8
-5.210	81657.7
-5.205	81625.7
-5.200	81643.6
-5.195	81685.5
-5.190	81704.5
-5.185	81714.4
-5.180	81720.4
-5.175	81713.3
-5.170	81719.3
-5.165	81740.2
-5.160	81735.2
-5.155	81738.2
-5.150	81734.1
-5.145	81741.1
-5.140	81727.1
-5.135	81738.0
-5.130	81759.0
-5.125	81775.0
-5.120	81758.9
-5.115	81757.9
-5.110	81746.9
-5.105	81755.9
-5.100	81754.9
-5.095	81764.8
-5.090	81764.8
-5.085	81768.8
-5.080	81768.8
-5.075	81757.8
-5.070	81721.8
-5.065	81728.7
-5.060	81761.7
-5.055	81755.7
-5.050	81755.7
-5.045	81758.6
-5.040	81759.6
-5.035	81772.6
-5.030	81784.5
-5.025	81800.5
-5.020	81793.5
-5.015	81799.5
-5.010	81791.5
-5.005	81753.5
-5.000	81762.5
-4.995	81789.4
-4.990	81814.4
-4.985	81817.4
-4.980	81795.4
-4.975	81796.4
-4.970	81790.4
-4.965	81787.3
-4.960	81796.3
-4.955	81813.3
-4.950	81827.3
-4.945	81855.2
-4.940	81828.2
-4.935	81816.2
-4.930	81821.2
-4.925	81847.2
-4.920	81847.2
-4.915	81853.2
-4.910	81842.2
-4.905	81855.1
-4.900	81855.1
-4.895	81866.1
-4.890	81862.1
-4.885	81862.1
-4.880	81845.1
-4.875	81828.1
-4.870	81822.1
-4.865	81841.1
-4.860	81865.1
-4.855	81858.1
-4.850	81844.1
-4.845	81842.1
-4.840	81846.1
-4.835	81856.0
-4.830	81856.0
-4.825	81853.0
-4.820	81840.0
-4.815	81838.0
-4.810	81838.0
-4.805	81807.0
-4.800	81805.0
-4.795	81847.0
-4.790	81861.9
-4.785	81862.9
-4.780	81857.9
-4.775	81850.9
-4.770	81834.9
-4.765	81836.9
-4.760	81830.9
-4.755	81823.9
-4.750	81819.9
-4.745	81832.9
-4.740	81803.9
-4.735	81808.9
-4.730	81826.9
-4.725	81839.9
-4.720	81829.9
-4.715	81822.9
-4.710	81825.9
-4.705	81834.9
-4.700	81825.9
-4.695	81818.8
-4.690	81819.8
-4.685	81818.8
-4.680	81817.8
-4.675	81819.8
-4.670	81798.8
-4.665	81809.8
-4.660	81825.8
-4.655	81838.8
-4.650	81837.8
-4.645	81849.7
-4.640	81827.7
-4.635	81827.7
-4.630	81840.7
-4.625	81859.7
-4.620	81866.7
-4.615	81860.7
-4.610	81837.7
-4.605	81788.7
-4.600	81807.7
-4.595	81837.7
-4.590	81849.7
-4.585	81846.7
-4.580	81836.7
-4.575	81834.7
-4.570	81836.7
-4.565	81845.7
-4.560	81838.7
-4.555	81832.7
-4.550	81831.7
-4.545	81822.7
-4.540	81793.7
-4.535	81795.7
-4.530	81820.7
-4.525	81853.6
-4.520	81859.6
-4.515	81853.6
-4.510	81852.6
-4.505	81840.6
-4.500	81831.6
-4.495	81839.6
-4.490	81851.6
-4.485	81854.6
-4.480	81852.6
-4.475	81839.6
-4.470	81815.6
-4.465	81832.6
-4.460	81847.6
-4.455	81854.6
-4.450	81833.6
-4.445	81835.6
-4.440	81827.6
-4.435	81830.6
-4.430	81831.6
-4.425	81848.5
-4.420	81866.5
-4.415	81874.5
-4.410	81882.5
-4.405	81874.5
-4.400	81881.5
-4.395	81872.5
-4.390	81857.5
-4.385	81847.5
-4.380	81845.5
-4.375	81846.5
-4.370	81842.5
-4.365	81846.5
-4.360	81855.5
-4.355	81848.5
-4.350	81838.5
-4.345	81835.5
-4.340	81796.5
-4.335	81804.5
-4.330	81827.5
-4.325	81846.5
-4.320	81827.5
-4.315	81813.5
-4.310	81793.5
-4.305	81781.5
-4.300	81781.5
-4.295	81787.5
-4.290	81802.5
-4.285	81816.4
-4.280	81815.4
-4.275	81795.5
-4.270	81769.5
-4.265	81777.5
-4.260	81788.5
-4.255	81811.4
-4.250	81799.5
-4.245	81802.5
-4.240	81792.5
-4.235	81787.5
-4.230	81790.4
-4.225	81805.4
-4.220	81791.4
-4.215	81803.4
-4.210	81790.4
-4.205	81748.5
-4.200	81757.5
-4.195	81785.4
-4.190	81785.4
-4.185	81789.4
-4.180	81759.4
-4.175	81769.4
-4.170	81756.4
-4.165	81755.4
-4.160	81741.4
-4.155	81737.4
-4.150	81739.3
-4.145	81730.3
-4.140	81695.2
-4.135	81694.1
-4.130	81692.0
-4.125	81690.8
-4.120	81655.5
-4.115	81623.2
-4.110	81571.9
-4.105	81526.5
-4.100	81461.1
-4.095	81395.6
-4.090	81319.0
-4.085	81260.4
-4.080	81206.8
-4.075	81121.2
-4.070	81043.6
-4.065	81002.0
-4.060	80961.4
-4.055	80900.0
-4.050	80915.6
-4.045	80965.4
-4.040	80994.4
-4.035	81048.6
-4.030	81105.0
-4.025	81179.4
-4.020	81249.7
-4.015	81313.1
-4.010	81409.4
-4.005	81513.6
-4.000	81549.8
-3.995	81613.0
-3.990	81626.2
-3.985	81619.4
-3.980	81613.5
-3.975	81636.7
-3.970	81608.8
-3.965	81619.9
-3.960	81654.0
-3.955	81656.1
-3.950	81625.2
-3.945	81610.3
-3.940	81571.4
-3.935	81551.5
-3.930	81524.6
-3.925	81528.6
-3.920	81554.7
-3.915	81525.8
-3.910	81495.8
-3.905	81501.9
-3.900	81489.9
-3.895	81484.0
-3.890	81482.0
-3.885	81485.1
-3.880	81492.1
-3.875	81489.2
-3.870	81460.2
-3.865	81440.3
-3.860	81446.3
-3.855	81432.4
-3.850	81452.4
-3.845	81481.4
-3.840	81482.4
-3.835	81479.5
-3.830	81451.5
-3.825	81419.6
-3.820	81391.7
-3.815	81389.7
-3.810	81356.7
-3.805	81311.8
-3.800	81303.8
-3.795	81315.9
-3.790	81284.9
-3.785	81261.9
-3.780	81238.0
-3.775	81219.0
-3.770	81186.1
-3.765	81193.1
-3.760	81199.1
-3.755	81222.1
-3.750	81257.1
-3.745	81309.1
-3.740	81296.1
-3.735	81343.1
-3.730	81373.1
-3.725	81432.1
-3.720	81474.1
-3.715	81539.0
-3.710	81585.0
-3.705	81615.0
-3.700	81590.0
-3.695	81563.1
-3.690	81537.1
-3.685	81532.1
-3.680	81522.2
-3.675	81523.2
-3.670	81519.2
-3.665	81537.2
-3.660	81541.2
-3.655	81531.2
-3.650	81493.3
-3.645	81476.3
-3.640	81458.3
-3.635	81464.3
-3.630	81449.3
-3.625	81449.4
-3.620	81431.4
-3.615	81448.4
-3.610	81436.4
-3.605	81400.5
-3.600	81393.5
-3.595	81404.5
-3.590	81419.5
-3.585	81435.5
-3.580	81438.5
-3.575	81410.6
-3.570	81372.6
-3.565	81379.7
-3.560	81378.7
-3.555	81365.8
-3.550	81381.8
-3.545	81444.8
-3.540	81483.8
-3.535	81567.8
-3.530	81651.8
-3.525	81683.8
-3.520	81688.9
-3.515	81689.0
-3.510	81692.0
-3.505	81690.1
-3.500	81678.2
-3.495	81682.3
-3.490	81671.3
-3.485	81673.4
-3.480	81681.4
-3.475	81667.5
-3.470	81660.5
-3.465	81681.6
-3.460	81705.6
-3.455	81707.6
-3.450	81714.6
-3.445	81721.6
-3.440	81715.6
-3.435	81705.6
-3.430	81699.6
-3.425	81711.6
-3.420	81719.6
-3.415	81743.6
-3.410	81754.6
-3.405	81714.7
-3.400	81682.7
-3.395	81634.8
-3.390	81605.9
-3.385	81663.9
-3.380	81715.0
-3.375	81764.1
-3.370	81750.2
-3.365	81694.3
-3.360	81652.5
-3.355	81696.6
-3.350	81775.6
-3.345	81821.7
-3.340	81754.8
-3.335	81730.9
-3.330	81723.9
-3.325	81748.8
-3.320	81743.8
-3.315	81755.7
-3.310	81740.7
-3.305	81730.6
-3.300	81720.6
-3.295	81722.6
-3.290	81713.5
-3.285	81723.5
-3.280	81713.5
-3.275	81695.5
-3.270	81696.5
-3.265	81722.5
-3.260	81737.5
-3.255	81739.5
-3.250	81711.5
-3.245	81705.5
-3.240	81683.5
-3.235	81683.5
-3.230	81665.6
-3.225	81644.6
-3.220	81642.6
-3.215	81652.6
-3.210	81648.6
-3.205	81638.6
-3.200	81661.6
-3.195	81688.6
-3.190	81690.6
-3.185	81691.6
-3.180	81687.6
-3.175	81684.7
-3.170	81685.7
-3.165	81698.7
-3.160	81689.7
-3.155	81703.7
-3.150	81709.7
-3.145	81721.7
-3.140	81694.7
-3.135	81695.7
-3.130	81707.7
-3.125	81715.7
-3.120	81731.7
-3.115	81733.7
-3.110	81716.8
-3.105	81721.8
-3.100	81720.8
-3.095	81718.8
-3.090	81711.8
-3.085	81706.8
-3.080	81699.8
-3.075	81674.8
-3.070	81660.8
-3.065	81673.8
-3.060	81703.8
-3.055	81704.8
-3.050	81713.8
-3.045	81708.8
-3.040	81683.9
-3.035	81653.9
-3.030	81638.9
-3.025	81630.9
-3.020	81610.0
-3.015	81588.0
-3.010	81543.0
-3.005	81487.1
-3.000	81480.1
-2.995	81488.1
-2.990	81454.1
-2.985	81436.2
-2.980	81432.2
-2.975	81432.2
-2.970	81414.2
-2.965	81393.2
-2.960	81357.3
-2.955	81332.3
-2.950	81304.3
-2.945	81305.3
-2.940	81266.4
-2.935	81269.4
-2.930	81288.4
-2.925	81334.3
-2.920	81353.4
-2.915	81371.4
-2.910	81387.4
-2.905	81401.4
-2.900	81394.4
-2.895	81391.4
-2.890	81386.4
-2.885	81403.4
-2.880	81442.4
-2.875	81465.3
-2.870	81502.3
-2.865	81550.3
-2.860	81580.3
-2.855	81592.3
-2.850	81589.3
-2.845	81614.3
-2.840	81618.3
-2.835	81651.3
-2.830	81640.3
-2.825	81644.3
-2.820	81632.3
-2.815	81632.3
-2.810	81616.3
-2.805	81606.3
-2.800	81614.3
-2.795	81648.3
-2.790	81643.3
-2.785	81644.3
-2.780	81655.3
-2.775	81670.3
-2.770	81703.3
-2.765	81714.3
-2.760	81713.3
-2.755	81702.3
-2.750	81680.3
-2.745	81671.3
-2.740	81637.4
-2.735	81631.4
-2.730	81650.4
-2.725	81686.3
-2.720	81697.3
-2.715	81712.3
-2.710	81712.4
-2.705	81705.4
-2.700	81692.4
-2.695	81684.4
-2.690	81690.4
-2.685	81726.4
-2.680	81738.4
-2.675	81728.4
-2.670	81718.4
-2.665	81724.4
-2.660	81727.5
-2.655	81713.5
-2.650	81710.5
-2.645	81742.5
-2.640	81747.5
-2.635	81760.5
-2.630	81743.5
-2.625	81719.5
-2.620	81699.5
-2.615	81687.5
-2.610	81674.5
-2.605	81675.5
-2.600	81711.5
-2.595	81742.5
-2.590	81725.5
-2.585	81704.5
-2.580	81682.5
-2.575	81675.5
-2.570	81674.5
-2.565	81681.5
-2.560	81683.5
-2.555	81701.5
-2.550	81710.5
-2.545	81718.5
-2.540	81683.6
-2.535	81686.6
-2.530	81688.6
-2.525	81692.6
-2.520	81683.6
-2.515	81681.6
-2.510	81679.6
-2.505	81693.6
-2.500	81695.6
-2.495	81707.6
-2.490	81703.6
-2.485	81679.6
-2.480	81664.6
-2.475	81633.6
-2.470	81638.6
-2.465	81651.6
-2.460	81649.6
-2.455	81644.6
-2.450	81620.7
-2.445	81618.7
-2.440	81623.7
-2.435	81644.7
-2.430	81638.7
-2.425	81647.7
-2.420	81645.7
-2.415	81653.7
-2.410	81637.7
-2.405	81639.7
-2.400	81645.7
-2.395	81693.7
-2.390	81708.7
-2.385	81725.7
-2.380	81716.7
-2.375	81724.7
-2.370	81736.7
-2.365	81759.7
-2.360	81755.7
-2.355	81756.7
-2.350	81758.7
-2.345	81744.7
-2.340	81730.7
-2.335	81751.7
-2.330	81775.7
-2.325	81777.7
-2.320	81766.7
-2.315	81759.7
-2.310	81763.7
-2.305	81757.7
-2.300	81750.7
-2.295	81754.7
-2.290	81759.7
-2.285	81772.7
-2.280	81778.6
-2.275	81769.6
-2.270	81768.6
-2.265	81792.6
-2.260	81827.6
-2.255	81835.6
-2.250	81822.6
-2.245	81817.6
-2.240	81796.6
-2.235	81800.6
-2.230	81804.6
-2.225	81822.6
-2.220	81818.6
-2.215	81824.6
-2.210	81798.6
-2.205	81787.6
-2.200	81800.6
-2.195	81828.6
-2.190	81814.6
-2.185	81812.6
-2.180	81791.6
-2.175	81797.6
-2.170	81792.6
-2.165	81797.6
-2.160	81786.6
-2.155	81771.6
-2.150	81765.6
-2.145	81764.6
-2.140	81742.6
-2.135	81772.6
-2.130	81810.6
-2.125	81848.5
-2.120	81848.6
-2.115	81843.6
-2.110	81856.6
-2.105	81867.6
-2.100	81872.6
-2.095	81864.6
-2.090	81851.7
-2.085	81837.7
-2.080	81848.7
-2.075	81815.7
-2.070	81821.7
-2.065	81836.7
-2.060	81844.7
-2.055	81840.7
-2.050	81845.7
-2.045	81837.7
-2.040	81830.7
-2.035	81838.6
-2.030	81837.6
-2.025	81849.6
-2.020	81852.6
-2.015	81845.6
-2.010	81815.6
-2.005	81789.6
-2.000	81787.6
-1.995	81822.6
-1.990	81818.6
-1.985	81820.6
-1.980	81819.6
-1.975	81832.6
-1.970	81834.6
-1.965	81855.6
-1.960	81843.6
-1.955	81834.6
-1.950	81822.6
-1.945	81802.7
-1.940	81778.7
-1.935	81779.7
-1.930	81803.7
-1.925	81805.7
-1.920	81801.7
-1.915	81810.6
-1.910	81809.6
-1.905	81804.6
-1.900	81785.7
-1.895	81782.7
-1.890	81783.7
-1.885	81794.6
-1.880	81790.6
-1.875	81754.6
-1.870	81745.6
-1.865	81754.6
-1.860	81775.6
-1.855	81776.6
-1.850	81787.6
-1.845	81791.5
-1.840	81790.5
-1.835	81781.5
-1.830	81779.5
-1.825	81781.5
-1.820	81784.5
-1.815	81804.5
-1.810	81790.5
-1.805	81784.5
-1.800	81812.5
-1.795	81836.5
-1.790	81821.5
-1.785	81806.6
-1.780	81787.6
-1.775	81786.6
-1.770	81773.6
-1.765	81764.6
-1.760	81757.6
-1.755	81758.6
-1.750	81742.6
-1.745	81738.6
-1.740	81712.6
-1.735	81716.6
-1.730	81741.6
-1.725	81753.6
-1.720	81741.6
-1.715	81738.6
-1.710	81730.6
-1.705	81727.6
-1.700	81720.6
-1.695	81719.6
-1.690	81721.5
-1.685	81735.5
-1.680	81726.5
-1.675	81712.5
-1.670	81729.5
-1.665	81763.5
-1.660	81776.4
-1.655	81783.4
-1.650	81785.4
-1.645	81790.4
-1.640	81783.4
-1.635	81777.4
-1.630	81769.4
-1.625	81766.4
-1.620	81760.5
-1.615	81776.4
-1.610	81759.5
-1.605	81761.5
-1.600	81762.5
-1.595	81790.5
-1.590	81789.5
-1.585	81794.5
-1.580	81789.5
-1.575	81789.5
-1.570	81778.5
-1.565	81787.5
-1.560	81777.5
-1.555	81781.5
-1.550	81778.5
-1.545	81771.5
-1.540	81739.5
-1.535	81757.5
-1.530	81777.5
-1.525	81785.5
-1.520	81777.5
-1.515	81767.5
-1.510	81768.4
-1.505	81781.4
-1.500	81779.4
-1.495	81789.4
-1.490	81787.4
-1.485	81787.4
-1.480	81789.3
-1.475	81760.3
-1.470	81760.3
-1.465	81786.3
-1.460	81801.3
-1.455	81804.2
-1.450	81810.2
-1.445	81812.2
-1.440	81808.2
-1.435	81813.2
-1.430	81818.2
-1.425	81809.2
-1.420	81804.2
-1.415	81800.2
-1.410	81779.2
-1.405	81782.2
-1.400	81818.2
-1.395	81846.2
-1.390	81854.2
-1.385	81852.2
-1.380	81841.2
-1.375	81835.2
-1.370	81819.2
-1.365	81810.2
-1.360	81801.2
-1.355	81796.2
-1.350	81794.2
-1.345	81777.2
-1.340	81752.2
-1.335	81757.2
-1.330	81778.2
-1.325	81792.2
-1.320	81782.2
-1.315	81779.2
-1.310	81773.2
-1.305	81776.2
-1.300	81776.2
-1.295	81773.2
-1.290	81773.2
-1.285	81777.2
-1.280	81773.2
-1.275	81746.2
-1.270	81742.2
-1.265	81775.2
-1.260	81778.1
-1.255	81786.1
-1.250	81786.1
-1.245	81791.1
-1.240	81787.1
-1.235	81784.1
-1.230	81771.1
-1.225	81779.1
-1.220	81780.1
-1.215	81780.0
-1.210	81748.1
-1.205	81745.1
-1.200	81750.1
-1.195	81776.0
-1.190	81774.0
-1.185	81760.0
-1.180	81758.0
-1.175	81761.0
-1.170	81753.0
-1.165	81766.0
-1.160	81762.0
-1.155	81766.0
-1.150	81774.0
-1.145	81756.1
-1.140	81729.1
-1.135	81741.1
-1.130	81767.1
-1.125	81767.1
-1.120	81775.1
-1.115	81763.1
-1.110	81752.1
-1.105	81747.1
-1.100	81743.0
-1.095	81749.0
-1.090	81743.0
-1.085	81751.0
-1.080	81735.0
-1.075	81713.0
-1.070	81713.0
-1.065	81734.9
-1.060	81742.9
-1.055	81740.9
-1.050	81734.9
-1.045	81733.9
-1.040	81726.9
-1.035	81721.9
-1.030	81715.9
-1.025	81735.9
-1.020	81726.9
-1.015	81734.9
-1.010	81711.9
-1.005	81717.9
-1.000	81736.9
-0.995	81752.9
-0.990	81740.9
-0.985	81727.9
-0.980	81716.9
-0.975	81714.9
-0.970	81704.9
-0.965	81704.9
-0.960	81701.9
-0.955	81702.9
-0.950	81692.9
-0.945	81677.9
-0.940	81659.9
-0.935	81665.9
-0.930	81696.8
-0.925	81702.8
-0.920	81707.8
-0.915	81699.8
-0.910	81700.8
-0.905	81697.8
-0.900	81688.8
-0.895	81698.8
-0.890	81693.8
-0.885	81690.8
-0.880	81690.8
-0.875	81668.8
-0.870	81670.8
-0.865	81695.7
-0.860	81706.7
-0.855	81705.7
-0.850	81702.7
-0.845	81709.7
-0.840	81694.7
-0.835	81698.7
-0.830	81692.7
-0.825	81693.7
-0.820	81680.7
-0.815	81668.7
-0.810	81635.7
-0.805	81620.8
-0.800	81635.7
-0.795	81646.7
-0.790	81634.7
-0.785	81643.7
-0.780	81640.7
-0.775	81633.7
-0.770	81622.7
-0.765	81623.7
-0.760	81615.7
-0.755	81609.7
-0.750	81615.6
-0.745	81587.6
-0.740	81577.6
-0.735	81601.6
-0.730	81634.6
-0.725	81639.6
-0.720	81625.6
-0.715	81620.6
-0.710	81614.6
-0.705	81609.6
-0.700	81599.6
-0.695	81614.6
-0.690	81616.6
-0.685	81624.5
-0.680	81609.6
-0.675	81585.6
-0.670	81582.6
-0.665	81613.6
-0.660	81620.6
-0.655	81637.5
-0.650	81643.5
-0.645	81644.5
-0.640	81660.5
-0.635	81674.5
-0.630	81675.5
-0.625	81675.5
-0.620	81660.5
-0.615	81665.5
-0.610	81628.5
-0.605	81644.5
-0.600	81669.5
-0.595	81697.4
-0.590	81688.4
-0.585	81668.4
-0.580	81657.4
-0.575	81639.4
-0.570	81628.4
-0.565	81624.4
-0.560	81618.4
-0.555	81630.4
-0.550	81636.4
-0.545	81607.4
-0.540	81581.4
-0.535	81586.4
-0.530	81607.4
-0.525	81603.4
-0.520	81597.3
-0.515	81609.3
-0.510	81609.3
-0.505	81631.3
-0.500	81648.3
-0.495	81664.3
-0.490	81666.3
-0.485	81676.2
-0.480	81672.2
-0.475	81649.2
-0.470	81652.2
-0.465	81668.2
-0.460	81666.2
-0.455	81671.2
-0.450	81664.2
-0.445	81664.2
-0.440	81662.2
-0.435	81655.2
-0.430	81660.2
-0.425	81661.2
-0.420	81656.2
-0.415	81643.2
-0.410	81602.2
-0.405	81597.2
-0.400	81605.2
-0.395	81645.2
-0.390	81648.1
-0.385	81682.1
-0.380	81682.1
-0.375	81677.1
-0.370	81677.1
-0.365	81673.1
-0.360	81683.1
-0.355	81686.1
-0.350	81688.1
-0.345	81662.1
-0.340	81648.1
-0.335	81668.1
-0.330	81675.1
-0.325	81671.1
-0.320	81648.1
-0.315	81627.1
-0.310	81633.1
-0.305	81651.1
-0.300	81640.1
-0.295	81641.1
-0.290	81631.1
-0.285	81637.0
-0.280	81641.0
-0.275	81637.0
-0.270	81643.0
-0.265	81664.0
-0.260	81674.0
-0.255	81686.0
-0.250	81696.9
-0.245	81721.9
-0.240	81731.9
-0.235	81748.9
-0.230	81756.9
-0.225	81747.9
-0.220	81724.9
-0.215	81721.9
-0.210	81692.9
-0.205	81696.9
-0.200	81703.8
-0.195	81685.8
-0.190	81653.9
-0.185	81642.8
-0.180	81649.8
-0.175	81675.8
-0.170	81676.8
-0.165	81689.8
-0.160	81681.8
-0.155	81680.8
-0.150	81692.8
-0.145	81680.8
-0.140	81667.8
-0.135	81683.8
-0.130	81719.7
-0.125	81728.7
-0.120	81714.7
-0.115	81711.7
-0.110	81704.7
-0.105	81714.7
-0.100	81710.7
-0.095	81713.7
-0.090	81723.7
-0.085	81748.7
-0.080	81737.7
-0.075	81692.8
-0.070	81682.8
-0.065	81691.8
-0.060	81678.9
-0.055	81688.9
-0.050	81691.9
-0.045	81708.9
-0.040	81713.8
-0.035	81714.8
-0.030	81703.8
-0.025	81696.7
-0.020	81707.7
-0.015	81710.6
-0.010	81654.5
-0.005	81614.4
0.000	81589.3
0.005	81605.2
0.010	81564.1
0.015	81491.1
0.020	81462.1
0.025	81558.1
0.030	81649.1
0.035	81645.2
0.040	81623.4
0.045	81690.5
0.050	81698.7
0.055	81627.9
0.060	81633.1
0.065	81723.1
0.070	81772.2
0.075	81733.2
0.080	81655.2
0.085	81583.1
0.090	81530.0
0.095	81525.8
0.100	81525.7
0.105	81578.5
0.110	81622.3
0.115	81652.2
0.120	81634.1
0.125	81592.1
0.130	81585.1
0.135	81600.2
0.140	81597.2
0.145	81601.3
0.150	81603.3
0.155	81595.3
0.160	81593.4
0.165	81605.3
0.170	81620.3
0.175	81618.3
0.180	81611.3
0.185	81603.3
0.190	81563.4
0.195	81576.4
0.200	81600.3
0.205	81615.3
0.210	81603.3
0.215	81604.3
0.220	81577.3
0.225	81544.4
0.230	81530.4
0.235	81541.4
0.240	81559.3
0.245	81567.3
0.250	81557.3
0.255	81545.3
0.260	81535.3
0.265	81580.3
0.270	81623.2
0.275	81604.3
0.280	81579.3
0.285	81572.3
0.290	81574.3
0.295	81592.2
0.300	81606.2
0.305	81615.2
0.310	81632.2
0.315	81638.2
0.320	81616.2
0.325	81598.2
0.330	81614.2
0.335	81645.1
0.340	81630.1
0.345	81616.2
0.350	81606.2
0.355	81614.1
0.360	81618.1
0.365	81590.2
0.370	81577.2
0.375	81569.2
0.380	81572.1
0.385	81581.1
0.390	81546.1
0.395	81551.1
0.400	81588.1
0.405	81635.0
0.410	81642.0
0.415	81657.0
0.420	81657.0
0.425	81666.0
0.430	81663.0
0.435	81652.0
0.440	81621.0
0.445	81607.0
0.450	81596.0
0.455	81581.0
0.460	81597.0
0.465	81639.0
0.470	81679.9
0.475	81676.9
0.480	81685.9
0.485	81678.9
0.490	81661.9
0.495	81647.9
0.500	81633.9
0.505	81644.9
0.510	81641.9
0.515	81625.9
0.520	81594.9
0.525	81573.9
0.530	81594.9
0.535	81640.9
0.540	81654.8
0.545	81663.8
0.550	81654.8
0.555	81661.8
0.560	81661.8
0.565	81682.8
0.570	81674.8
0.575	81656.8
0.580	81652.7
0.585	81637.7
0.590	81599.8
0.595	81593.8
0.600	81600.7
0.605	81611.7
0.610	81605.7
0.615	81610.7
0.620	81598.7
0.625	81596.7
0.630	81606.7
0.635	81619.7
0.640	81616.7
0.645	81615.7
0.650	81603.7
0.655	81578.7
0.660	81564.7
0.665	81568.7
0.670	81599.7
0.675	81581.7
0.680	81563.7
0.685	81558.7
0.690	81561.7
0.695	81584.7
0.700	81594.7
0.705	81590.7
0.710	81596.7
0.715	81607.7
0.720	81590.7
0.725	81596.7
0.730	81597.7
0.735	81632.6
0.740	81635.6
0.745	81638.6
0.750	81632.6
0.755	81630.6
0.760	81623.6
0.765	81629.6
0.770	81632.6
0.775	81635.6
0.780	81620.6
0.785	81629.6
0.790	81594.6
0.795	81613.6
0.800	81615.6
0.805	81634.6
0.810	81629.5
0.815	81623.5
0.820	81609.5
0.825	81604.5
0.830	81591.5
0.835	81584.5
0.840	81565.5
0.845	81543.5
0.850	81542.5
0.855	81495.5
0.860	81475.5
0.865	81483.5
0.870	81497.5
0.875	81480.5
0.880	81466.5
0.885	81455.5
0.890	81432.5
0.895	81419.5
0.900	81394.5
0.905	81375.5
0.910	81362.5
0.915	81347.5
0.920	81316.6
0.925	81282.6
0.930	81278.6
0.935	81308.6
0.940	81307.6
0.945	81323.5
0.950	81319.5
0.955	81322.5
0.960	81317.5
0.965	81347.5
0.970	81362.5
0.975	81389.4
0.980	81401.4
0.985	81423.4
0.990	81418.4
0.995	81449.3
1.000	81469.3
1.005	81485.3
1.010	81451.3
1.015	81439.3
1.020	81435.3
1.025	81453.3
1.030	81457.3
1.035	81470.3
1.040	81488.3
1.045	81517.3
1.050	81525.2
1.055	81490.3
1.060	81493.3
1.065	81501.3
1.070	81541.3
1.075	81543.3
1.080	81547.2
1.085	81555.2
1.090	81560.2
1.095	81561.2
1.100	81568.2
1.105	81593.2
1.110	81589.2
1.115	81595.2
1.120	81567.2
1.125	81559.2
1.130	81559.2
1.135	81585.1
1.140	81573.1
1.145	81569.1
1.150	81562.1
1.155	81565.1
1.160	81568.1
1.165	81566.1
1.170	81570.1
1.175	81592.0
1.180	81596.0
1.185	81584.0
1.190	81557.0
1.195	81568.0
1.200	81587.0
1.205	81601.0
1.210	81607.0
1.215	81608.0
1.220	81603.0
1.225	81614.0
1.230	81622.0
1.235	81634.9
1.240	81637.9
1.245	81637.9
1.250	81636.9
1.255	81613.9
1.260	81614.9
1.265	81640.9
1.270	81669.9
1.275	81665.9
1.280	81673.9
1.285	81663.9
1.290	81663.9
1.295	81668.9
1.300	81651.9
1.305	81661.9
1.310	81667.9
1.315	81684.8
1.320	81651.9
1.325	81636.9
1.330	81644.9
1.335	81680.9
1.340	81683.9
1.345	81667.9
1.350	81676.9
1.355	81648.9
1.360	81656.9
1.365	81646.9
1.370	81637.9
1.375	81636.9
1.380	81632.9
1.385	81621.9
1.390	81584.9
1.395	81609.9
1.400	81630.8
1.405	81660.8
1.410	81645.8
1.415	81640.8
1.420	81627.8
1.425	81629.8
1.430	81620.8
1.435	81611.8
1.440	81598.8
1.445	81599.8
1.450	81594.8
1.455	81573.8
1.460	81581.8
1.465	81603.8
1.470	81622.8
1.475	81606.8
1.480	81594.8
1.485	81586.8
1.490	81584.8
1.495	81609.7
1.500	81622.7
1.505	81641.7
1.510	81623.7
1.515	81606.7
1.520	81574.7
1.525	81576.7
1.530	81588.7
1.535	81600.7
1.540	81573.7
1.545	81556.7
1.550	81562.7
1.555	81554.7
1.560	81544.7
1.565	81554.7
1.570	81536.7
1.575	81546.7
1.580	81552.7
1.585	81574.7
1.590	81552.7
1.595	81574.7
1.600	81609.7
1.605	81636.6
1.610	81627.6
1.615	81607.6
1.620	81588.6
1.625	81571.6
1.630	81579.6
1.635	81577.6
1.640	81587.6
1.645	81601.6
1.650	81587.6
1.655	81568.6
1.660	81574.6
1.665	81600.5
1.670	81602.5
1.675	81594.5
1.680	81593.6
1.685	81586.6
1.690	81575.6
1.695	81579.6
1.700	81559.6
1.705	81549.6
1.710	81557.6
1.715	81562.6
1.720	81548.6
1.725	81521.7
1.730	81546.6
1.735	81582.6
1.740	81576.6
1.745	81583.6
1.750	81580.6
1.755	81585.6
1.760	81575.6
1.765	81577.6
1.770	81571.6
1.775	81561.6
1.780	81576.6
1.785	81584.6
1.790	81590.6
1.795	81610.5
1.800	81623.5
1.805	81606.5
1.810	81578.5
1.815	81591.5
1.820	81598.5
1.825	81586.5
1.830	81575.5
1.835	81559.5
1.840	81550.5
1.845	81577.5
1.850	81582.5
1.855	81554.5
1.860	81546.5
1.865	81566.5
1.870	81585.5
1.875	81580.5
1.880	81575.5
1.885	81584.5
1.890	81584.5
1.895	81597.5
1.900	81605.5
1.905	81586.5
1.910	81563.5
1.915	81539.5
1.920	81489.6
1.925	81476.6
1.930	81476.6
1.935	81493.6
1.940	81472.6
1.945	81469.6
1.950	81451.6
1.955	81438.6
1.960	81433.6
1.965	81420.6
1.970	81422.6
1.975	81436.6
1.980	81444.6
1.985	81463.5
1.990	81452.5
1.995	81451.5
2.000	81481.5
2.005	81474.5
2.010	81472.5
2.015	81494.5
2.020	81488.5
2.025	81483.5
2.030	81453.5
2.035	81442.5
2.040	81442.5
2.045	81446.5
2.050	81437.5
2.055	81402.6
2.060	81404.6
2.065	81442.5
2.070	81442.5
2.075	81422.5
2.080	81384.6
2.085	81400.5
2.090	81402.5
2.095	81375.6
2.100	81375.6
2.105	81389.6
2.110	81403.6
2.115	81431.6
2.120	81422.6
2.125	81381.6
2.130	81386.6
2.135	81434.6
2.140	81410.6
2.145	81406.6
2.150	81399.6
2.155	81369.6
2.160	81356.7
2.165	81371.7
2.170	81386.6
2.175	81388.6
2.180	81402.6
2.185	81369.6
2.190	81349.6
2.195	81366.6
2.200	81394.6
2.205	81403.6
2.210	81388.6
2.215	81387.6
2.220	81369.6
2.225	81377.6
2.230	81363.6
2.235	81373.6
2.240	81362.6
2.245	81361.6
2.250	81345.7
2.255	81323.7
2.260	81344.7
2.265	81370.7
2.270	81397.6
2.275	81387.6
2.280	81390.6
2.285	81389.6
2.290	81397.6
2.295	81392.6
2.300	81380.6
2.305	81403.6
2.310	81395.6
2.315	81406.6
2.320	81367.6
2.325	81377.6
2.330	81397.6
2.335	81448.5
2.340	81437.5
2.345	81422.5
2.350	81416.5
2.355	81391.5
2.360	81373.6
2.365	81387.6
2.370	81384.6
2.375	81368.6
2.380	81355.6
2.385	81353.6
2.390	81358.6
2.395	81392.6
2.400	81417.6
2.405	81413.6
2.410	81413.6
2.415	81413.6
2.420	81394.7
2.425	81392.7
2.430	81368.7
2.435	81370.7
2.440	81378.7
2.445	81395.7
2.450	81393.7
2.455	81368.7
2.460	81385.7
2.465	81423.7
2.470	81443.7
2.475	81449.6
2.480	81450.6
2.485	81458.6
2.490	81462.6
2.495	81481.6
2.500	81454.7
2.505	81445.7
2.510	81406.7
2.515	81408.7
2.520	81354.7
2.525	81341.8
2.530	81362.8
2.535	81402.7
2.540	81399.7
2.545	81400.7
2.550	81396.7
2.555	81396.8
2.560	81392.8
2.565	81407.7
2.570	81401.7
2.575	81417.7
2.580	81392.8
2.585	81373.8
2.590	81343.8
2.595	81373.8
2.600	81418.7
2.605	81439.7
2.610	81441.7
2.615	81446.7
2.620	81428.7
2.625	81409.7
2.630	81399.7
2.635	81374.8
2.640	81365.8
2.645	81388.8
2.650	81402.8
2.655	81402.8
2.660	81409.8
2.665	81430.8
2.670	81432.8
2.675	81429.8
2.680	81417.8
2.685	81411.8
2.690	81404.8
2.695	81414.9
2.700	81429.9
2.705	81457.8
2.710	81468.8
2.715	81462.8
2.720	81422.9
2.725	81432.9
2.730	81469.8
2.735	81473.8
2.740	81444.9
2.745	81438.9
2.750	81406.9
2.755	81378.0
2.760	81385.0
2.765	81405.0
2.770	81428.0
2.775	81440.0
2.780	81422.0
2.785	81406.0
2.790	81375.1
2.795	81384.1
2.800	81384.1
2.805	81401.1
2.810	81430.0
2.815	81475.0
2.820	81502.0
2.825	81521.0
2.830	81503.0
2.835	81488.0
2.840	81482.0
2.845	81456.0
2.850	81428.0
2.855	81419.0
2.860	81442.0
2.865	81479.0
2.870	81472.0
2.875	81467.0
2.880	81459.0
2.885	81460.1
2.890	81458.1
2.895	81479.1
2.900	81482.1
2.905	81503.1
2.910	81510.1
2.915	81541.1
2.920	81499.1
2.925	81477.1
2.930	81449.2
2.935	81449.2
2.940	81427.2
2.945	81435.2
2.950	81436.2
2.955	81435.2
2.960	81444.2
2.965	81459.2
2.970	81448.2
2.975	81431.3
2.980	81417.3
2.985	81395.3
2.990	81391.3
2.995	81425.3
3.000	81442.3
3.005	81419.3
3.010	81404.4
3.015	81406.4
3.020	81394.4
3.025	81395.4
3.030	81372.4
3.035	81371.4
3.040	81371.4
3.045	81396.4
3.050	81416.4
3.055	81414.4
3.060	81453.4
3.065	81505.4
3.070	81500.4
3.075	81470.4
3.080	81468.4
3.085	81467.4
3.090	81474.4
3.095	81486.4
3.100	81502.4
3.105	81516.4
3.110	81534.4
3.115	81539.4
3.120	81501.5
3.125	81490.5
3.130	81508.5
3.135	81511.5
3.140	81502.5
3.145	81495.5
3.150	81512.5
3.155	81535.5
3.160	81520.5
3.165	81529.5
3.170	81529.5
3.175	81523.5
3.180	81512.6
3.185	81494.6
3.190	81482.6
3.195	81503.6
3.200	81535.6
3.205	81539.6
3.210	81542.6
3.215	81573.6
3.220	81584.6
3.225	81588.6
3.230	81558.7
3.235	81547.7
3.240	81533.7
3.245	81541.7
3.250	81554.7
3.255	81540.7
3.260	81554.7
3.265	81577.7
3.270	81577.7
3.275	81550.7
3.280	81537.7
3.285	81540.7
3.290	81532.7
3.295	81541.7
3.300	81560.6
3.305	81583.6
3.310	81577.6
3.315	81561.6
3.320	81506.6
3.325	81506.5
3.330	81559.5
3.335	81616.4
3.340	81610.4
3.345	81560.4
3.350	81482.5
3.355	81428.6
3.360	81444.6
3.365	81528.6
3.370	81591.6
3.375	81585.7
3.380	81541.8
3.385	81544.9
3.390	81547.1
3.395	81533.2
3.400	81520.4
3.405	81585.5
3.410	81663.5
3.415	81693.5
3.420	81652.6
3.425	81639.6
3.430	81627.6
3.435	81635.6
3.440	81637.5
3.445	81623.5
3.450	81611.5
3.455	81582.6
3.460	81610.5
3.465	81642.5
3.470	81642.6
3.475	81656.6
3.480	81656.6
3.485	81658.6
3.490	81639.7
3.495	81645.8
3.500	81647.8
3.505	81659.9
3.510	81662.9
3.515	81691.0
3.520	81669.1
3.525	81671.1
3.530	81700.2
3.535	81704.3
3.540	81706.3
3.545	81696.4
3.550	81696.5
3.555	81689.5
3.560	81693.6
3.565	81693.6
3.570	81684.7
3.575	81679.7
3.580	81672.7
3.585	81648.8
3.590	81623.8
3.595	81635.9
3.600	81655.9
3.605	81662.9
3.610	81658.9
3.615	81656.9
3.620	81640.9
3.625	81638.0
3.630	81645.0
3.635	81647.0
3.640	81633.0
3.645	81605.0
3.650	81570.1
3.655	81567.1
3.660	81625.1
3.665	81682.0
3.670	81691.0
3.675	81698.0
3.680	81680.1
3.685	81681.1
3.690	81668.1
3.695	81664.1
3.700	81644.2
3.705	81659.2
3.710	81665.2
3.715	81660.2
3.720	81634.2
3.725	81623.3
3.730	81648.3
3.735	81659.3
3.740	81670.3
3.745	81680.3
3.750	81688.3
3.755	81697.3
3.760	81700.4
3.765	81716.4
3.770	81713.4
3.775	81717.4
3.780	81711.4
3.785	81697.5
3.790	81696.5
3.795	81734.5
3.800	81749.5
3.805	81757.5
3.810	81757.6
3.815	81761.6
3.820	81752.6
3.825	81762.7
3.830	81752.7
3.835	81752.7
3.840	81754.8
3.845	81768.8
3.850	81747.8
3.855	81734.9
3.860	81732.9
3.865	81741.0
3.870	81728.0
3.875	81747.0
3.880	81744.1
3.885	81744.1
3.890	81719.2
3.895	81708.2
3.900	81692.3
3.905	81698.3
3.910	81700.4
3.915	81689.5
3.920	81654.5
3.925	81646.6
3.930	81658.7
3.935	81647.7
3.940	81625.8
3.945	81611.9
3.950	81573.0
3.955	81547.1
3.960	81534.2
3.965	81491.4
3.970	81473.5
3.975	81390.7
3.980	80998.1
3.985	80617.5
3.990	80738.6
3.995	81160.5
4.000	81475.6
4.005	81587.8
4.010	81591.0
4.015	81408.5
4.020	81132.0
4.025	81054.4
4.030	81159.6
4.035	81228.7
4.040	81198.0
4.045	81116.1
4.050	81081.2
4.055	81081.2
4.060	81054.0
4.065	81010.8
4.070	80952.5
4.075	80964.0
4.080	80999.4
4.085	81043.5
4.090	81104.6
4.095	81190.6
4.100	81276.7
4.105	81351.8
4.110	81391.2
4.115	81424.7
4.120	81405.4
4.125	81426.2
4.130	81451.1
4.135	81467.0
4.140	81449.9
4.145	81452.9
4.150	81444.9
4.155	81447.9
4.160	81436.9
4.165	81448.8
4.170	81459.8
4.175	81461.8
4.180	81470.8
4.185	81437.8
4.190	81427.8
4.195	81432.8
4.200	81418.8
4.205	81396.8
4.210	81389.8
4.215	81396.8
4.220	81398.8
4.225	81421.8
4.230	81430.8
4.235	81425.8
4.240	81426.8
4.245	81439.8
4.250	81431.8
4.255	81412.8
4.260	81444.8
4.265	81470.8
4.270	81476.7
4.275	81482.7
4.280	81475.7
4.285	81465.7
4.290	81463.7
4.295	81475.7
4.300	81465.7
4.305	81468.7
4.310	81461.7
4.315	81461.7
4.320	81428.7
4.325	81445.7
4.330	81474.7
4.335	81491.7
4.340	81490.7
4.345	81485.7
4.350	81473.7
4.355	81467.7
4.360	81468.7
4.365	81468.7
4.370	81457.7
4.375	81467.7
4.380	81473.6
4.385	81459.7
4.390	81457.6
4.395	81478.6
4.400	81508.6
4.405	81501.6
4.410	81502.6
4.415	81507.6
4.420	81507.6
4.425	81496.6
4.430	81487.6
4.435	81477.6
4.440	81471.6
4.445	81479.6
4.450	81473.6
4.455	81459.6
4.460	81465.6
4.465	81471.6
4.470	81475.6
4.475	81473.6
4.480	81455.6
4.485	81447.6
4.490	81447.6
4.495	81463.6
4.500	81455.6
4.505	81462.5
4.510	81456.5
4.515	81457.5
4.520	81399.6
4.525	81384.6
4.530	81398.6
4.535	81424.5
4.540	81419.5
4.545	81416.5
4.550	81406.5
4.555	81396.5
4.560	81379.5
4.565	81362.6
4.570	81363.5
4.575	81348.6
4.580	81336.6
4.585	81313.6
4.590	81299.6
4.595	81320.6
4.600	81340.6
4.605	81352.5
4.610	81335.6
4.615	81328.6
4.620	81331.5
4.625	81356.5
4.630	81389.5
4.635	81391.5
4.640	81384.5
4.645	81368.5
4.650	81339.5
4.655	81326.5
4.660	81331.5
4.665	81351.4
4.670	81346.4
4.675	81366.4
4.680	81351.4
4.685	81351.4
4.690	81361.4
4.695	81366.4
4.700	81369.4
4.705	81364.4
4.710	81354.4
4.715	81355.4
4.720	81322.4
4.725	81340.4
4.730	81370.4
4.735	81368.4
4.740	81346.4
4.745	81361.4
4.750	81361.4
4.755	81386.3
4.760	81377.3
4.765	81378.3
4.770	81373.3
4.775	81363.3
4.780	81345.3
4.785	81312.3
4.790	81289.3
4.795	81308.3
4.800	81326.3
4.805	81349.2
4.810	81363.2
4.815	81376.2
4.820	81386.2
4.825	81386.2
4.830	81392.2
4.835	81387.2
4.840	81373.2
4.845	81382.1
4.850	81354.1
4.855	81342.1
4.860	81356.1
4.865	81381.1
4.870	81377.1
4.875	81394.1
4.880	81399.1
4.885	81389.1
4.890	81384.1
4.895	81366.1
4.900	81359.1
4.905	81347.1
4.910	81346.1
4.915	81342.1
4.920	81327.1
4.925	81343.0
4.930	81360.0
4.935	81381.0
4.940	81365.0
4.945	81377.0
4.950	81366.0
4.955	81373.9
4.960	81356.9
4.965	81359.9
4.970	81375.9
4.975	81378.9
4.980	81371.9
4.985	81348.9
4.990	81343.8
4.995	81355.8
5.000	81357.8
5.005	81340.8
5.010	81324.8
5.015	81325.8
5.020	81305.8
5.025	81313.7
5.030	81303.7
5.035	81324.7
5.040	81340.7
5.045	81362.6
5.050	81376.6
5.055	81348.6
5.060	81350.6
5.065	81358.5
5.070	81355.5
5.075	81339.5
5.080	81308.5
5.085	81301.5
5.090	81296.5
5.095	81301.5
5.100	81304.5
5.105	81297.4
5.110	81322.4
5.115	81364.3
5.120	81332.3
5.125	81323.3
5.130	81330.3
5.135	81336.2
5.140	81329.2
5.145	81358.2
5.150	81355.1
5.155	81342.1
5.160	81364.0
5.165	81402.0
5.170	81398.9
5.175	81390.9
5.180	81360.9
5.185	81336.8
5.190	81342.8
5.195	81355.7
5.200	81358.7
5.205	81363.6
5.210	81362.6
5.215	81352.5
5.220	81337.4
5.225	81344.4
5.230	81344.3
5.235	81345.2
5.240	81341.2
5.245	81320.1
5.250	81300.0
5.255	81266.0
5.260	81282.9
5.265	81302.8
5.270	81279.7
5.275	81271.5
5.280	81254.4
5.285	81249.3
5.290	81217.1
5.295	81182.0
5.300	81122.8
5.305	81069.6
5.310	80991.3
5.315	80902.1
5.320	80804.9
5.325	80726.7
5.330	80613.6
5.335	80521.5
5.340	80436.5
5.345	80365.5
5.350	80342.6
5.355	80333.7
5.360	80297.9
5.365	80307.3
5.370	80354.8
5.375	80373.3
5.380	80378.9
5.385	80453.7
5.390	80641.6
5.395	80913.4
5.400	81191.0
5.405	81379.3
5.410	81478.6
5.415	81537.7
5.420	81559.7
5.425	81572.8
5.430	81582.8
5.435	81599.8
5.440	81585.8
5.445	81585.8
5.450	81564.8
5.455	81551.8
5.460	81548.8
5.465	81570.8
5.470	81567.8
5.475	81575.8
5.480	81576.8
5.485	81567.8
5.490	81578.8
5.495	81575.8
5.500	81577.8
5.505	81574.8
5.510	81577.8
5.515	81571.8
5.520	81549.8
5.525	81568.8
5.530	81590.8
5.535	81582.8
5.540	81582.8
5.545	81579.8
5.550	81582.8
5.555	81588.8
5.560	81594.8
5.565	81590.8
5.570	81601.8
5.575	81592.8
5.580	81594.8
5.585	81586.8
5.590	81578.8
5.595	81604.8
5.600	81609.7
5.605	81615.7
5.610	81609.8
5.615	81612.7
5.620	81614.8
5.625	81631.7
5.630	81629.8
5.635	81642.8
5.640	81644.8
5.645	81640.8
5.650	81619.8
5.655	81622.8
5.660	81641.8
5.665	81668.8
5.670	81673.8
5.675	81666.9
5.680	81652.9
5.685	81652.9
5.690	81645.9
5.695	81648.9
5.700	81665.9
5.705	81663.9
5.710	81654.9
5.715	81639.9
5.720	81610.9
5.725	81617.9
5.730	81652.8
5.735	81657.8
5.740	81655.8
5.745	81661.8
5.750	81650.8
5.755	81657.8
5.760	81656.8
5.765	81654.8
5.770	81647.8
5.775	81643.8
5.780	81628.8
5.785	81597.8
5.790	81601.8
5.795	81625.8
5.800	81633.8
5.805	81639.8
5.810	81642.7
5.815	81634.8
5.820	81625.8
5.825	81634.8
5.830	81636.8
5.835	81642.7
5.840	81636.8
5.845	81643.7
5.850	81617.8
5.855	81604.8
5.860	81618.8
5.865	81655.7
5.870	81646.7
5.875	81654.7
5.880	81652.7
5.885	81650.7
5.890	81655.7
5.895	81665.7
5.900	81658.7
5.905	81654.7
5.910	81648.7
5.915	81634.8
5.920	81618.8
5.925	81627.8
5.930	81641.8
5.935	81642.8
5.940	81626.8
5.945	81626.8
5.950	81623.8
5.955	81624.8
5.960	81623.8
5.965	81625.8
5.970	81618.8
5.975	81619.8
5.980	81620.8
5.985	81589.8
5.990	81591.8
5.995	81610.8
6.000	81618.8
6.005	81615.8
6.010	81617.8
6.015	81614.8
6.020	81615.8
6.025	81626.8
6.030	81616.8
6.035	81626.8
6.040	81622.8
6.045	81631.8
6.050	81595.8
6.055	81592.8
6.060	81604.8
6.065	81618.8
6.070	81610.8
6.075	81600.8
6.080	81593.8
6.085	81598.8
6.090	81587.8
6.095	81587.8
6.100	81594.8
6.105	81601.8
6.110	81594.8
6.115	81588.8
6.120	81564.8
6.125	81566.8
6.130	81592.8
6.135	81593.8
6.140	81594.8
6.145	81592.8
6.150	81598.8
6.155	81587.8
6.160	81589.8
6.165	81580.8
6.170	81581.8
6.175	81582.8
6.180	81581.8
6.185	81551.9
6.190	81553.9
6.195	81565.8
6.200	81573.8
6.205	81576.8
6.210	81557.8
6.215	81556.8
6.220	81565.8
6.225	81567.8
6.230	81563.8
6.235	81574.8
6.240	81573.8
6.245	81582.8
6.250	81557.8
6.255	81537.9
6.260	81543.9
6.265	81565.8
6.270	81571.8
6.275	81581.8
6.280	81585.8
6.285	81588.8
6.290	81577.8
6.295	81577.8
6.300	81575.8
6.305	81589.8
6.310	81577.8
6.315	81569.8
6.320	81545.9
6.325	81567.8
6.330	81585.8
6.335	81597.8
6.340	81584.8
6.345	81592.8
6.350	81589.8
6.355	81595.8
6.360	81594.8
6.365	81598.8
6.370	81604.8
6.375	81614.8
6.380	81602.8
6.385	81585.8
6.390	81576.8
6.395	81588.8
6.400	81590.8
6.405	81575.8
6.410	81572.8
6.415	81560.9
6.420	81555.9
6.425	81550.9
6.430	81554.9
6.435	81552.9
6.440	81543.9
6.445	81545.9
6.450	81512.9
6.455	81515.9
6.460	81525.9
6.465	81560.9
6.470	81551.9
6.475	81566.9
6.480	81572.9
6.485	81591.8
6.490	81604.8
6.495	81619.8
6.500	81635.8
6.505	81647.8
6.510	81659.8
6.515	81652.8
6.520	81634.8
6.525	81660.8
6.530	81682.8
6.535	81695.8
6.540	81704.8
6.545	81711.8
6.550	81716.8
6.555	81722.7
6.560	81724.7
6.565	81724.7
6.570	81724.7
6.575	81726.7
6.580	81723.7
6.585	81704.8
6.590	81711.8
6.595	81739.7
6.600	81740.7
6.605	81732.7
6.610	81735.7
6.615	81731.7
6.620	81719.8
6.625	81730.8
6.630	81732.7
6.635	81733.7
6.640	81729.8
6.645	81734.8
6.650	81701.8
6.655	81683.8
6.660	81708.8
6.665	81723.8
6.670	81720.8
6.675	81723.8
6.680	81714.8
6.685	81725.8
6.690	81727.8
6.695	81734.8
6.700	81720.8
6.705	81731.8
6.710	81737.8
6.715	81727.8
6.720	81703.8
6.725	81732.8
6.730	81755.7
6.735	81753.7
6.740	81741.8
6.745	81753.7
6.750	81745.8
6.755	81765.7
6.760	81767.7
6.765	81769.7
6.770	81776.7
6.775	81783.7
6.780	81779.7
6.785	81749.8
6.790	81760.7
6.795	81770.7
6.800	81790.7
6.805	81800.7
6.810	81794.7
6.815	81796.7
6.820	81792.7
6.825	81804.7
6.830	81795.7
6.835	81800.7
6.840	81799.7
6.845	81807.7
6.850	81767.7
6.855	81761.7
6.860	81784.7
6.865	81797.7
6.870	81793.7
6.875	81791.7
6.880	81785.7
6.885	81787.7
6.890	81784.7
6.895	81788.7
6.900	81779.7
6.905	81792.7
6.910	81786.7
6.915	81766.7
6.920	81730.8
6.925	81744.8
6.930	81771.7
6.935	81771.7
6.940	81775.7
6.945	81781.7
6.950	81780.7
6.955	81782.7
6.960	81773.7
6.965	81784.7
6.970	81795.7
6.975	81801.7
6.980	81787.7
6.985	81762.7
6.990	81761.7
6.995	81787.7
7.000	81786.7
7.005	81775.7
7.010	81772.7
7.015	81770.7
7.020	81768.7
7.025	81771.7
7.030	81763.8
7.035	81760.8
7.040	81761.8
7.045	81754.8
7.050	81712.8
7.055	81716.8
7.060	81732.8
7.065	81741.8
7.070	81736.8
7.075	81733.8
7.080	81736.8
7.085	81744.8
7.090	81740.8
7.095	81738.8
7.100	81734.8
7.105	81739.8
7.110	81726.8
7.115	81716.8
7.120	81695.8
7.125	81718.8
7.130	81729.8
7.135	81725.8
7.140	81718.8
7.145	81713.8
7.150	81709.8
7.155	81714.8
7.160	81711.8
7.165	81709.8
7.170	81701.8
7.175	81713.8
7.180	81692.8
7.185	81664.8
7.190	81664.8
7.195	81690.8
7.200	81683.8
7.205	81690.8
7.210	81684.8
7.215	81686.8
7.220	81680.8
7.225	81691.8
7.230	81686.8
7.235	81679.8
7.240	81685.8
7.245	81679.8
7.250	81633.9
7.255	81639.9
7.260	81653.9
7.265	81665.9
7.270	81668.8
7.275	81657.9
7.280	81655.9
7.285	81672.8
7.290	81668.8
7.295	81667.9
7.300	81670.9
7.305	81677.9
7.310	81667.9
7.315	81640.9
7.320	81631.9
7.325	81648.9
7.330	81667.9
7.335	81659.9
7.340	81663.9
7.345	81659.9
7.350	81661.9
7.355	81666.9
7.360	81660.9
7.365	81666.9
7.370	81658.9
7.375	81658.9
7.380	81653.9
7.385	81625.9
7.390	81628.9
7.395	81657.9
7.400	81658.9
7.405	81651.9
7.410	81640.9
7.415	81649.9
7.420	81638.9
7.425	81651.9
7.430	81658.9
7.435	81656.9
7.440	81648.9
7.445	81646.9
7.450	81627.9
7.455	81624.9
7.460	81635.9
7.465	81659.9
7.470	81656.9
7.475	81662.9
7.480	81667.9
7.485	81674.9
7.490	81669.9
7.495	81667.9
7.500	81675.9
7.505	81673.9
7.510	81675.9
7.515	81653.9
7.520	81646.9
7.525	81659.9
7.530	81673.9
7.535	81679.9
7.540	81670.9
7.545	81675.9
7.550	81681.9
7.555	81686.9
7.560	81667.9
7.565	81670.9
7.570	81675.9
7.575	81680.9
7.580	81682.9
7.585	81659.9
7.590	81658.9
7.595	81695.9
7.600	81690.9
7.605	81700.9
7.610	81694.9
7.615	81689.9
7.620	81694.9
7.625	81699.9
7.630	81701.9
7.635	81710.9
7.640	81703.9
7.645	81710.9
7.650	81674.9
7.655	81682.9
7.660	81692.9
7.665	81700.9
7.670	81687.9
7.675	81689.9
7.680	81692.9
7.685	81685.9
7.690	81700.9
7.695	81702.9
7.700	81700.9
7.705	81700.9
7.710	81697.9
7.715	81689.9
7.720	81673.9
7.725	81695.9
7.730	81713.9
7.735	81715.9
7.740	81705.9
7.745	81711.9
7.750	81700.9
7.755	81710.9
7.760	81708.9
7.765	81717.9
7.770	81708.9
7.775	81714.9
7.780	81680.9
7.785	81663.9
7.790	81680.9
7.795	81704.9
7.800	81691.9
7.805	81696.9
7.810	81688.9
7.815	81696.9
7.820	81688.9
7.825	81704.9
7.830	81698.9
7.835	81697.9
7.840	81692.9
7.845	81692.9
7.850	81654.0
7.855	81665.0
7.860	81670.9
7.865	81696.9
7.870	81691.9
7.875	81692.9
7.880	81688.9
7.885	81694.9
7.890	81679.0
7.895	81687.9
7.900	81688.9
7.905	81692.9
7.910	81691.9
7.915	81671.0
7.920	81657.0
7.925	81684.0
7.930	81701.9
7.935	81708.9
7.940	81707.9
7.945	81711.9
7.950	81705.9
7.955	81704.9
7.960	81702.9
7.965	81714.9
7.970	81713.9
7.975	81719.9
7.980	81699.0
7.985	81686.0
7.990	81696.0
7.995	81715.9
8.000	81715.0
8.005	81721.9
8.010	81728.9
8.015	81724.9
8.020	81727.9
8.025	81741.9
8.030	81735.9
8.035	81734.9
8.040	81720.0
8.045	81721.0
8.050	81685.0
8.055	81699.0
8.060	81711.0
8.065	81727.0
8.070	81721.0
8.075	81727.0
8.080	81722.0
8.085	81728.0
8.090	81723.0
8.095	81730.0
8.100	81725.0
8.105	81724.0
8.110	81730.0
8.115	81704.0
8.120	81698.0
8.125	81707.0
8.130	81733.0
8.135	81731.0
8.140	81741.0
8.145	81746.0
8.150	81739.0
8.155	81740.0
8.160	81740.0
8.165	81744.0
8.170	81743.0
8.175	81732.0
8.180	81706.0
8.185	81675.0
8.190	81642.1
8.195	81620.1
8.200	81550.1
8.205	81478.2
8.210	81428.2
8.215	81380.3
8.220	81355.3
8.225	81391.3
8.230	81446.2
8.235	81557.1
8.240	81632.1
8.245	81673.1
8.250	81659.1
8.255	81675.1
8.260	81703.0
8.265	81721.0
8.270	81721.0
8.275	81715.0
8.280	81707.0
8.285	81715.0
8.290	81712.0
8.295	81712.0
8.300	81707.1
8.305	81705.1
8.310	81697.1
8.315	81663.1
8.320	81655.1
8.325	81691.1
8.330	81712.1
8.335	81715.1
8.340	81704.1
8.345	81705.1
8.350	81697.1
8.355	81685.1
8.360	81675.1
8.365	81668.1
8.370	81667.1
8.375	81686.1
8.380	81662.1
8.385	81656.1
8.390	81667.1
8.395	81691.1
8.400	81702.1
8.405	81707.1
8.410	81696.1
8.415	81701.1
8.420	81706.1
8.425	81706.1
8.430	81691.1
8.435	81700.1
8.440	81689.1
8.445	81677.1
8.450	81640.2
8.455	81632.2
8.460	81641.2
8.465	81644.2
8.470	81662.2
8.475	81686.1
8.480	81684.1
8.485	81691.1
8.490	81696.1
8.495	81688.2
8.500	81691.2
8.505	81702.1
8.510	81691.2
8.515	81667.2
8.520	81646.2
8.525	81670.2
8.530	81695.2
8.535	81695.2
8.540	81684.2
8.545	81692.2
8.550	81693.2
8.555	81689.2
8.560	81684.2
8.565	81687.2
8.570	81683.2
8.575	81676.2
8.580	81652.2
8.585	81641.2
8.590	81657.2
8.595	81678.2
8.600	81671.2
8.605	81660.2
8.610	81647.2
8.615	81656.2
8.620	81643.3
8.625	81643.3
8.630	81636.3
8.635	81643.3
8.640	81636.3
8.645	81635.3
8.650	81597.3
8.655	81602.3
8.660	81618.3
8.665	81625.3
8.670	81632.3
8.675	81629.3
8.680	81620.3
8.685	81626.3
8.690	81611.3
8.695	81596.3
8.700	81598.3
8.705	81604.3
8.710	81576.4
8.715	81523.4
8.720	81525.4
8.725	81557.4
8.730	81555.4
8.735	81572.4
8.740	81566.4
8.745	81586.4
8.750	81601.4
8.755	81588.4
8.760	81585.4
8.765	81588.4
8.770	81581.4
8.775	81577.4
8.780	81552.4
8.785	81513.5
8.790	81455.5
8.795	81424.6
8.800	81465.5
8.805	81545.5
8.810	81571.5
8.815	81573.5
8.820	81570.5
8.825	81571.5
8.830	81560.5
8.835	81548.5
8.840	81531.5
8.845	81540.5
8.850	81532.5
8.855	81527.5
8.860	81401.6
8.865	81202.8
8.870	81237.8
8.875	81475.6
8.880	81558.5
8.885	81573.5
8.890	81562.6
8.895	81570.6
8.900	81572.6
8.905	81579.6
8.910	81573.6
8.915	81533.6
8.920	81534.6
8.925	81562.6
8.930	81578.6
8.935	81572.6
8.940	81567.6
8.945	81561.6
8.950	81573.6
8.955	81569.6
8.960	81566.7
8.965	81577.7
8.970	81589.7
8.975	81595.7
8.980	81562.7
8.985	81548.7
8.990	81555.7
8.995	81573.7
9.000	81562.7
9.005	81563.7
9.010	81554.7
9.015	81552.8
9.020	81551.8
9.025	81555.8
9.030	81558.8
9.035	81550.8
9.040	81558.8
9.045	81554.8
9.050	81524.9
9.055	81534.9
9.060	81545.9
9.065	81553.9
9.070	81554.9
9.075	81548.9
9.080	81546.9
9.085	81548.9
9.090	81549.9
9.095	81561.9
9.100	81536.0
9.105	81538.0
9.110	81515.0
9.115	81335.2
9.120	81195.3
9.125	81304.2
9.130	81445.1
9.135	81524.1
9.140	81518.1
9.145	81537.1
9.150	81540.1
9.155	81555.1
9.160	81555.1
9.165	81579.1
9.170	81594.2
9.175	81585.2
9.180	81559.2
9.185	81549.3
9.190	81564.3
9.195	81593.3
9.200	81595.3
9.205	81603.3
9.210	81609.3
9.215	81613.4
9.220	81614.4
9.225	81632.4
9.230	81643.4
9.235	81641.5
9.240	81641.5
9.245	81613.6
9.250	81601.6
9.255	81612.6
9.260	81634.7
9.265	81638.7
9.270	81620.8
9.275	81612.8
9.280	81622.8
9.285	81615.9
9.290	81595.0
9.295	81600.0
9.300	81586.1
9.305	81577.2
9.310	81541.3
9.315	81483.4
9.320	81422.5
9.325	81364.7
9.330	81268.8
9.335	81250.0
9.340	81107.2
9.345	81058.5
9.350	81107.6
9.355	80936.0
9.360	80515.6
9.365	80091.1
9.370	79957.3
9.375	80211.4
9.380	80582.3
9.385	80830.3
9.390	80889.4
9.395	80844.4
9.400	80772.4
9.405	80774.2
9.410	80863.8
9.415	80982.4
9.420	81064.9
9.425	81152.2
9.430	81220.4
9.435	81285.6
9.440	81344.8
9.445	81385.3
9.450	81389.0
9.455	81420.8
9.460	81469.6
9.465	81483.6
9.470	81483.5
9.475	81486.5
9.480	81487.5
9.485	81496.5
9.490	81507.5
9.495	81504.5
9.500	81500.5
9.505	81504.5
9.510	81480.5
9.515	81464.5
9.520	81467.5
9.525	81488.5
9.530	81496.5
9.535	81494.5
9.540	81477.5
9.545	81493.5
9.550	81488.5
9.555	81485.5
9.560	81484.5
9.565	81495.5
9.570	81487.5
9.575	81496.5
9.580	81469.5
9.585	81471.5
9.590	81482.5
9.595	81513.5
9.600	81502.5
9.605	81508.5
9.610	81500.5
9.615	81506.5
9.620	81511.5
9.625	81516.5
9.630	81509.5
9.635	81507.5
9.640	81509.5
9.645	81498.5
9.650	81473.5
9.655	81494.5
9.660	81512.5
9.665	81513.5
9.670	81505.5
9.675	81505.5
9.680	81499.5
9.685	81510.5
9.690	81509.5
9.695	81508.5
9.700	81508.5
9.705	81521.5
9.710	81510.5
9.715	81482.5
9.720	81484.5
9.725	81513.5
9.730	81523.5
9.735	81514.5
9.740	81507.5
9.745	81503.5
9.750	81512.5
9.755	81518.5
9.760	81506.5
9.765	81512.5
9.770	81510.5
9.775	81512.5
9.780	81482.5
9.785	81484.5
9.790	81504.5
9.795	81517.5
9.800	81503.5
9.805	81500.5
9.810	81484.5
9.815	81478.5
9.820	81470.5
9.825	81477.5
9.830	81475.5
9.835	81475.5
9.840	81469.5
9.845	81453.5
9.850	81428.5
9.855	81431.5
9.860	81454.5
9.865	81449.5
9.870	81440.5
9.875	81452.5
9.880	81446.5
9.885	81438.5
9.890	81431.5
9.895	81440.5
9.900	81429.5
9.905	81435.5
9.910	81419.5
9.915	81394.5
9.920	81395.5
9.925	81418.5
9.930	81430.5
9.935	81414.5
9.940	81401.5
9.945	81392.5
9.950	81385.5
9.955	81373.6
9.960	81382.6
9.965	81392.5
9.970	81391.5
9.975	81387.5
9.980	81353.6
9.985	81352.6
9.990	81341.6
9.995	81375.6
10.000	81354.6
10.005	81372.6
10.010	81341.6
10.015	81353.6
10.020	81352.6
10.025	81359.6
10.030	81351.6
10.035	81356.6
10.040	81347.6
10.045	81320.6
10.050	81298.6
10.055	81322.6
10.060	81341.6
10.065	81341.6
10.070	81327.6
10.075	81326.6
10.080	81310.6
10.085	81314.6
10.090	81308.6
10.095	81310.6
10.100	81298.6
10.105	81307.6
10.110	81299.6
10.115	81267.6
10.120	81268.6
10.125	81285.6
10.130	81300.6
10.135	81299.6
10.140	81292.6
10.145	81297.6
10.150	81301.6
10.155	81306.6
10.160	81302.6
10.165	81308.6
10.170	81296.6
10.175	81287.6
10.180	81252.6
10.185	81253.6
10.190	81263.6
10.195	81298.6
10.200	81292.6
10.205	81292.6
10.210	81288.6
10.215	81287.6
10.220	81289.6
10.225	81293.6
10.230	81296.6
10.235	81307.6
10.240	81307.6
10.245	81288.6
10.250	81267.6
10.255	81282.6
10.260	81316.6
10.265	81332.6
10.270	81327.6
10.275	81336.6
10.280	81336.6
10.285	81342.6
10.290	81347.6
10.295	81362.6
10.300	81361.6
10.305	81369.5
10.310	81363.6
10.315	81327.6
10.320	81325.6
10.325	81356.6
10.330	81369.5
10.335	81361.6
10.340	81362.6
10.345	81369.6
10.350	81374.5
10.355	81370.5
10.360	81371.5
10.365	81380.5
10.370	81379.5
10.375	81384.5
10.380	81362.6
10.385	81364.5
10.390	81383.5
10.395	81414.5
10.400	81408.5
10.405	81414.5
10.410	81408.5
10.415	81415.5
10.420	81406.5
10.425	81412.5
10.430	81413.5
10.435	81416.5
10.440	81399.5
10.445	81393.5
10.450	81373.5
10.455	81391.5
10.460	81406.5
10.465	81420.5
10.470	81419.5
10.475	81424.5
10.480	81420.5
10.485	81436.5
10.490	81425.5
10.495	81439.5
10.500	81446.5
10.505	81462.5
10.510	81440.5
10.515	81422.5
10.520	81422.5
10.525	81445.5
10.530	81451.5
10.535	81449.5
10.540	81445.5
10.545	81448.5
10.550	81451.5
10.555	81465.5
10.560	81466.5
10.565	81470.5
10.570	81475.5
10.575	81462.5
10.580	81438.5
10.585	81448.5
10.590	81463.5
10.595	81473.5
10.600	81467.5
10.605	81458.5
10.610	81454.5
10.615	81452.5
10.620	81435.5
10.625	81440.5
10.630	81445.5
10.635	81457.5
10.640	81453.5
10.645	81448.5
10.650	81433.5
10.655	81443.5
10.660	81471.5
10.665	81466.5
10.670	81454.5
10.675	81455.5
10.680	81446.5
10.685	81448.5
10.690	81454.5
10.695	81452.5
10.700	81453.5
10.705	81453.5
10.710	81439.5
10.715	81423.5
10.720	81424.5
10.725	81439.5
10.730	81438.5
10.735	81436.5
10.740	81428.5
10.745	81431.5
10.750	81433.5
10.755	81427.5
10.760	81415.5
10.765	81421.5
10.770	81425.5
10.775	81424.5
10.780	81391.5
10.785	81378.5
10.790	81385.5
10.795	81404.5
10.800	81393.5
10.805	81408.5
10.810	81402.5
10.815	81402.5
10.820	81405.5
10.825	81415.5
10.830	81407.5
10.835	81422.5
10.840	81436.5
10.845	81424.5
10.850	81423.5
10.855	81441.5
10.860	81462.5
10.865	81457.5
10.870	81440.5
10.875	81442.5
10.880	81448.5
10.885	81456.5
10.890	81437.5
10.895	81450.5
10.900	81449.5
10.905	81460.5
10.910	81440.5
10.915	81417.5
10.920	81424.5
10.925	81437.5
10.930	81439.5
10.935	81444.5
10.940	81438.5
10.945	81436.5
10.950	81441.5
10.955	81429.5
10.960	81429.5
10.965	81439.5
10.970	81438.5
10.975	81424.5
10.980	81387.5
10.985	81399.5
10.990	81415.5
10.995	81427.5
11.000	81423.5
11.005	81416.5
11.010	81426.5
11.015	81422.5
11.020	81424.5
11.025	81418.5
11.030	81421.5
11.035	81417.5
11.040	81419.5
11.045	81402.5
11.050	81388.5
11.055	81400.5
11.060	81417.5
11.065	81409.5
11.070	81401.5
11.075	81399.5
11.080	81403.5
11.085	81401.5
11.090	81400.5
11.095	81400.5
11.100	81390.5
11.105	81388.5
11.110	81361.5
11.115	81341.5
11.120	81340.5
11.125	81370.5
11.130	81365.5
11.135	81350.5
11.140	81341.5
11.145	81342.5
11.150	81346.5
11.155	81350.5
11.160	81350.5
11.165	81343.5
11.170	81338.5
11.175	81337.5
11.180	81313.6
11.185	81320.6
11.190	81330.5
11.195	81347.5
11.200	81338.5
11.205	81343.5
11.210	81334.5
11.215	81338.5
11.220	81338.5
11.225	81348.5
11.230	81345.5
11.235	81339.5
11.240	81325.5
11.245	81300.6
11.250	81298.6
11.255	81316.6
11.260	81325.5
11.265	81333.5
11.270	81322.6
11.275	81312.6
11.280	81306.6
11.285	81318.6
11.290	81327.5
11.295	81320.5
11.300	81318.6
11.305	81331.5
11.310	81306.6
11.315	81289.6
11.320	81290.6
11.325	81329.5
11.330	81331.5
11.335	81325.5
11.340	81320.5
11.345	81324.5
11.350	81323.5
11.355	81339.5
11.360	81335.5
11.365	81335.5
11.370	81324.5
11.375	81336.5
11.380	81298.6
11.385	81306.6
11.390	81331.5
11.395	81338.5
11.400	81331.5
11.405	81329.5
11.410	81332.5
11.415	81335.5
11.420	81334.5
11.425	81330.5
11.430	81340.5
11.435	81337.5
11.440	81327.5
11.445	81309.6
11.450	81297.6
11.455	81324.5
11.460	81348.5
11.465	81350.5
11.470	81355.5
11.475	81358.5
11.480	81356.5
11.485	81367.5
11.490	81358.5
11.495	81358.5
11.500	81350.5
11.505	81360.5
11.510	81335.5
11.515	81325.5
11.520	81329.5
11.525	81359.5
11.530	81359.5
11.535	81349.5
11.540	81335.5
11.545	81334.5
11.550	81345.5
11.555	81343.5
11.560	81347.5
11.565	81355.5
11.570	81345.5
11.575	81354.5
11.580	81309.5
11.585	81312.5
11.590	81339.5
11.595	81356.5
11.600	81351.5
11.605	81363.5
11.610	81360.5
11.615	81356.5
11.620	81357.5
11.625	81366.5
11.630	81362.5
11.635	81354.5
11.640	81359.5
11.645	81343.5
11.650	81338.5
11.655	81345.5
11.660	81364.5
11.665	81356.5
11.670	81355.5
11.675	81350.5
11.680	81346.5
11.685	81343.5
11.690	81339.5
11.695	81341.5
11.700	81343.5
11.705	81344.5
11.710	81324.5
11.715	81309.5
11.720	81327.5
11.725	81355.5
11.730	81355.5
11.735	81361.5
11.740	81354.5
11.745	81346.5
11.750	81346.5
11.755	81336.5
11.760	81335.5
11.765	81339.5
11.770	81323.5
11.775	81327.5
11.780	81298.6
11.785	81316.5
11.790	81322.5
11.795	81326.5
11.800	81332.5
11.805	81329.5
11.810	81315.5
11.815	81324.5
11.820	81323.5
11.825	81336.5
11.830	81320.5
11.835	81326.5
11.840	81322.5
11.845	81293.6
11.850	81282.6
11.855	81298.5
11.860	81327.5
11.865	81324.5
11.870	81329.5
11.875	81324.5
11.880	81332.5
11.885	81332.5
11.890	81334.5
11.895	81333.5
11.900	81323.5
11.905	81321.5
11.910	81300.5
11.915	81288.6
11.920	81296.5
11.925	81332.5
11.930	81325.5
11.935	81315.5
11.940	81313.5
11.945	81320.5
11.950	81308.5
11.955	81321.5
11.960	81315.5
11.965	81314.5
11.970	81313.5
11.975	81317.5
11.980	81265.6
11.985	81261.6
11.990	81293.6
11.995	81312.5
12.000	81306.5
12.005	81318.5
12.010	81315.5
12.015	81320.5
12.020	81310.5
12.025	81314.5
12.030	81309.5
12.035	81316.5
12.040	81303.5
12.045	81279.6
12.050	81277.6
12.055	81298.5
12.060	81309.5
12.065	81308.5
12.070	81309.5
12.075	81304.5
12.080	81307.5
12.085	81307.5
12.090	81310.5
12.095	81317.5
12.100	81322.5
12.105	81327.5
12.110	81303.5
12.115	81289.5
12.120	81295.5
12.125	81322.5
12.130	81314.5
12.135	81332.5
12.140	81324.5
12.145	81322.5
12.150	81335.5
12.155	81336.5
12.160	81328.5
12.165	81337.5
12.170	81329.5
12.175	81334.5
12.180	81296.5
12.185	81315.5
12.190	81332.5
12.195	81339.5
12.200	81329.5
12.205	81340.5
12.210	81325.5
12.215	81332.5
12.220	81329.5
12.225	81337.5
12.230	81342.5
12.235	81353.5
12.240	81351.5
12.245	81320.5
12.250	81325.5
12.255	81339.5
12.260	81364.5
12.265	81377.5
12.270	81378.5
12.275	81377.5
12.280	81383.5
12.285	81387.5
12.290	81386.5
12.295	81390.5
12.300	81382.5
12.305	81383.5
12.310	81374.5
12.315	81363.5
12.320	81370.5
12.325	81395.5
12.330	81402.5
12.335	81406.5
12.340	81407.4
12.345	81406.5
12.350	81400.5
12.355	81402.5
12.360	81405.4
12.365	81417.4
12.370	81424.4
12.375	81426.4
12.380	81385.5
12.385	81396.5
12.390	81414.4
12.395	81439.4
12.400	81434.4
12.405	81439.4
12.410	81443.4
12.415	81450.4
12.420	81445.4
12.425	81455.4
12.430	81460.4
12.435	81462.4
12.440	81470.4
12.445	81435.4
12.450	81432.4
12.455	81457.4
12.460	81472.4
12.465	81475.4
12.470	81472.4
12.475	81478.4
12.480	81477.4
12.485	81490.4
12.490	81481.4
12.495	81485.4
12.500	81484.4
12.505	81486.4
12.510	81472.4
12.515	81464.4
12.520	81476.4
12.525	81507.4
12.530	81505.4
12.535	81501.4
12.540	81507.4
12.545	81514.4
12.550	81510.4
12.555	81516.4
12.560	81518.4
12.565	81536.3
12.570	81535.3
12.575	81533.3
12.580	81492.4
12.585	81510.4
12.590	81531.3
12.595	81546.3
12.600	81535.3
12.605	81543.3
12.610	81536.3
12.615	81534.3
12.620	81524.3
12.625	81540.3
12.630	81544.3
12.635	81547.3
12.640	81543.3
12.645	81524.3
12.650	81519.4
12.655	81536.3
12.660	81559.3
12.665	81571.3
12.670	81567.3
12.675	81574.3
12.680	81565.3
12.685	81570.3
12.690	81574.3
12.695	81584.3
12.700	81577.3
12.705	81573.3
12.710	81559.3
12.715	81543.3
12.720	81565.3
12.725	81584.3
12.730	81585.3
12.735	81579.3
12.740	81580.3
12.745	81589.3
12.750	81590.3
12.755	81597.3
12.760	81576.3
12.765	81593.3
12.770	81593.3
12.775	81592.3
12.780	81557.3
12.785	81574.3
12.790	81600.3
12.795	81605.3
12.800	81609.3
12.805	81624.3
12.810	81612.3
12.815	81623.3
12.820	81614.3
12.825	81625.3
12.830	81621.3
12.835	81623.3
12.840	81614.3
12.845	81597.3
12.850	81595.3
12.855	81621.3
12.860	81625.3
12.865	81632.3
12.870	81624.3
12.875	81618.3
12.880	81617.3
12.885	81619.3
12.890	81618.3
12.895	81623.3
12.900	81620.3
12.905	81622.3
12.910	81611.3
12.915	81591.3
12.920	81592.3
12.925	81624.3
12.930	81633.3
12.935	81635.3
12.940	81634.3
12.945	81641.2
12.950	81647.2
12.955	81649.2
12.960	81644.2
12.965	81649.2
12.970	81655.2
12.975	81641.2
12.980	81611.3
12.985	81625.3
12.990	81651.2
12.995	81645.2
13.000	81635.2
13.005	81648.2
13.010	81638.2
13.015	81643.2
13.020	81646.2
13.025	81660.2
13.030	81653.2
13.035	81654.2
13.040	81667.2
13.045	81630.2
13.050	81622.3
13.055	81646.2
13.060	81655.2
13.065	81662.2
13.070	81654.2
13.075	81657.2
13.080	81647.2
13.085	81662.2
13.090	81643.2
13.095	81659.2
13.100	81660.2
13.105	81659.2
13.110	81632.2
13.115	81628.3
13.120	81640.2
13.125	81670.2
13.130	81659.2
13.135	81645.2
13.140	81648.2
13.145	81651.2
13.150	81644.2
13.155	81648.2
13.160	81641.2
13.165	81656.2
13.170	81650.2
13.175	81626.2
13.180	81609.3
13.185	81622.2
13.190	81632.2
13.195	81644.2
13.200	81638.2
13.205	81641.2
13.210	81631.2
13.215	81629.2
13.220	81628.2
13.225	81633.2
13.230	81625.2
13.235	81632.2
13.240	81613.3
13.245	81584.3
13.250	81577.3
13.255	81603.3
13.260	81600.3
13.265	81614.3
13.270	81595.3
13.275	81599.3
13.280	81590.3
13.285	81588.3
13.290	81589.3
13.295	81595.3
13.300	81585.3
13.305	81583.3
13.310	81562.3
13.315	81550.3
13.320	81558.3
13.325	81578.3
13.330	81585.3
13.335	81581.3
13.340	81573.3
13.345	81576.3
13.350	81564.3
13.355	81572.3
13.360	81563.3
13.365	81569.3
13.370	81558.3
13.375	81541.3
13.380	81524.3
13.385	81543.3
13.390	81555.3
13.395	81549.3
13.400	81547.3
13.405	81538.3
13.410	81543.3
13.415	81540.3
13.420	81533.3
13.425	81533.3
13.430	81533.3
13.435	81530.3
13.440	81526.3
13.445	81508.3
13.450	81513.3
13.455	81531.3
13.460	81531.3
13.465	81538.3
13.470	81532.3
13.475	81537.3
13.480	81538.3
13.485	81540.3
13.490	81538.3
13.495	81540.3
13.500	81531.3
13.505	81542.3
13.510	81506.3
13.515	81505.3
13.520	81515.3
13.525	81538.3
13.530	81523.3
13.535	81510.3
13.540	81511.3
13.545	81520.3
13.550	81520.3
13.555	81529.3
13.560	81524.3
13.565	81521.3
13.570	81523.3
13.575	81513.3
13.580	81476.3
13.585	81482.3
13.590	81517.3
13.595	81527.3
13.600	81540.3
13.605	81523.3
13.610	81543.3
13.615	81536.3
13.620	81531.3
13.625	81535.3
13.630	81534.3
13.635	81532.3
13.640	81529.3
13.645	81509.3
13.650	81503.3
13.655	81539.3
13.660	81540.3
13.665	81537.3
13.670	81530.3
13.675	81534.3
13.680	81534.3
13.685	81533.3
13.690	81537.3
13.695	81542.3
13.700	81544.3
13.705	81550.3
13.710	81514.3
13.715	81520.3
13.720	81534.3
13.725	81567.3
13.730	81564.3
13.735	81562.3
13.740	81563.3
13.745	81571.3
13.750	81568.3
13.755	81575.3
13.760	81569.3
13.765	81578.3
13.770	81572.3
13.775	81561.3
13.780	81538.3
13.785	81564.3
13.790	81591.2
13.795	81592.2
13.800	81589.3
13.805	81581.3
13.810	81591.2
13.815	81597.2
13.820	81608.2
13.825	81595.2
13.830	81604.2
13.835	81610.2
13.840	81599.2
13.845	81578.3
13.850	81571.3
13.855	81601.2
13.860	81611.2
13.865	81621.2
13.870	81613.2
13.875	81616.2
13.880	81612.2
13.885	81624.2
13.890	81629.2
13.895	81623.2
13.900	81614.2
13.905	81622.2
13.910	81586.2
13.915	81589.2
13.920	81610.2
13.925	81633.2
13.930	81625.2
13.935	81618.2
13.940	81613.2
13.945	81615.2
13.950	81609.2
13.955	81615.2
13.960	81615.2
13.965	81617.2
13.970	81618.2
13.975	81599.2
13.980	81580.2
13.985	81585.2
13.990	81618.2
13.995	81623.2
14.000	81610.2
14.005	81612.2
14.010	81618.2
14.015	81616.2
14.020	81618.2
14.025	81623.2
14.030	81617.2
14.035	81613.2
14.040	81599.2
14.045	81580.2
14.050	81586.2
14.055	81609.2
14.060	81622.2
14.065	81614.2
14.070	81618.2
14.075	81621.2
14.080	81612.2
14.085	81620.2
14.090	81613.2
14.095	81621.2
14.100	81619.2
14.105	81625.2
14.110	81598.2
14.115	81597.2
14.120	81605.2
14.125	81638.2
14.130	81621.2
14.135	81629.2
14.140	81631.2
14.145	81640.2
14.150	81628.2
14.155	81634.2
14.160	81638.2
14.165	81631.2
14.170	81634.2
14.175	81621.2
14.180	81603.2
14.185	81620.2
14.190	81633.2
14.195	81650.2
14.200	81641.2
14.205	81629.2
14.210	81639.2
14.215	81640.2
14.220	81632.2
14.225	81632.2
14.230	81629.2
14.235	81623.2
14.240	81634.2
14.245	81600.2
14.250	81603.2
14.255	81628.2
14.260	81649.2
14.265	81649.2
14.270	81640.2
14.275	81637.2
14.280	81642.2
14.285	81640.2
14.290	81642.2
14.295	81640.2
14.300	81633.2
14.305	81636.2
14.310	81609.2
14.315	81610.2
14.320	81621.2
14.325	81638.2
14.330	81623.2
14.335	81630.2
14.340	81628.2
14.345	81634.2
14.350	81625.2
14.355	81624.2
14.360	81621.2
14.365	81622.2
14.370	81626.2
14.375	81608.2
14.380	81588.2
14.385	81607.2
14.390	81637.2
14.395	81643.2
14.400	81624.2
14.405	81627.2
14.410	81623.2
14.415	81629.2
14.420	81629.2
14.425	81639.2
14.430	81638.2
14.435	81631.2
14.440	81611.2
14.445	81593.2
14.450	81603.2
14.455	81631.2
14.460	81623.2
14.465	81618.2
14.470	81608.2
14.475	81608.2
14.480	81607.2
14.485	81611.2
14.490	81608.2
14.495	81610.2
14.500	81608.2
14.505	81617.2
14.510	81587.2
14.515	81585.2
14.520	81594.2
14.525	81617.2
14.530	81615.2
14.535	81613.2
14.540	81606.2
14.545	81620.2
14.550	81607.2
14.555	81623.2
14.560	81603.2
14.565	81597.2
14.570	81608.2
14.575	81581.2
14.580	81569.2
14.585	81589.2
14.590	81599.2
14.595	81612.2
14.600	81595.2
14.605	81591.2
14.610	81586.2
14.615	81586.2
14.620	81586.2
14.625	81590.2
14.630	81585.2
14.635	81578.2
14.640	81570.2
14.645	81529.2
14.650	81532.2
14.655	81548.2
14.660	81539.2
14.665	81530.3
14.670	81514.3
14.675	81508.3
14.680	81509.3
14.685	81493.3
14.690	81465.3
14.695	81472.3
14.700	81470.3
14.705	81453.3
14.710	81395.3
14.715	81402.3
14.720	81446.3
14.725	81463.3
14.730	81419.3
14.735	81381.4
14.740	81374.4
14.745	81414.3
14.750	81443.3
14.755	81470.3
14.760	81498.3
14.765	81516.3
14.770	81517.3
14.775	81503.3
14.780	81477.3
14.785	81492.3
14.790	81533.2
14.795	81521.3
14.800	81513.3
14.805	81515.3
14.810	81519.3
14.815	81518.3
14.820	81509.3
14.825	81506.3
14.830	81495.3
14.835	81487.3
14.840	81467.3
14.845	81448.3
14.850	81462.3
14.855	81489.3
14.860	81473.3
14.865	81475.3
14.870	81467.3
14.875	81460.3
14.880	81464.3
14.885	81466.3
14.890	81465.3
14.895	81463.3
14.900	81461.3
14.905	81464.3
14.910	81426.3
14.915	81438.3
14.920	81459.3
14.925	81469.3
14.930	81467.3
14.935	81476.3
14.940	81469.3
14.945	81469.3
14.950	81475.3
14.955	81494.3
14.960	81485.3
14.965	81484.3
14.970	81483.3
14.975	81461.3
14.980	81456.3
14.985	81490.3
14.990	81502.3
14.995	81498.3
15.000	81492.3
15.005	81493.3
15.010	81484.3
15.015	81491.3
15.020	81494.3
15.025	81499.3
15.030	81507.3
15.035	81510.2
15.040	81489.3
15.045	81471.3
15.050	81481.3
15.055	81518.2
15.060	81525.2
15.065	81526.2
15.070	81513.2
15.075	81516.2
15.080	81516.2
15.085	81521.2
15.090	81517.2
15.095	81518.2
15.100	81518.2
15.105	81526.2
15.110	81490.3
15.115	81494.3
15.120	81510.2
15.125	81531.2
15.130	81517.2
15.135	81508.2
15.140	81501.2
15.145	81513.2
15.150	81508.2
15.155	81512.2
15.160	81515.2
15.165	81508.2
15.170	81512.2
15.175	81495.3
15.180	81470.3
15.185	81485.3
15.190	81503.2
15.195	81496.2
15.200	81493.3
15.205	81499.2
15.210	81491.3
15.215	81494.2
15.220	81495.2
15.225	81495.2
15.230	81481.3
15.235	81486.3
15.240	81468.3
15.245	81445.3
15.250	81463.3
15.255	81482.3
15.260	81484.3
15.265	81472.3
15.270	81466.3
15.275	81453.3
15.280	81449.3
15.285	81459.3
15.290	81453.3
15.295	81453.3
15.300	81446.3
15.305	81446.3
15.310	81412.3
15.315	81415.3
15.320	81431.3
15.325	81448.3
15.330	81437.3
15.335	81435.3
15.340	81443.3
15.345	81431.3
15.350	81434.3
15.355	81436.3
15.360	81427.3
15.365	81415.3
15.370	81412.3
15.375	81388.3
15.380	81389.3
15.385	81406.3
15.390	81418.3
15.395	81425.3
15.400	81409.3
15.405	81400.3
15.410	81396.3
15.415	81397.3
15.420	81401.3
15.425	81409.3
15.430	81403.3
15.435	81395.3
15.440	81377.3
15.445	81364.3
15.450	81377.3
15.455	81389.3
15.460	81381.3
15.465	81397.3
15.470	81381.3
15.475	81390.3
15.480	81400.3
15.485	81411.3
15.490	81395.3
15.495	81405.3
15.500	81401.3
15.505	81397.3
15.510	81365.3
15.515	81367.3
15.520	81384.3
15.525	81396.3
15.530	81394.3
15.535	81398.3
15.540	81387.3
15.545	81385.3
15.550	81395.3
15.555	81395.3
15.560	81395.3
15.565	81394.3
15.570	81393.3
15.575	81369.3
15.580	81366.3
15.585	81395.3
15.590	81409.3
15.595	81415.3
15.600	81410.3
15.605	81414.3
15.610	81411.3
15.615	81424.3
15.620	81409.3
15.625	81408.3
15.630	81413.3
15.635	81411.3
15.640	81397.3
15.645	81380.3
15.650	81395.3
15.655	81431.3
15.660	81427.3
15.665	81428.3
15.670	81417.3
15.675	81433.3
15.680	81414.3
15.685	81300.4
15.690	81184.5
15.695	81298.4
15.700	81401.3
15.705	81436.3
15.710	81408.3
15.715	81418.3
15.720	81440.3
15.725	81458.2
15.730	81450.3
15.735	81449.2
15.740	81445.3
15.745	81450.2
15.750	81454.2
15.755	81467.2
15.760	81455.2
15.765	81455.2
15.770	81448.2
15.775	81418.3
15.780	81417.3
15.785	81445.2
15.790	81470.2
15.795	81480.2
15.800	81465.2
15.805	81468.2
15.810	81471.2
15.815	81465.2
15.820	81461.2
15.825	81449.2
15.830	81459.2
15.835	81471.2
15.840	81453.2
15.845	81443.2
15.850	81436.3
15.855	81477.2
15.860	81480.2
15.865	81479.2
15.870	81470.2
15.875	81478.2
15.880	81485.2
15.885	81494.2
15.890	81489.2
15.895	81494.2
15.900	81482.2
15.905	81480.2
15.910	81449.2
15.915	81449.2
15.920	81468.2
15.925	81481.2
15.930	81474.2
15.935	81477.2
15.940	81465.2
15.945	81481.2
15.950	81474.2
15.955	81473.2
15.960	81476.2
15.965	81485.2
15.970	81473.2
15.975	81446.2
15.980	81435.2
15.985	81461.2
15.990	81491.2
15.995	81485.2
16.000	81481.2
16.005	81483.2
16.010	81483.2
16.015	81485.2
16.020	81482.2
16.025	81475.2
16.030	81477.2
16.035	81479.2
16.040	81451.2
16.045	81429.2
16.050	81446.2
16.055	81476.2
16.060	81471.2
16.065	81455.2
16.070	81461.2
16.075	81461.2
16.080	81451.2
16.085	81452.2
16.090	81443.2
16.095	81459.2
16.100	81459.2
16.105	81455.2
16.110	81412.3
16.115	81426.2
16.120	81452.2
16.125	81465.2
16.130	81459.2
16.135	81454.2
16.140	81450.2
16.145	81455.2
16.150	81455.2
16.155	81463.2
16.160	81455.2
16.165	81457.2
16.170	81449.2
16.175	81425.2
16.180	81436.2
16.185	81450.2
16.190	81468.2
16.195	81466.2
16.200	81461.2
16.205	81448.2
16.210	81450.2
16.215	81449.2
16.220	81443.2
16.225	81447.2
16.230	81453.2
16.235	81451.2
16.240	81428.2
16.245	81412.2
16.250	81418.2
16.255	81452.2
16.260	81439.2
16.265	81444.2
16.270	81448.2
16.275	81447.2
16.280	81432.2
16.285	81438.2
16.290	81431.2
16.295	81431.2
16.300	81432.2
16.305	81429.2
16.310	81394.3
16.315	81397.2
16.320	81412.2
16.325	81424.2
16.330	81408.2
16.335	81403.2
16.340	81408.2
16.345	81413.2
16.350	81413.2
16.355	81416.2
16.360	81414.2
16.365	81403.2
16.370	81410.2
16.375	81376.3
16.380	81363.3
16.385	81379.3
16.390	81398.2
16.395	81411.2
16.400	81404.2
16.405	81390.2
16.410	81402.2
16.415	81399.2
16.420	81394.2
16.425	81402.2
16.430	81397.2
16.435	81406.2
16.440	81384.2
16.445	81372.3
16.450	81394.2
16.455	81408.2
16.460	81393.2
16.465	81400.2
16.470	81395.2
16.475	81396.2
16.480	81400.2
16.485	81398.2
16.490	81401.2
16.495	81412.2
16.500	81405.2
16.505	81403.2
16.510	81377.2
16.515	81395.2
16.520	81408.2
16.525	81419.2
16.530	81410.2
16.535	81425.2
16.540	81425.2
16.545	81427.2
16.550	81428.2
16.555	81427.2
16.560	81427.2
16.565	81439.2
16.570	81434.2
16.575	81410.2
16.580	81404.2
16.585	81423.2
16.590	81433.2
16.595	81431.2
16.600	81415.2
16.605	81418.2
16.610	81424.2
16.615	81422.2
16.620	81422.2
16.625	81420.2
16.630	81410.2
16.635	81418.2
16.640	81398.2
16.645	81394.2
16.650	81401.2
16.655	81416.2
16.660	81403.2
16.665	81417.2
16.670	81405.2
16.675	81409.2
16.680	81410.2
16.685	81396.2
16.690	81389.2
16.695	81397.2
16.700	81389.2
16.705	81381.2
16.710	81348.3
16.715	81362.2
16.720	81385.2
16.725	81388.2
16.730	81381.2
16.735	81363.2
16.740	81361.2
16.745	81356.2
16.750	81330.3
16.755	81342.3
16.760	81335.3
16.765	81336.3
16.770	81325.3
16.775	81285.3
16.780	81266.3
16.785	81285.3
16.790	81292.3
16.795	81304.3
16.800	81299.3
16.805	81304.3
16.810	81289.3
16.815	81293.3
16.820	81279.3
16.825	81261.3
16.830	81258.3
16.835	81260.3
16.840	81236.3
16.845	81227.3
16.850	81243.3
16.855	81259.3
16.860	81223.3
16.865	81213.3
16.870	81194.4
16.875	81185.4
16.880	81179.4
16.885	81171.4
16.890	81163.4
16.895	81152.4
16.900	81149.4
16.905	81145.4
16.910	81120.4
16.915	81120.4
16.920	81145.4
16.925	81161.4
16.930	81159.4
16.935	81168.4
16.940	81169.4
16.945	81162.4
16.950	81139.4
16.955	81140.4
16.960	81145.4
16.965	81165.4
16.970	81154.4
16.975	81133.4
16.980	81155.4
16.985	81188.3
16.990	81195.3
16.995	81188.3
17.000	81167.4
17.005	81165.4
17.010	81160.4
17.015	81173.4
17.020	81175.4
17.025	81192.3
17.030	81193.3
17.035	81191.3
17.040	81169.4
17.045	81163.4
17.050	81184.3
17.055	81229.3
17.060	81225.3
17.065	81235.3
17.070	81241.3
17.075	81242.3
17.080	81238.3
17.085	81242.3
17.090	81231.3
17.095	81235.3
17.100	81233.3
17.105	81223.3
17.110	81206.3
17.115	81224.3
17.120	81248.3
17.125	81244.3
17.130	81235.3
17.135	81241.3
17.140	81246.3
17.145	81260.3
17.150	81243.3
17.155	81254.3
17.160	81249.3
17.165	81259.3
17.170	81250.3
17.175	81227.3
17.180	81215.3
17.185	81249.3
17.190	81273.3
17.195	81274.3
17.200	81272.3
17.205	81282.3
17.210	81271.3
17.215	81273.3
17.220	81263.3
17.225	81284.3
17.230	81276.3
17.235	81275.3
17.240	81232.3
17.245	81228.3
17.250	81253.3
17.255	81276.3
17.260	81259.3
17.265	81245.3
17.270	81262.3
17.275	81244.3
17.280	81246.3
17.285	81246.3
17.290	81260.3
17.295	81256.3
17.300	81238.3
17.305	81244.3
17.310	81218.3
17.315	81237.3
17.320	81254.3
17.325	81251.3
17.330	81250.3
17.335	81260.3
17.340	81233.3
17.345	81239.3
17.350	81253.3
17.355	81253.3
17.360	81252.3
17.365	81240.3
17.370	81229.3
17.375	81203.3
17.380	81211.3
17.385	81235.3
17.390	81232.3
17.395	81237.3
17.400	81225.3
17.405	81223.3
17.410	81228.3
17.415	81241.3
17.420	81232.3
17.425	81238.3
17.430	81242.3
17.435	81248.3
17.440	81224.3
17.445	81214.3
17.450	81245.3
17.455	81258.2
17.460	81241.3
17.465	81253.2
17.470	81263.2
17.475	81265.2
17.480	81267.2
17.485	81273.2
17.490	81272.2
17.495	81280.2
17.500	81261.2
17.505	81259.2
17.510	81228.3
17.515	81255.2
17.520	81278.2
17.525	81278.2
17.530	81273.2
17.535	81268.2
17.540	81262.2
17.545	81257.2
17.550	81270.2
17.555	81258.2
17.560	81245.2
17.565	81247.2
17.570	81250.2
17.575	81217.3
17.580	81227.3
17.585	81246.2
17.590	81258.2
17.595	81262.2
17.600	81259.2
17.605	81265.2
17.610	81253.2
17.615	81267.2
17.620	81272.2
17.625	81281.2
17.630	81274.2
17.635	81274.2
17.640	81236.2
17.645	81235.2
17.650	81258.2
17.655	81276.2
17.660	81273.2
17.665	81272.2
17.670	81257.2
17.675	81264.2
17.680	81269.2
17.685	81284.2
17.690	81288.2
17.695	81296.2
17.700	81288.2
17.705	81272.2
17.710	81263.2
17.715	81269.2
17.720	81300.2
17.725	81313.2
17.730	81304.2
17.735	81316.2
17.740	81314.2
17.745	81318.2
17.750	81326.2
17.755	81333.2
17.760	81326.2
17.765	81332.2
17.770	81332.2
17.775	81312.2
17.780	81336.2
17.785	81359.1
17.790	81363.1
17.795	81354.1
17.800	81348.1
17.805	81361.1
17.810	81351.1
17.815	81372.1
17.820	81377.1
17.825	81390.1
17.830	81398.1
17.835	81399.1
17.840	81385.1
17.845	81386.1
17.850	81400.1
17.855	81419.1
17.860	81426.1
17.865	81431.1
17.870	81439.1
17.875	81446.1
17.880	81443.1
17.885	81448.1
17.890	81450.0
17.895	81467.0
17.900	81464.0
17.905	81446.1
17.910	81442.1
17.915	81454.0
17.920	81487.0
17.925	81479.0
17.930	81466.0
17.935	81460.0
17.940	81466.0
17.945	81471.0
17.950	81465.0
17.955	81464.0
17.960	81456.0
17.965	81463.0
17.970	81457.0
17.975	81428.1
17.980	81421.1
17.985	81440.0
17.990	81453.0
17.995	81446.0
18.000	81459.0
18.005	81448.0
18.010	81444.0
18.015	81450.0
18.020	81447.0
18.025	81459.0
18.030	81445.0
18.035	81443.0
18.040	81416.1
18.045	81405.1
18.050	81404.1
18.055	81426.0
18.060	81428.0
18.065	81425.0
18.070	81413.1
18.075	81405.1
18.080	81392.1
18.085	81411.1
18.090	81412.0
18.095	81407.1
18.100	81392.1
18.105	81379.1
18.110	81369.1
18.115	81385.1
18.120	81414.0
18.125	81418.0
18.130	81413.0
18.135	81415.0
18.140	81415.0
18.145	81418.0
18.150	81418.0
18.155	81423.0
18.160	81427.0
18.165	81414.0
18.170	81410.0
18.175	81388.1
18.180	81381.1
18.185	81404.0
18.190	81412.0
18.195	81403.0
18.200	81389.1
18.205	81395.0
18.210	81379.1
18.215	81375.1
18.220	81384.1
18.225	81393.0
18.230	81380.1
18.235	81390.0
18.240	81338.1
18.245	81340.1
18.250	81352.1
18.255	81373.1
18.260	81362.1
18.265	81372.1
18.270	81356.1
18.275	81368.1
18.280	81373.1
18.285	81379.1
18.290	81370.1
18.295	81371.0
18.300	81367.1
18.305	81345.1
18.310	81335.1
18.315	81347.1
18.320	81363.1
18.325	81364.1
18.330	81377.0
18.335	81361.1
18.340	81356.1
18.345	81365.1
18.350	81358.1
18.355	81355.1
18.360	81363.0
18.365	81371.0
18.370	81359.0
18.375	81339.1
18.380	81327.1
18.385	81349.1
18.390	81351.1
18.395	81363.0
18.400	81367.0
18.405	81357.0
18.410	81358.0
18.415	81344.1
18.420	81355.0
18.425	81359.0
18.430	81356.0
18.435	81338.1
18.440	81295.1
18.445	81304.1
18.450	81310.1
18.455	81317.1
18.460	81318.1
18.465	81312.1
18.470	81313.1
18.475	81305.1
18.480	81301.1
18.485	81309.1
18.490	81293.1
18.495	81280.1
18.500	81273.1
18.505	81240.1
18.510	81226.1
18.515	81235.1
18.520	81263.1
18.525	81262.1
18.530	81255.1
18.535	81240.1
18.540	81227.1
18.545	81222.1
18.550	81229.1
18.555	81232.1
18.560	81238.1
18.565	81220.1
18.570	81205.1
18.575	81185.2
18.580	81185.1
18.585	81211.1
18.590	81213.1
18.595	81209.1
18.600	81203.1
18.605	81205.1
18.610	81203.1
18.615	81215.1
18.620	81200.1
18.625	81201.1
18.630	81199.1
18.635	81204.1
18.640	81170.1
18.645	81168.1
18.650	81184.1
18.655	81191.1
18.660	81168.2
18.665	81184.1
18.670	81172.1
18.675	81186.1
18.680	81181.1
18.685	81190.1
18.690	81169.1
18.695	81167.1
18.700	81159.1
18.705	81138.2
18.710	81132.2
18.715	81142.2
18.720	81151.2
18.725	81153.1
18.730	81157.1
18.735	81166.1
18.740	81166.1
18.745	81145.1
18.750	81137.2
18.755	81145.1
18.760	81149.1
18.765	81167.1
18.770	81145.1
18.775	81103.2
18.780	81112.2
18.785	81152.1
18.790	81171.1
18.795	81167.1
18.800	81157.1
18.805	81147.1
18.810	81134.1
18.815	81137.1
18.820	81130.1
18.825	81122.2
18.830	81129.1
18.835	81123.1
18.840	81075.2
18.845	81080.2
18.850	81107.2
18.855	81115.2
18.860	81106.2
18.865	81097.2
18.870	81083.2
18.875	81071.2
18.880	81041.2
18.885	81034.2
18.890	81019.2
18.895	81025.2
18.900	81011.2
18.905	80974.2
18.910	80949.3
18.915	80969.3
18.920	80986.2
18.925	80979.2
18.930	80956.3
18.935	80955.3
18.940	80974.2
18.945	80997.2
18.950	81024.2
18.955	81015.2
18.960	80993.2
18.965	81003.2
18.970	80972.2
18.975	80939.3
18.980	80950.3
18.985	81003.2
18.990	81026.2
18.995	81038.2
19.000	81048.2
19.005	81065.2
19.010	81084.1
19.015	81101.1
19.020	81120.1
19.025	81106.1
19.030	81105.1
19.035	81102.1
19.040	81071.1
19.045	81087.1
19.050	81116.1
19.055	81135.1
19.060	81131.1
19.065	81139.1
19.070	81130.1
19.075	81137.1
19.080	81122.1
19.085	81138.1
19.090	81141.1
19.095	81157.1
19.100	81154.1
19.105	81138.1
19.110	81129.1
19.115	81135.1
19.120	81143.1
19.125	81141.1
19.130	81132.1
19.135	81128.1
19.140	81126.1
19.145	81137.1
19.150	81131.1
19.155	81121.1
19.160	81112.1
19.165	81124.1
19.170	81121.1
19.175	81110.1
19.180	81113.1
19.185	81125.1
19.190	81110.1
19.195	81098.1
19.200	81102.1
19.205	81083.1
19.210	81080.1
19.215	81070.1
19.220	81043.1
19.225	81034.1
19.230	81011.1
19.235	80991.2
19.240	80939.2
19.245	80934.2
19.250	80930.2
19.255	80927.2
19.260	80911.2
19.265	80897.2
19.270	80912.2
19.275	80936.2
19.280	80935.2
19.285	80935.2
19.290	80941.2
19.295	80948.2
19.300	80937.2
19.305	80919.2
19.310	80899.2
19.315	80916.2
19.320	80948.2
19.325	80969.2
19.330	80976.1
19.335	80985.1
19.340	80987.1
19.345	80990.1
19.350	81004.1
19.355	81027.1
19.360	81022.1
19.365	81034.1
19.370	81032.1
19.375	81044.1
19.380	81068.1
19.385	81095.0
19.390	81091.0
19.395	81080.0
19.400	81085.0
19.405	81091.0
19.410	81093.0
19.415	81086.0
19.420	81080.0
19.425	81075.0
19.430	81074.0
19.435	81073.0
19.440	81057.1
19.445	81074.0
19.450	81095.0
19.455	81114.0
19.460	81096.0
19.465	81090.0
19.470	81076.0
19.475	81080.0
19.480	81060.0
19.485	81062.0
19.490	81067.0
19.495	81064.0
19.500	81050.0
19.505	81025.1
19.510	81000.1
19.515	81009.1
19.520	80994.1
19.525	80976.1
19.530	80934.1
19.535	80917.1
19.540	80882.2
19.545	80865.2
19.550	80856.2
19.555	80845.2
19.560	80838.2
19.565	80836.2
19.570	80804.2
19.575	80762.2
19.580	80779.2
19.585	80785.2
19.590	80759.2
19.595	80737.3
19.600	80718.3
19.605	80696.3
19.610	80694.3
19.615	80696.3
19.620	80700.3
19.625	80697.3
19.630	80671.3
19.635	80659.3
19.640	80653.3
19.645	80690.3
19.650	80736.2
19.655	80777.2
19.660	80809.2
19.665	80827.2
19.670	80823.2
19.675	80816.2
19.680	80823.2
19.685	80833.2
19.690	80809.2
19.695	80835.1
19.700	80837.1
19.705	80803.2
19.710	80777.2
19.715	80781.2
19.720	80812.2
19.725	80825.1
19.730	80802.2
19.735	80790.2
19.740	80779.2
19.745	80786.2
19.750	80790.2
19.755	80807.1
19.760	80800.2
19.765	80790.2
19.770	80744.2
19.775	80735.2
19.780	80772.2
19.785	80799.1
19.790	80778.2
19.795	80753.2
19.800	80713.2
19.805	80701.2
19.810	80690.2
19.815	80702.2
19.820	80711.2
19.825	80704.2
19.830	80691.2
19.835	80673.2
19.840	80633.2
19.845	80640.2
19.850	80669.2
19.855	80678.2
19.860	80673.2
19.865	80662.2
19.870	80652.2
19.875	80667.2
19.880	80688.2
19.885	80710.2
19.890	80708.2
19.895	80742.1
19.900	80747.1
19.905	80737.1
19.910	80761.1
19.915	80795.1
19.920	80814.1
19.925	80827.1
19.930	80847.0
19.935	80871.0
19.940	80873.0
19.945	80886.0
19.950	80900.0
19.955	80901.0
19.960	80898.0
19.965	80913.0
19.970	80883.0
19.975	80873.0
19.980	80885.0
19.985	80930.9
19.990	80937.9
19.995	80943.9
20.000	80936.9
20.005	80946.9
20.010	80956.9
20.015	80955.9
20.020	80945.9
20.025	80950.9
20.030	80946.9
20.035	80927.9
20.040	80896.9
20.045	80896.9
20.050	80924.9
20.055	80922.9
20.060	80914.9
20.065	80899.9
20.070	80884.9
20.075	80883.9
20.080	80888.9
20.085	80861.9
20.090	80848.0
20.095	80856.9
20.100	80840.0
20.105	80812.0
20.110	80820.0
20.115	80836.0
20.120	80863.9
20.125	80856.9
20.130	80847.9
20.135	80829.0
20.140	80829.9
20.145	80832.9
20.150	80839.9
20.155	80844.9
20.160	80816.9
20.165	80812.9
20.170	80771.0
20.175	80742.0
20.180	80756.0
20.185	80773.0
20.190	80739.0
20.195	80730.0
20.200	80714.0
20.205	80696.0
20.210	80663.0
20.215	80670.0
20.220	80648.0
20.225	80644.0
20.230	80610.1
20.235	80573.1
20.240	80529.1
20.245	80526.1
20.250	80549.1
20.255	80541.1
20.260	80517.1
20.265	80509.1
20.270	80532.1
20.275	80549.1
20.280	80555.1
20.285	80569.1
20.290	80574.1
20.295	80580.0
20.300	80564.0
20.305	80535.1
20.310	80550.1
20.315	80557.1
20.320	80545.1
20.325	80531.1
20.330	80528.1
20.335	80509.1
20.340	80477.1
20.345	80472.1
20.350	80476.1
20.355	80479.1
20.360	80449.1
20.365	80427.1
20.370	80346.2
20.375	80282.2
20.380	80264.2
20.385	80262.2
20.390	80238.2
20.395	80212.3
20.400	80174.3
20.405	80152.3
20.410	80135.3
20.415	80149.3
20.420	80155.3
20.425	80180.3
20.430	80172.3
20.435	80161.3
20.440	80142.3
20.445	80180.2
20.450	80204.2
20.455	80215.2
20.460	80234.2
20.465	80263.2
20.470	80289.1
20.475	80288.1
20.480	80266.1
20.485	80254.1
20.490	80243.1
20.495	80237.1
20.500	80223.1
20.505	80172.2
20.510	80142.2
20.515	80153.2
20.520	80206.1
20.525	80200.1
20.530	80166.2
20.535	80141.2
20.540	80124.2
20.545	80064.2
20.550	79988.3
20.555	79948.3
20.560	79894.3
20.565	79844.4
20.570	79789.4
20.575	79782.4
20.580	79776.4
20.585	79784.4
20.590	79767.4
20.595	79751.4
20.600	79712.5
20.605	79676.5
20.610	79646.5
20.615	79670.5
20.620	79714.4
20.625	79764.4
20.630	79779.4
20.635	79794.3
20.640	79784.3
20.645	79804.3
20.650	79838.3
20.655	79861.3
20.660	79844.3
20.665	79808.3
20.670	79754.3
20.675	79704.4
20.680	79657.4
20.685	79608.4
20.690	79548.5
20.695	79518.5
20.700	79439.5
20.705	79367.6
20.710	79294.6
20.715	79248.7
20.720	79251.7
20.725	79270.6
20.730	79262.6
20.735	79260.6
20.740	79225.6
20.745	79170.7
20.750	79102.7
20.755	78993.8
20.760	78931.8
20.765	78948.8
20.770	78964.8
20.775	78976.8
20.780	79032.7
20.785	79106.7
20.790	79124.6
20.795	79138.6
20.800	79168.6
20.805	79180.6
20.810	79202.5
20.815	79209.5
20.820	79225.5
20.825	79238.5
20.830	79232.5
20.835	79243.5
20.840	79240.4
20.845	79255.4
20.850	79250.4
20.855	79225.4
20.860	79210.4
20.865	79208.4
20.870	79186.4
20.875	79170.4
20.880	79089.5
20.885	78982.5
20.890	78883.6
20.895	78769.7
20.900	78646.8
20.905	78525.9
20.910	78451.9
20.915	78381.0
20.920	78343.0
20.925	78343.0
20.930	78366.9
20.935	78413.9
20.940	78506.8
20.945	78676.7
20.950	78838.5
20.955	78932.4
20.960	78907.4
20.965	78812.5
20.970	78705.6
20.975	78578.6
20.980	78364.8
20.985	78176.9
20.990	78047.0
20.995	78001.0
21.000	78086.0
21.005	78325.8
21.010	78511.6
21.015	78622.5
21.020	78759.4
21.025	78938.2
21.030	79168.0
21.035	79286.9
21.040	79348.8
21.045	79391.8
21.050	79305.8
21.055	79108.9
21.060	78938.1
21.065	78975.0
21.070	79060.9
21.075	79168.8
21.080	79281.7
21.085	79355.6
21.090	79241.7
21.095	79003.8
21.100	78885.9
21.105	78875.9
21.110	78881.8
21.115	78862.8
21.120	78667.0
21.125	78216.3
21.130	77835.5
21.135	77368.9
21.140	76589.4
21.145	76115.8
21.150	76280.6
21.155	76453.5
21.160	76326.5
21.165	76617.3
21.170	77710.4
21.175	78441.7
21.180	78137.9
21.185	77901.1
21.190	77962.0
21.195	77871.0
21.200	77650.1
21.205	77701.0
21.210	77883.8
21.215	77464.1
21.220	75752.4
21.225	73532.0
21.230	73099.3
21.235	73922.5
21.240	73834.5
21.245	72959.2
21.250	73242.9
21.255	75783.6
21.260	77187.5
21.265	76818.6
21.270	76152.1
21.275	75754.3
21.280	75384.5
21.285	74997.7
21.290	74550.1
21.295	74168.4
21.300	74165.5
21.305	74494.3
21.310	74756.2
21.315	74833.4
21.320	74895.6
21.325	75183.7
21.330	75803.7
21.335	76630.4
21.340	77468.1
21.345	78269.9
21.350	79094.8
21.355	79954.6
21.360	80763.4
21.365	81442.2
21.370	81923.1
21.375	82244.0
21.380	82456.9
21.385	82575.8
21.390	82618.8
21.395	82642.8
21.400	82655.8
21.405	82663.8
21.410	82670.8
21.415	82669.8
21.420	82667.8
21.425	82683.8
21.430	82682.8
21.435	82660.8
21.440	82646.8
21.445	82661.8
21.450	82689.8
21.455	82689.8
21.460	82679.8
21.465	82691.8
21.470	82687.8
21.475	82685.8
21.480	82682.8
21.485	82698.8
21.490	82686.8
21.495	82693.8
21.500	82679.8
21.505	82664.8
21.510	82666.8
21.515	82686.8
21.520	82690.8
21.525	82699.8
21.530	82688.8
21.535	82688.8
21.540	82686.8
21.545	82690.8
21.550	82682.8
21.555	82687.8
21.560	82700.8
21.565	82696.8
21.570	82660.8
21.575	82668.8
21.580	82673.8
21.585	82704.8
21.590	82690.8
21.595	82697.8
21.600	82702.8
21.605	82685.8
21.610	82702.8
21.615	82693.8
21.620	82698.8
21.625	82702.8
21.630	82701.8
21.635	82682.8
21.640	82661.8
21.645	82679.8
21.650	82712.8
21.655	82705.8
21.660	82702.8
21.665	82703.8
21.670	82696.8
21.675	82692.8
21.680	82694.8
21.685	82698.8
21.690	82708.8
21.695	82709.8
21.700	82696.8
21.705	82666.8
21.710	82673.8
21.715	82694.8
21.720	82704.8
21.725	82706.8
21.730	82710.8
21.735	82709.8
21.740	82701.8
21.745	82712.8
21.750	82707.8
21.755	82710.8
21.760	82698.8
21.765	82712.8
21.770	82673.8
21.775	82677.8
21.780	82690.8
21.785	82719.8
21.790	82714.8
21.795	82705.8
21.800	82696.8
21.805	82699.8
21.810	82700.8
21.815	82694.8
21.820	82695.8
21.825	82704.8
21.830	82709.8
21.835	82683.8
21.840	82663.8
21.845	82686.8
21.850	82706.8
21.855	82712.8
21.860	82703.8
21.865	82714.8
21.870	82711.8
21.875	82716.8
21.880	82706.8
21.885	82723.8
21.890	82721.8
21.895	82713.8
21.900	82696.8
21.905	82683.8
21.910	82694.8
21.915	82713.8
21.920	82714.8
21.925	82718.8
21.930	82695.8
21.935	82706.8
21.940	82709.8
21.945	82714.8
21.950	82699.8
21.955	82719.8
21.960	82717.8
21.965	82712.8
21.970	82678.8
21.975	82682.8
21.980	82697.8
21.985	82720.8
21.990	82718.8
21.995	82715.8
22.000	82709.8
22.005	82716.8
22.010	82707.8
22.015	82723.8
22.020	82714.8
22.025	82721.8
22.030	82720.8
22.035	82697.8
22.040	82675.8
22.045	82697.8
22.050	82730.8
22.055	82713.8
22.060	82712.8
22.065	82719.8
22.070	82707.8
22.075	82702.8
22.080	82709.8
22.085	82713.8
22.090	82708.8
22.095	82711.8
22.100	82704.8
22.105	82678.8
22.110	82677.8
22.115	82712.8
22.120	82721.8
22.125	82713.8
22.130	82716.8
22.135	82718.8
22.140	82716.8
22.145	82721.8
22.150	82726.8
22.155	82732.8
22.160	82717.8
22.165	82714.8
22.170	82685.8
22.175	82688.8
22.180	82711.8
22.185	82728.8
22.190	82719.8
22.195	82712.8
22.200	82712.8
22.205	82716.8
22.210	82707.8
22.215	82725.8
22.220	82709.8
22.225	82715.8
22.230	82716.8
22.235	82693.8
22.240	82677.8
22.245	82704.8
22.250	82724.8
22.255	82722.8
22.260	82716.8
22.265	82712.8
22.270	82730.8
22.275	82719.8
22.280	82722.8
22.285	82729.8
22.290	82725.8
22.295	82722.8
22.300	82707.8
22.305	82691.8
22.310	82704.8
22.315	82719.8
22.320	82722.8
22.325	82718.8
22.330	82712.8
22.335	82709.8
22.340	82703.8
22.345	82711.8
22.350	82710.8
22.355	82708.8
22.360	82715.8
22.365	82721.8
22.370	82689.8
22.375	82685.8
22.380	82703.8
22.385	82726.8
22.390	82727.8
22.395	82727.8
22.400	82722.8
22.405	82734.8
22.410	82723.8
22.415	82719.8
22.420	82719.8
22.425	82718.8
22.430	82730.8
22.435	82703.8
22.440	82691.8
22.445	82714.8
22.450	82731.8
22.455	82729.8
22.460	82715.8
22.465	82720.8
22.470	82716.8
22.475	82714.8
22.480	82714.8
22.485	82724.8
22.490	82717.8
22.495	82722.8
22.500	82709.8
22.505	82686.8
22.510	82686.8
22.515	82723.8
22.520	82731.8
22.525	82731.8
22.530	82721.8
22.535	82724.8
22.540	82726.8
22.545	82728.8
22.550	82727.8
22.555	82735.8
22.560	82723.8
22.565	82725.8
22.570	82686.8
22.575	82712.8
22.580	82722.8
22.585	82739.8
22.590	82724.8
22.595	82724.8
22.600	82711.8
22.605	82712.8
22.610	82717.8
22.615	82731.8
22.620	82724.8
22.625	82724.8
22.630	82725.8
22.635	82695.8
22.640	82680.8
22.645	82709.8
22.650	82722.8
22.655	82723.8
22.660	82720.8
22.665	82723.8
22.670	82723.8
22.675	82729.8
22.680	82734.8
22.685	82723.8
22.690	82730.8
22.695	82731.8
22.700	82712.8
22.705	82688.8
22.710	82707.8
22.715	82733.8
22.720	82723.8
22.725	82725.8
22.730	82725.8
22.735	82714.8
22.740	82713.8
22.745	82720.8
22.750	82717.8
22.755	82721.8
22.760	82716.8
22.765	82730.8
22.770	82684.8
22.775	82691.8
22.780	82712.8
22.785	82725.8
22.790	82718.8
22.795	82725.8
22.800	82725.8
22.805	82726.8
22.810	82723.8
22.815	82734.8
22.820	82729.8
22.825	82735.8
22.830	82725.8
22.835	82692.8
22.840	82691.8
22.845	82721.8
22.850	82729.8
22.855	82733.8
22.860	82721.8
22.865	82723.8
22.870	82712.8
22.875	82716.8
22.880	82714.8
22.885	82711.8
22.890	82718.8
22.895	82722.8
22.900	82700.8
22.905	82690.8
22.910	82696.8
22.915	82715.8
22.920	82715.8
22.925	82726.8
22.930	82717.8
22.935	82722.8
22.940	82722.8
22.945	82723.8
22.950	82722.8
22.955	82731.8
22.960	82721.8
22.965	82719.8
22.970	82684.8
22.975	82686.8
22.980	82719.8
22.985	82730.8
22.990	82722.8
22.995	82714.8
23.000	82715.8
23.005	82713.8
23.010	82713.8
23.015	82710.8
23.020	82712.8
23.025	82726.8
23.030	82714.8
23.035	82698.8
23.040	82679.8
23.045	82695.8
23.050	82708.8
23.055	82718.8
23.060	82714.8
23.065	82727.8
23.070	82716.8
23.075	82719.8
23.080	82720.8
23.085	82725.8
23.090	82717.8
23.095	82717.8
23.100	82697.8
23.105	82683.8
23.110	82697.8
23.115	82727.8
23.120	82721.8
23.125	82715.8
23.130	82713.8
23.135	82708.8
23.140	82708.8
23.145	82712.8
23.150	82715.8
23.155	82708.8
23.160	82709.8
23.165	82714.8
23.170	82675.8
23.175	82680.8
23.180	82699.8
23.185	82712.8
23.190	82713.8
23.195	82714.8
23.200	82708.8
23.205	82712.8
23.210	82714.8
23.215	82713.8
23.220	82715.8
23.225	82712.8
23.230	82709.8
23.235	82680.8
23.240	82682.8
23.245	82701.8
23.250	82719.8
23.255	82711.8
23.260	82710.8
23.265	82708.8
23.270	82707.8
23.275	82706.8
23.280	82698.8
23.285	82705.8
23.290	82699.8
23.295	82709.8
23.300	82687.8
23.305	82673.8
23.310	82677.8
23.315	82712.8
23.320	82710.8
23.325	82710.8
23.330	82707.8
23.335	82714.8
23.340	82712.8
23.345	82714.8
23.350	82717.8
23.355	82707.8
23.360	82701.8
23.365	82700.8
23.370	82675.8
23.375	82688.8
23.380	82704.8
23.385	82708.8
23.390	82709.8
23.395	82707.8
23.400	82699.8
23.405	82704.8
23.410	82704.8
23.415	82699.8
23.420	82704.8
23.425	82701.8
23.430	82705.8
23.435	82679.8
23.440	82671.8
23.445	82691.8
23.450	82710.8
23.455	82702.8
23.460	82698.8
23.465	82710.8
23.470	82694.8
23.475	82711.8
23.480	82702.8
23.485	82713.8
23.490	82700.8
23.495	82704.8
23.500	82670.8
23.505	82666.8
23.510	82687.8
23.515	82705.8
23.520	82703.8
23.525	82697.8
23.530	82689.8
23.535	82691.8
23.540	82684.8
23.545	82700.8
23.550	82698.8
23.555	82694.8
23.560	82689.8
23.565	82687.8
23.570	82662.8
23.575	82677.8
23.580	82689.8
23.585	82706.8
23.590	82701.8
23.595	82696.8
23.600	82700.8
23.605	82703.8
23.610	82707.8
23.615	82709.8
23.620	82708.8
23.625	82693.8
23.630	82699.8
23.635	82665.8
23.640	82666.8
23.645	82690.8
23.650	82696.8
23.655	82697.8
23.660	82692.8
23.665	82695.8
23.670	82685.8
23.675	82688.8
23.680	82688.8
23.685	82700.8
23.690	82692.8
23.695	82699.8
23.700	82667.8
23.705	82654.8
23.710	82666.8
23.715	82699.8
23.720	82692.8
23.725	82692.8
23.730	82694.8
23.735	82694.8
23.740	82691.8
23.745	82703.8
23.750	82693.8
23.755	82696.8
23.760	82693.8
23.765	82681.8
23.770	82657.8
23.775	82668.8
23.780	82694.8
23.785	82701.8
23.790	82690.8
23.795	82687.8
23.800	82680.8
23.805	82683.8
23.810	82678.8
23.815	82683.8
23.820	82683.8
23.825	82690.8
23.830	82690.8
23.835	82652.8
23.840	82647.8
23.845	82669.8
23.850	82693.8
23.855	82694.8
23.860	82684.8
23.865	82682.8
23.870	82681.8
23.875	82687.8
23.880	82683.8
23.885	82691.8
23.890	82695.8
23.895	82693.8
23.900	82662.8
23.905	82657.8
23.910	82666.8
23.915	82693.8
23.920	82688.8
23.925	82684.8
23.930	82679.8
23.935	82683.8
23.940	82675.8
23.945	82677.8
23.950	82669.8
23.955	82678.8
23.960	82666.8
23.965	82673.8
23.970	82641.8
23.975	82645.8
23.980	82668.8
23.985	82693.8
23.990	82681.8
23.995	82687.8
24.000	82682.8
24.005	82674.8
24.010	82680.8
24.015	82680.8
24.020	82686.8
24.025	82686.8
24.030	82684.8
24.035	82648.8
24.040	82651.8
24.045	82676.8
24.050	82684.8
24.055	82695.8
24.060	82664.8
24.065	82669.8
24.070	82670.8
24.075	82662.8
24.080	82672.8
24.085	82670.8
24.090	82678.8
24.095	82670.8
24.100	82648.8
24.105	82635.8
24.110	82647.8
24.115	82676.8
24.120	82670.8
24.125	82683.8
24.130	82675.8
24.135	82691.8
24.140	82672.8
24.145	82673.8
24.150	82673.8
24.155	82673.8
24.160	82676.8
24.165	82669.8
24.170	82644.8
24.175	82654.8
24.180	82679.8
24.185	82675.8
24.190	82667.8
24.195	82661.8
24.200	82663.8
24.205	82662.8
24.210	82664.8
24.215	82674.8
24.220	82664.8
24.225	82669.8
24.230	82677.8
24.235	82644.8
24.240	82629.9
24.245	82653.8
24.250	82672.8
24.255	82672.8
24.260	82673.8
24.265	82672.8
24.270	82672.8
24.275	82681.8
24.280	82673.8
24.285	82670.8
24.290	82679.8
24.295	82671.8
24.300	82642.8
24.305	82640.8
24.310	82662.8
24.315	82679.8
24.320	82672.8
24.325	82677.8
24.330	82668.8
24.335	82666.8
24.340	82656.8
24.345	82673.8
24.350	82670.8
24.355	82670.8
24.360	82668.8
24.365	82653.8
24.370	82623.9
24.375	82635.8
24.380	82656.8
24.385	82672.8
24.390	82667.8
24.395	82669.8
24.400	82672.8
24.405	82677.8
24.410	82672.8
24.415	82673.8
24.420	82672.8
24.425	82668.8
24.430	82671.8
24.435	82639.8
24.440	82642.8
24.445	82667.8
24.450	82682.8
24.455	82667.8
24.460	82664.8
24.465	82670.8
24.470	82659.8
24.475	82662.8
24.480	82657.8
24.485	82663.8
24.490	82660.8
24.495	82676.8
24.500	82646.8
24.505	82628.9
24.510	82641.8
24.515	82672.8
24.520	82670.8
24.525	82674.8
24.530	82671.8
24.535	82676.8
24.540	82666.8
24.545	82673.8
24.550	82676.8
24.555	82683.8
24.560	82677.8
24.565	82661.8
24.570	82633.8
24.575	82661.8
24.580	82675.8
24.585	82675.8
24.590	82672.8
24.595	82672.8
24.600	82658.8
24.605	82662.8
24.610	82662.8
24.615	82670.8
24.620	82671.8
24.625	82678.8
24.630	82669.8
24.635	82639.8
24.640	82636.8
24.645	82664.8
24.650	82681.8
24.655	82681.8
24.660	82671.8
24.665	82674.8
24.670	82670.8
24.675	82673.8
24.680	82676.8
24.685	82676.8
24.690	82673.8
24.695	82675.8
24.700	82644.8
24.705	82643.8
24.710	82657.8
24.715	82679.8
24.720	82677.8
24.725	82678.8
24.730	82676.8
24.735	82673.8
24.740	82677.8
24.745	82673.8
24.750	82674.8
24.755	82679.8
24.760	82667.8
24.765	82666.8
24.770	82633.9
24.775	82655.8
24.780	82670.8
24.785	82686.8
24.790	82679.8
24.795	82689.8
24.800	82672.8
24.805	82679.8
24.810	82675.8
24.815	82688.8
24.820	82683.8
24.825	82680.8
24.830	82669.8
24.835	82655.8
24.840	82646.8
24.845	82683.8
24.850	82676.8
24.855	82689.8
24.860	82671.8
24.865	82682.8
24.870	82673.8
24.875	82664.8
24.880	82669.8
24.885	82671.8
24.890	82681.8
24.895	82683.8
24.900	82650.8
24.905	82650.8
24.910	82658.8
24.915	82682.8
24.920	82677.8
24.925	82684.8
24.930	82679.8
24.935	82686.8
24.940	82684.8
24.945	82692.8
24.950	82688.8
24.955	82684.8
24.960	82682.8
24.965	82665.8
24.970	82646.8
24.975	82662.8
24.980	82687.8
24.985	82689.8
24.990	82678.8
24.995	82677.8
25.000	82674.8
25.005	82679.8
25.010	82676.8
25.015	82671.8
25.020	82669.8
25.025	82675.8
25.030	82675.8
25.035	82653.8
25.040	82649.8
25.045	82674.8
25.050	82679.8
25.055	82678.8
25.060	82679.8
25.065	82678.8
25.070	82683.8
25.075	82688.8
25.080	82679.8
25.085	82676.8
25.090	82678.8
25.095	82684.8
25.100	82649.8
25.105	82652.8
25.110	82676.8
25.115	82684.8
25.120	82678.8
25.125	82672.8
25.130	82667.8
25.135	82680.8
25.140	82674.8
25.145	82676.8
25.150	82679.8
25.155	82677.8
25.160	82679.8
25.165	82658.8
25.170	82644.8
25.175	82651.8
25.180	82675.8
25.185	82673.8
25.190	82684.8
25.195	82677.8
25.200	82672.8
25.205	82685.8
25.210	82672.8
25.215	82673.8
25.220	82677.8
25.225	82677.8
25.230	82670.8
25.235	82638.8
25.240	82652.8
25.245	82676.8
25.250	82674.8
25.255	82674.8
25.260	82662.8
25.265	82667.8
25.270	82666.8
25.275	82670.8
25.280	82663.8
25.285	82669.8
25.290	82667.8
25.295	82673.8
25.300	82644.8
25.305	82644.8
25.310	82659.8
25.315	82683.8
25.320	82677.8
25.325	82671.8
25.330	82674.8
25.335	82685.8
25.340	82675.8
25.345	82681.8
25.350	82674.8
25.355	82671.8
25.360	82670.8
25.365	82651.8
25.370	82634.8
25.375	82659.8
25.380	82679.8
25.385	82672.8
25.390	82677.8
25.395	82666.8
25.400	82663.8
25.405	82668.8
25.410	82663.8
25.415	82661.8
25.420	82659.8
25.425	82670.8
25.430	82666.8
25.435	82636.8
25.440	82632.9
25.445	82664.8
25.450	82672.8
25.455	82667.8
25.460	82668.8
25.465	82666.8
25.470	82673.8
25.475	82676.8
25.480	82665.8
25.485	82683.8
25.490	82672.8
25.495	82676.8
25.500	82638.8
25.505	82643.8
25.510	82662.8
25.515	82680.8
25.520	82666.8
25.525	82666.8
25.530	82662.8
25.535	82666.8
25.540	82660.8
25.545	82669.8
25.550	82662.8
25.555	82665.8
25.560	82660.8
25.565	82647.8
25.570	82623.9
25.575	82650.8
25.580	82675.8
25.585	82665.8
25.590	82670.8
25.595	82675.8
25.600	82670.8
25.605	82675.8
25.610	82675.8
25.615	82680.8
25.620	82673.8
25.625	82678.8
25.630	82667.8
25.635	82642.8
25.640	82657.8
25.645	82683.8
25.650	82673.8
25.655	82661.8
25.660	82662.8
25.665	82673.8
25.670	82660.8
25.675	82670.8
25.680	82662.8
25.685	82667.8
25.690	82664.8
25.695	82674.8
25.700	82641.8
25.705	82640.8
25.710	82656.8
25.715	82680.8
25.720	82667.8
25.725	82678.8
25.730	82669.8
25.735	82690.8
25.740	82688.8
25.745	82678.8
25.750	82671.8
25.755	82689.8
25.760	82673.8
25.765	82654.8
25.770	82642.8
25.775	82661.8
25.780	82680.8
25.785	82676.8
25.790	82668.8
25.795	82670.8
25.800	82673.8
25.805	82669.8
25.810	82672.8
25.815	82675.8
25.820	82671.8
25.825	82682.8
25.830	82667.8
25.835	82639.8
25.840	82639.8
25.845	82675.8
25.850	82681.8
25.855	82679.8
25.860	82676.8
25.865	82669.8
25.870	82675.8
25.875	82681.8
25.880	82674.8
25.885	82687.8
25.890	82686.8
25.895	82679.8
25.900	82650.8
25.905	82651.8
25.910	82672.8
25.915	82687.8
25.920	82672.8
25.925	82669.8
25.930	82671.8
25.935	82668.8
25.940	82671.8
25.945	82671.8
25.950	82664.8
25.955	82680.8
25.960	82672.8
25.965	82656.8
25.970	82644.8
25.975	82664.8
25.980	82679.8
25.985	82684.8
25.990	82676.8
25.995	82683.8
26.000	82678.8
26.005	82682.8
26.010	82685.8
26.015	82687.8
26.020	82680.8
26.025	82681.8
26.030	82667.8
26.035	82648.8
26.040	82662.8
26.045	82685.8
26.050	82681.8
26.055	82677.8
26.060	82676.8
26.065	82677.8
26.070	82673.8
26.075	82670.8
26.080	82667.8
26.085	82680.8
26.090	82677.8
26.095	82677.8
26.100	82650.8
26.105	82644.8
26.110	82653.8
26.115	82684.8
26.120	82678.8
26.125	82688.8
26.130	82691.8
26.135	82688.8
26.140	82684.8
26.145	82692.8
26.150	82685.8
26.155	82685.8
26.160	82683.8
26.165	82655.8
26.170	82646.8
26.175	82665.8
26.180	82684.8
26.185	82681.8
26.190	82679.8
26.195	82676.8
26.200	82669.8
26.205	82673.8
26.210	82676.8
26.215	82674.8
26.220	82679.8
26.225	82684.8
26.230	82670.8
26.235	82640.8
26.240	82646.8
26.245	82681.8
26.250	82682.8
26.255	82674.8
26.260	82674.8
26.265	82674.8
26.270	82680.8
26.275	82691.8
26.280	82684.8
26.285	82687.8
26.290	82683.8
26.295	82678.8
26.300	82643.8
26.305	82652.8
26.310	82677.8
26.315	82688.8
26.320	82673.8
26.325	82677.8
26.330	82671.8
26.335	82671.8
