PK2650 Power Data
Z Position (mm)	100.000	W Position (deg)	0.00
Preform ID	Diameter (mm)	Time Stamp	Start Time	Operator	Serial Number
Test 1	25	03-Nov-22 18:05:01	03-Nov-22 18:05:40	[no user]	266007708
Radius (mm)	Power
-26.370	83007.8
-26.365	82995.8
-26.360	82986.8
-26.355	83026.8
-26.350	83028.8
-26.345	83034.8
-26.340	83024.8
-26.335	83030.8
-26.330	83012.8
-26.325	83019.8
-26.320	83015.8
-26.315	83027.8
-26.310	83019.8
-26.305	83024.8
-26.300	82992.8
-26.295	82990.8
-26.290	83011.8
-26.285	83040.8
-26.280	83032.8
-26.275	83041.8
-26.270	83031.8
-26.265	83028.8
-26.260	83023.8
-26.255	83024.8
-26.250	83024.8
-26.245	83031.8
-26.240	83042.7
-26.235	83028.8
-26.230	83018.8
-26.225	83023.8
-26.220	83052.7
-26.215	83064.7
-26.210	83058.7
-26.205	83051.7
-26.200	83050.7
-26.195	83051.7
-26.190	83040.8
-26.185	83056.7
-26.180	83051.7
-26.175	83057.7
-26.170	83036.8
-26.165	83022.8
-26.160	83017.8
-26.155	83053.7
-26.150	83050.7
-26.145	83058.7
-26.140	83039.8
-26.135	83049.7
-26.130	83044.8
-26.125	83050.7
-26.120	83053.7
-26.115	83058.7
-26.110	83060.7
-26.105	83059.7
-26.100	83038.8
-26.095	83033.8
-26.090	83048.7
-26.085	83080.7
-26.080	83073.7
-26.075	83068.7
-26.070	83064.7
-26.065	83061.7
-26.060	83063.7
-26.055	83063.7
-26.050	83072.7
-26.045	83069.7
-26.040	83072.7
-26.035	83053.7
-26.030	83040.8
-26.025	83048.7
-26.020	83074.7
-26.015	83068.7
-26.010	83062.7
-26.005	83068.7
-26.000	83064.7
-25.995	83059.7
-25.990	83071.7
-25.985	83068.7
-25.980	83074.7
-25.975	83074.7
-25.970	83065.7
-25.965	83044.7
-25.960	83041.8
-25.955	83075.7
-25.950	83074.7
-25.945	83084.7
-25.940	83085.7
-25.935	83080.7
-25.930	83075.7
-25.925	83072.7
-25.920	83071.7
-25.915	83083.7
-25.910	83066.7
-25.905	83077.7
-25.900	83050.7
-25.895	83047.7
-25.890	83064.7
-25.885	83081.7
-25.880	83070.7
-25.875	83068.7
-25.870	83057.7
-25.865	83068.7
-25.860	83066.7
-25.855	83073.7
-25.850	83071.7
-25.845	83078.7
-25.840	83078.7
-25.835	83072.7
-25.830	83051.7
-25.825	83056.7
-25.820	83086.7
-25.815	83086.7
-25.810	83081.7
-25.805	83082.7
-25.800	83082.7
-25.795	83074.7
-25.790	83073.7
-25.785	83074.7
-25.780	83067.7
-25.775	83073.7
-25.770	83061.7
-25.765	83045.7
-25.760	83041.8
-25.755	83079.7
-25.750	83080.7
-25.745	83079.7
-25.740	83068.7
-25.735	83075.7
-25.730	83064.7
-25.725	83066.7
-25.720	83065.7
-25.715	83076.7
-25.710	83075.7
-25.705	83086.7
-25.700	83059.7
-25.695	83057.7
-25.690	83067.7
-25.685	83081.7
-25.680	83083.7
-25.675	83088.7
-25.670	83079.7
-25.665	83079.7
-25.660	83075.7
-25.655	83082.7
-25.650	83062.7
-25.645	83077.7
-25.640	83081.7
-25.635	83051.7
-25.630	83043.8
-25.625	83049.7
-25.620	83068.7
-25.615	83073.7
-25.610	83073.7
-25.605	83073.7
-25.600	83066.7
-25.595	83063.7
-25.590	83064.7
-25.585	83072.7
-25.580	83076.7
-25.575	83080.7
-25.570	83070.7
-25.565	83049.7
-25.560	83039.8
-25.555	83078.7
-25.550	83079.7
-25.545	83084.7
-25.540	83087.7
-25.535	83079.7
-25.530	83077.7
-25.525	83076.7
-25.520	83078.7
-25.515	83072.7
-25.510	83074.7
-25.505	83071.7
-25.500	83045.8
-25.495	83036.8
-25.490	83065.7
-25.485	83077.7
-25.480	83068.7
-25.475	83076.7
-25.470	83066.7
-25.465	83075.7
-25.460	83070.7
-25.455	83064.7
-25.450	83065.7
-25.445	83082.7
-25.440	83075.7
-25.435	83056.7
-25.430	83036.8
-25.425	83056.7
-25.420	83075.7
-25.415	83085.7
-25.410	83080.7
-25.405	83078.7
-25.400	83070.7
-25.395	83077.7
-25.390	83062.7
-25.385	83077.7
-25.380	83075.7
-25.375	83078.7
-25.370	83054.7
-25.365	83039.8
-25.360	83031.8
-25.355	83080.7
-25.350	83077.7
-25.345	83080.7
-25.340	83076.7
-25.335	83074.7
-25.330	83061.7
-25.325	83063.7
-25.320	83064.7
-25.315	83064.7
-25.310	83072.7
-25.305	83073.7
-25.300	83046.7
-25.295	83044.8
-25.290	83066.7
-25.285	83077.7
-25.280	83076.7
-25.275	83082.7
-25.270	83076.7
-25.265	83075.7
-25.260	83072.7
-25.255	83072.7
-25.250	83064.7
-25.245	83076.7
-25.240	83071.7
-25.235	83045.8
-25.230	83026.8
-25.225	83037.8
-25.220	83071.7
-25.215	83066.7
-25.210	83073.7
-25.205	83067.7
-25.200	83062.7
-25.195	83060.7
-25.190	83055.7
-25.185	83056.7
-25.180	83060.7
-25.175	83070.7
-25.170	83059.7
-25.165	83048.7
-25.160	83043.8
-25.155	83075.7
-25.150	83075.7
-25.145	83076.7
-25.140	83077.7
-25.135	83066.7
-25.130	83063.7
-25.125	83065.7
-25.120	83070.7
-25.115	83064.7
-25.110	83064.7
-25.105	83057.7
-25.100	83040.8
-25.095	83030.8
-25.090	83058.7
-25.085	83077.7
-25.080	83065.7
-25.075	83058.7
-25.070	83049.8
-25.065	83060.7
-25.060	83055.7
-25.055	83055.7
-25.050	83052.7
-25.045	83052.7
-25.040	83060.7
-25.035	83041.8
-25.030	83027.8
-25.025	83040.8
-25.020	83068.7
-25.015	83064.7
-25.010	83059.7
-25.005	83061.7
-25.000	83053.7
-24.995	83052.7
-24.990	83046.7
-24.985	83053.7
-24.980	83048.7
-24.975	83050.7
-24.970	83030.8
-24.965	83014.8
-24.960	83023.8
-24.955	83058.7
-24.950	83046.7
-24.945	83049.7
-24.940	83049.7
-24.935	83053.7
-24.930	83035.8
-24.925	83050.8
-24.920	83039.8
-24.915	83039.8
-24.910	83047.7
-24.905	83050.7
-24.900	83026.8
-24.895	83012.8
-24.890	83036.8
-24.885	83051.7
-24.880	83049.7
-24.875	83056.7
-24.870	83042.8
-24.865	83039.8
-24.860	83036.8
-24.855	83031.8
-24.850	83032.8
-24.845	83042.8
-24.840	83036.8
-24.835	83007.8
-24.830	83002.8
-24.825	83020.8
-24.820	83039.8
-24.815	83031.8
-24.810	83031.8
-24.805	83030.8
-24.800	83023.8
-24.795	83024.8
-24.790	83018.8
-24.785	83027.8
-24.780	83032.8
-24.775	83041.8
-24.770	83016.8
-24.765	83002.8
-24.760	82993.8
-24.755	83037.8
-24.750	83034.8
-24.745	83037.8
-24.740	83034.8
-24.735	83023.8
-24.730	83020.8
-24.725	83021.8
-24.720	83026.8
-24.715	83027.8
-24.710	83022.8
-24.705	83011.8
-24.700	82989.8
-24.695	82987.8
-24.690	83012.8
-24.685	83027.8
-24.680	83022.8
-24.675	83022.8
-24.670	83009.8
-24.665	83002.8
-24.660	83007.8
-24.655	83000.8
-24.650	83018.8
-24.645	83023.8
-24.640	83025.8
-24.635	83000.8
-24.630	82980.8
-24.625	83008.8
-24.620	83033.8
-24.615	83035.8
-24.610	83030.8
-24.605	83022.8
-24.600	83018.8
-24.595	83015.8
-24.590	83010.8
-24.585	83013.8
-24.580	83006.8
-24.575	83016.8
-24.570	82991.8
-24.565	82974.8
-24.560	82980.8
-24.555	83012.8
-24.550	83012.8
-24.545	83010.8
-24.540	83006.8
-24.535	83000.8
-24.530	82998.8
-24.525	83006.8
-24.520	82995.8
-24.515	83005.8
-24.510	83007.8
-24.505	83010.8
-24.500	82988.8
-24.495	82982.8
-24.490	83003.8
-24.485	83011.8
-24.480	83012.8
-24.475	83019.8
-24.470	83012.8
-24.465	83009.8
-24.460	83005.8
-24.455	83003.8
-24.450	82997.8
-24.445	83001.8
-24.440	82990.8
-24.435	82976.8
-24.430	82962.8
-24.425	82984.8
-24.420	83002.8
-24.415	82999.8
-24.410	82998.8
-24.405	82995.8
-24.400	82989.8
-24.395	82997.8
-24.390	82986.8
-24.385	82998.8
-24.380	83006.8
-24.375	83008.8
-24.370	82993.8
-24.365	82974.8
-24.360	82977.8
-24.355	83007.8
-24.350	83015.8
-24.345	83010.8
-24.340	83014.8
-24.335	83010.8
-24.330	82999.8
-24.325	83000.8
-24.320	83000.8
-24.315	82997.8
-24.310	82998.8
-24.305	82982.8
-24.300	82973.8
-24.295	82966.8
-24.290	83002.8
-24.285	83007.8
-24.280	82993.8
-24.275	82998.8
-24.270	82998.8
-24.265	82990.8
-24.260	82987.8
-24.255	83001.8
-24.250	82997.8
-24.245	82998.8
-24.240	83010.8
-24.235	82979.8
-24.230	82968.8
-24.225	82989.8
-24.220	83007.8
-24.215	83011.8
-24.210	83007.8
-24.205	83008.8
-24.200	83004.8
-24.195	83004.8
-24.190	83001.8
-24.185	83000.8
-24.180	82996.8
-24.175	83002.8
-24.170	82982.8
-24.165	82972.8
-24.160	82975.8
-24.155	83008.8
-24.150	83000.8
-24.145	83005.8
-24.140	83000.8
-24.135	82987.8
-24.130	82988.8
-24.125	82988.8
-24.120	82991.8
-24.115	82998.8
-24.110	82999.8
-24.105	82996.8
-24.100	82971.8
-24.095	82960.8
-24.090	83004.8
-24.085	83011.8
-24.080	83014.8
-24.075	83011.8
-24.070	83006.8
-24.065	83007.8
-24.060	82997.8
-24.055	83002.8
-24.050	83005.8
-24.045	82995.8
-24.040	82994.8
-24.035	82978.8
-24.030	82970.8
-24.025	82992.8
-24.020	83004.8
-24.015	83013.8
-24.010	82999.8
-24.005	82998.8
-24.000	82990.8
-23.995	83000.8
-23.990	82996.8
-23.985	82998.8
-23.980	82995.8
-23.975	83014.8
-23.970	82996.8
-23.965	82988.8
-23.960	82988.8
-23.955	83017.8
-23.950	83018.8
-23.945	83018.8
-23.940	83016.8
-23.935	83019.8
-23.930	83011.8
-23.925	83013.8
-23.920	83014.8
-23.915	83011.8
-23.910	83019.8
-23.905	83007.8
-23.900	82984.8
-23.895	82991.8
-23.890	83016.8
-23.885	83018.8
-23.880	83022.8
-23.875	83009.8
-23.870	83012.8
-23.865	83014.8
-23.860	83010.8
-23.855	83009.8
-23.850	83015.8
-23.845	83017.8
-23.840	83022.8
-23.835	83005.8
-23.830	82987.8
-23.825	83020.8
-23.820	83028.8
-23.815	83036.8
-23.810	83017.8
-23.805	83019.8
-23.800	83016.8
-23.795	83025.8
-23.790	83020.8
-23.785	83023.8
-23.780	83014.8
-23.775	83023.8
-23.770	82995.8
-23.765	82977.8
-23.760	83001.8
-23.755	83019.8
-23.750	83020.8
-23.745	83021.8
-23.740	83011.8
-23.735	83020.8
-23.730	83011.8
-23.725	83012.8
-23.720	83009.8
-23.715	83016.8
-23.710	83024.8
-23.705	83020.8
-23.700	82996.8
-23.695	82998.8
-23.690	83024.8
-23.685	83027.8
-23.680	83022.8
-23.675	83032.8
-23.670	83019.8
-23.665	83018.8
-23.660	83021.8
-23.655	83021.8
-23.650	83022.8
-23.645	83024.8
-23.640	83019.8
-23.635	82998.8
-23.630	82994.8
-23.625	83010.8
-23.620	83023.8
-23.615	83018.8
-23.610	83024.8
-23.605	83021.8
-23.600	83014.8
-23.595	83015.8
-23.590	83017.8
-23.585	83023.8
-23.580	83027.8
-23.575	83034.8
-23.570	83011.8
-23.565	82997.8
-23.560	83007.8
-23.555	83036.8
-23.550	83041.8
-23.545	83043.7
-23.540	83033.8
-23.535	83032.8
-23.530	83032.8
-23.525	83039.8
-23.520	83024.8
-23.515	83036.8
-23.510	83031.8
-23.505	83016.8
-23.500	83001.8
-23.495	83010.8
-23.490	83039.8
-23.485	83048.7
-23.480	83039.8
-23.475	83040.8
-23.470	83031.8
-23.465	83032.8
-23.460	83026.8
-23.455	83033.8
-23.450	83044.8
-23.445	83045.7
-23.440	83045.8
-23.435	83031.8
-23.430	83015.8
-23.425	83043.7
-23.420	83054.7
-23.415	83054.7
-23.410	83055.7
-23.405	83064.7
-23.400	83053.7
-23.395	83049.7
-23.390	83048.7
-23.385	83053.7
-23.380	83052.7
-23.375	83058.7
-23.370	83023.8
-23.365	83016.8
-23.360	83031.8
-23.355	83051.7
-23.350	83054.7
-23.345	83053.7
-23.340	83052.7
-23.335	83057.7
-23.330	83049.7
-23.325	83054.7
-23.320	83041.8
-23.315	83054.7
-23.310	83059.7
-23.305	83053.7
-23.300	83030.8
-23.295	83037.8
-23.290	83061.7
-23.285	83068.7
-23.280	83067.7
-23.275	83071.7
-23.270	83067.7
-23.265	83068.7
-23.260	83059.7
-23.255	83057.7
-23.250	83053.7
-23.245	83066.7
-23.240	83050.7
-23.235	83031.8
-23.230	83025.8
-23.225	83050.7
-23.220	83060.7
-23.215	83066.7
-23.210	83061.7
-23.205	83060.7
-23.200	83054.7
-23.195	83053.7
-23.190	83056.7
-23.185	83061.7
-23.180	83062.7
-23.175	83078.7
-23.170	83047.7
-23.165	83030.8
-23.160	83047.7
-23.155	83079.7
-23.150	83077.7
-23.145	83083.7
-23.140	83078.7
-23.135	83069.7
-23.130	83070.7
-23.125	83067.7
-23.120	83068.7
-23.115	83075.7
-23.110	83074.7
-23.105	83055.7
-23.100	83035.8
-23.095	83047.7
-23.090	83073.7
-23.085	83082.7
-23.080	83061.7
-23.075	83067.7
-23.070	83060.7
-23.065	83060.7
-23.060	83053.7
-23.055	83061.7
-23.050	83053.7
-23.045	83069.7
-23.040	83061.7
-23.035	83038.8
-23.030	83033.8
-23.025	83069.7
-23.020	83077.7
-23.015	83080.7
-23.010	83072.7
-23.005	83079.7
-23.000	83075.7
-22.995	83067.7
-22.990	83058.7
-22.985	83074.7
-22.980	83064.7
-22.975	83066.7
-22.970	83044.8
-22.965	83041.7
-22.960	83049.7
-22.955	83069.7
-22.950	83067.7
-22.945	83066.7
-22.940	83061.7
-22.935	83055.7
-22.930	83051.7
-22.925	83065.7
-22.920	83059.7
-22.915	83065.7
-22.910	83068.7
-22.905	83057.7
-22.900	83042.8
-22.895	83044.8
-22.890	83067.7
-22.885	83074.7
-22.880	83069.7
-22.875	83077.7
-22.870	83076.7
-22.865	83072.7
-22.860	83066.7
-22.855	83067.7
-22.850	83072.7
-22.845	83068.7
-22.840	83062.7
-22.835	83042.7
-22.830	83032.8
-22.825	83069.7
-22.820	83076.7
-22.815	83074.7
-22.810	83066.7
-22.805	83068.7
-22.800	83055.7
-22.795	83063.7
-22.790	83053.7
-22.785	83062.7
-22.780	83063.7
-22.775	83079.7
-22.770	83051.7
-22.765	83030.8
-22.760	83041.8
-22.755	83071.7
-22.750	83075.7
-22.745	83080.7
-22.740	83073.7
-22.735	83067.7
-22.730	83074.7
-22.725	83072.7
-22.720	83065.7
-22.715	83070.7
-22.710	83062.7
-22.705	83045.8
-22.700	83033.8
-22.695	83046.7
-22.690	83067.7
-22.685	83072.7
-22.680	83072.7
-22.675	83060.7
-22.670	83059.7
-22.665	83062.7
-22.660	83061.7
-22.655	83063.7
-22.650	83060.7
-22.645	83076.7
-22.640	83064.7
-22.635	83048.7
-22.630	83036.8
-22.625	83065.7
-22.620	83076.7
-22.615	83079.7
-22.610	83079.7
-22.605	83073.7
-22.600	83068.7
-22.595	83066.7
-22.590	83069.7
-22.585	83077.7
-22.580	83069.7
-22.575	83071.7
-22.570	83033.8
-22.565	83034.8
-22.560	83058.7
-22.555	83078.7
-22.550	83079.7
-22.545	83078.7
-22.540	83066.7
-22.535	83057.7
-22.530	83064.7
-22.525	83070.7
-22.520	83061.7
-22.515	83078.7
-22.510	83075.7
-22.505	83061.7
-22.500	83043.8
-22.495	83050.7
-22.490	83078.7
-22.485	83072.7
-22.480	83073.7
-22.475	83076.7
-22.470	83068.7
-22.465	83073.7
-22.460	83071.7
-22.455	83070.7
-22.450	83067.7
-22.445	83073.7
-22.440	83052.7
-22.435	83044.7
-22.430	83046.7
-22.425	83072.7
-22.420	83074.7
-22.415	83067.7
-22.410	83073.7
-22.405	83072.7
-22.400	83063.7
-22.395	83065.7
-22.390	83053.7
-22.385	83062.7
-22.380	83074.7
-22.375	83080.7
-22.370	83057.7
-22.365	83040.8
-22.360	83052.7
-22.355	83077.7
-22.350	83072.7
-22.345	83071.7
-22.340	83073.7
-22.335	83076.7
-22.330	83065.7
-22.325	83064.7
-22.320	83064.7
-22.315	83067.7
-22.310	83069.7
-22.305	83045.7
-22.300	83028.8
-22.295	83044.8
-22.290	83065.7
-22.285	83073.7
-22.280	83072.7
-22.275	83066.7
-22.270	83062.7
-22.265	83059.7
-22.260	83057.7
-22.255	83061.7
-22.250	83063.7
-22.245	83076.7
-22.240	83064.7
-22.235	83034.8
-22.230	83029.8
-22.225	83075.7
-22.220	83070.7
-22.215	83069.7
-22.210	83065.7
-22.205	83061.7
-22.200	83053.7
-22.195	83056.7
-22.190	83062.7
-22.185	83059.7
-22.180	83066.7
-22.175	83059.7
-22.170	83034.8
-22.165	83018.8
-22.160	83056.7
-22.155	83058.7
-22.150	83056.7
-22.145	83055.7
-22.140	83050.7
-22.135	83057.7
-22.130	83052.7
-22.125	83054.7
-22.120	83044.7
-22.115	83062.7
-22.110	83066.7
-22.105	83045.7
-22.100	83027.8
-22.095	83044.7
-22.090	83061.7
-22.085	83058.7
-22.080	83057.7
-22.075	83056.7
-22.070	83058.7
-22.065	83059.7
-22.060	83052.7
-22.055	83054.7
-22.050	83050.7
-22.045	83057.7
-22.040	83036.8
-22.035	83023.8
-22.030	83024.8
-22.025	83053.7
-22.020	83052.7
-22.015	83052.7
-22.010	83052.7
-22.005	83052.7
-22.000	83047.7
-21.995	83043.8
-21.990	83041.8
-21.985	83045.8
-21.980	83052.7
-21.975	83059.7
-21.970	83034.8
-21.965	83029.8
-21.960	83036.8
-21.955	83050.7
-21.950	83054.7
-21.945	83057.7
-21.940	83050.7
-21.935	83045.7
-21.930	83035.8
-21.925	83041.8
-21.920	83045.7
-21.915	83043.8
-21.910	83048.7
-21.905	83025.8
-21.900	83007.8
-21.895	83020.8
-21.890	83046.7
-21.885	83050.7
-21.880	83038.8
-21.875	83041.7
-21.870	83031.8
-21.865	83042.8
-21.860	83029.8
-21.855	83041.8
-21.850	83041.7
-21.845	83046.7
-21.840	83035.8
-21.835	83024.8
-21.830	83010.8
-21.825	83051.7
-21.820	83057.7
-21.815	83050.7
-21.810	83048.7
-21.805	83050.7
-21.800	83038.8
-21.795	83038.8
-21.790	83043.8
-21.785	83047.7
-21.780	83036.8
-21.775	83032.8
-21.770	83005.8
-21.765	83004.8
-21.760	83030.8
-21.755	83034.8
-21.750	83034.8
-21.745	83039.8
-21.740	83026.8
-21.735	83024.8
-21.730	83023.8
-21.725	83028.8
-21.720	83031.8
-21.715	83027.8
-21.710	83042.8
-21.705	83028.8
-21.700	83006.8
-21.695	83023.8
-21.690	83041.8
-21.685	83044.7
-21.680	83043.7
-21.675	83032.8
-21.670	83039.8
-21.665	83033.8
-21.660	83025.8
-21.655	83041.8
-21.650	83032.8
-21.645	83032.8
-21.640	83015.8
-21.635	83007.8
-21.630	82990.8
-21.625	83034.8
-21.620	83032.8
-21.615	83039.8
-21.610	83027.8
-21.605	83036.8
-21.600	83018.8
-21.595	83019.8
-21.590	83022.8
-21.585	83029.8
-21.580	83020.8
-21.575	83033.8
-21.570	83015.8
-21.565	83001.8
-21.560	83027.8
-21.555	83035.8
-21.550	83038.8
-21.545	83041.8
-21.540	83037.8
-21.535	83030.8
-21.530	83029.8
-21.525	83033.8
-21.520	83029.8
-21.515	83031.8
-21.510	83021.8
-21.505	82999.8
-21.500	82984.8
-21.495	82989.8
-21.490	83023.8
-21.485	83013.8
-21.480	83002.8
-21.475	82979.8
-21.470	82962.8
-21.465	82941.9
-21.460	82877.9
-21.455	82822.0
-21.450	82720.1
-21.445	82594.3
-21.440	82401.5
-21.435	82146.8
-21.430	81836.1
-21.425	81476.5
-21.420	81038.0
-21.415	80606.5
-21.410	80145.1
-21.405	79666.7
-21.400	79154.4
-21.395	78557.2
-21.390	77931.0
-21.385	77333.8
-21.380	76725.6
-21.375	76039.4
-21.370	75194.4
-21.365	74267.4
-21.360	73600.3
-21.355	73382.8
-21.350	73124.2
-21.345	72914.3
-21.340	73397.9
-21.335	73603.7
-21.330	73364.7
-21.325	74046.0
-21.320	75008.3
-21.315	75953.5
-21.310	76639.0
-21.305	76716.8
-21.300	75992.3
-21.295	75100.8
-21.290	75332.5
-21.285	76002.9
-21.280	75854.9
-21.275	75912.8
-21.270	76721.2
-21.265	76257.4
-21.260	75715.8
-21.255	76811.9
-21.250	77785.2
-21.245	78073.9
-21.240	77853.0
-21.235	77566.2
-21.230	76565.9
-21.225	74358.4
-21.220	74312.4
-21.215	76658.7
-21.210	77279.3
-21.205	77203.3
-21.200	77900.7
-21.195	78448.2
-21.190	77967.5
-21.185	76314.7
-21.180	74628.8
-21.175	75277.3
-21.170	77534.7
-21.165	77872.5
-21.160	76160.7
-21.155	75212.4
-21.150	76667.2
-21.145	78336.0
-21.140	78606.8
-21.135	78133.1
-21.130	77729.4
-21.125	77856.3
-21.120	77861.2
-21.115	77552.4
-21.110	77628.3
-21.105	78209.9
-21.100	78691.5
-21.095	78851.4
-21.090	78721.5
-21.085	78577.5
-21.080	78423.6
-21.075	78330.7
-21.070	78219.8
-21.065	78089.8
-21.060	78329.7
-21.055	78906.2
-21.050	79307.9
-21.045	79397.8
-21.040	79214.0
-21.035	78753.3
-21.030	78208.7
-21.025	78079.7
-21.020	78282.6
-21.015	78603.3
-21.010	78906.1
-21.005	79010.0
-21.000	78956.0
-20.995	78998.0
-20.990	79108.9
-20.985	79212.8
-20.980	79207.8
-20.975	79122.8
-20.970	79041.9
-20.965	78982.9
-20.960	78985.9
-20.955	79061.8
-20.950	79142.8
-20.945	79263.7
-20.940	79344.6
-20.935	79340.6
-20.930	79296.6
-20.925	79235.6
-20.920	79132.7
-20.915	79072.7
-20.910	78997.8
-20.905	78857.9
-20.900	78723.0
-20.895	78768.9
-20.890	78858.9
-20.885	78914.8
-20.880	78990.7
-20.875	79076.7
-20.870	79141.6
-20.865	79197.5
-20.860	79168.6
-20.855	79133.6
-20.850	79119.6
-20.845	79174.5
-20.840	79228.5
-20.835	79323.4
-20.830	79369.4
-20.825	79415.3
-20.820	79456.3
-20.815	79524.2
-20.810	79583.2
-20.805	79651.1
-20.800	79659.1
-20.795	79708.1
-20.790	79772.0
-20.785	79790.0
-20.780	79802.0
-20.775	79826.9
-20.770	79844.9
-20.765	79863.9
-20.760	79921.8
-20.755	79953.8
-20.750	79979.8
-20.745	79973.8
-20.740	79961.8
-20.735	79943.8
-20.730	79887.8
-20.725	79875.8
-20.720	79857.8
-20.715	79842.8
-20.710	79824.8
-20.705	79802.9
-20.700	79839.8
-20.695	79887.8
-20.690	79909.8
-20.685	79939.7
-20.680	79938.7
-20.675	79914.7
-20.670	79902.7
-20.665	79926.7
-20.660	79935.7
-20.655	79924.7
-20.650	79893.7
-20.645	79887.7
-20.640	79851.8
-20.635	79856.7
-20.630	79870.7
-20.625	79968.6
-20.620	80049.6
-20.615	80104.5
-20.610	80160.5
-20.605	80206.5
-20.600	80207.4
-20.595	80254.4
-20.590	80293.4
-20.585	80322.3
-20.580	80350.3
-20.575	80349.3
-20.570	80328.3
-20.565	80343.3
-20.560	80381.3
-20.555	80404.3
-20.550	80390.3
-20.545	80401.2
-20.540	80402.2
-20.535	80396.2
-20.530	80379.3
-20.525	80394.2
-20.520	80409.2
-20.515	80426.2
-20.510	80416.2
-20.505	80380.2
-20.500	80343.3
-20.495	80350.2
-20.490	80370.2
-20.485	80381.2
-20.480	80391.2
-20.475	80379.2
-20.470	80360.2
-20.465	80336.2
-20.460	80294.3
-20.455	80293.3
-20.450	80293.3
-20.445	80302.2
-20.440	80248.3
-20.435	80221.3
-20.430	80208.3
-20.425	80235.3
-20.420	80207.3
-20.415	80170.3
-20.410	80141.3
-20.405	80127.3
-20.400	80118.3
-20.395	80135.3
-20.390	80154.3
-20.385	80185.3
-20.380	80221.3
-20.375	80240.2
-20.370	80246.2
-20.365	80291.2
-20.360	80361.1
-20.355	80406.1
-20.350	80440.1
-20.345	80476.0
-20.340	80504.0
-20.335	80524.0
-20.330	80553.0
-20.325	80579.9
-20.320	80588.9
-20.315	80609.9
-20.310	80622.9
-20.305	80608.9
-20.300	80601.9
-20.295	80635.9
-20.290	80641.9
-20.285	80616.9
-20.280	80591.9
-20.275	80584.9
-20.270	80605.9
-20.265	80584.9
-20.260	80552.9
-20.255	80537.9
-20.250	80549.9
-20.245	80570.9
-20.240	80558.9
-20.235	80545.9
-20.230	80540.9
-20.225	80575.9
-20.220	80597.9
-20.215	80617.8
-20.210	80613.9
-20.205	80627.8
-20.200	80630.8
-20.195	80636.8
-20.190	80630.8
-20.185	80642.8
-20.180	80640.8
-20.175	80624.8
-20.170	80622.8
-20.165	80637.8
-20.160	80669.8
-20.155	80700.8
-20.150	80723.7
-20.145	80741.7
-20.140	80754.7
-20.135	80779.7
-20.130	80796.7
-20.125	80801.7
-20.120	80835.6
-20.115	80871.6
-20.110	80889.6
-20.105	80877.6
-20.100	80871.6
-20.095	80891.6
-20.090	80905.6
-20.085	80901.6
-20.080	80897.6
-20.075	80904.6
-20.070	80903.6
-20.065	80910.6
-20.060	80913.5
-20.055	80909.5
-20.050	80901.6
-20.045	80910.5
-20.040	80886.6
-20.035	80864.6
-20.030	80882.6
-20.025	80914.5
-20.020	80914.5
-20.015	80920.5
-20.010	80922.5
-20.005	80936.5
-20.000	80936.5
-19.995	80947.5
-19.990	80939.5
-19.985	80940.5
-19.980	80924.5
-19.975	80908.5
-19.970	80884.5
-19.965	80874.5
-19.960	80901.5
-19.955	80918.5
-19.950	80900.5
-19.945	80890.5
-19.940	80868.5
-19.935	80841.5
-19.930	80812.6
-19.925	80807.6
-19.920	80789.6
-19.915	80791.6
-19.910	80776.6
-19.905	80742.6
-19.900	80724.6
-19.895	80741.6
-19.890	80737.6
-19.885	80730.6
-19.880	80722.6
-19.875	80694.6
-19.870	80664.7
-19.865	80637.7
-19.860	80633.7
-19.855	80655.6
-19.850	80669.6
-19.845	80672.6
-19.840	80638.7
-19.835	80612.7
-19.830	80630.7
-19.825	80672.6
-19.820	80687.6
-19.815	80691.6
-19.810	80689.6
-19.805	80691.6
-19.800	80677.6
-19.795	80672.6
-19.790	80687.6
-19.785	80681.6
-19.780	80675.6
-19.775	80659.6
-19.770	80633.6
-19.765	80644.6
-19.760	80687.6
-19.755	80688.6
-19.750	80681.6
-19.745	80661.6
-19.740	80668.6
-19.735	80676.6
-19.730	80673.6
-19.725	80673.6
-19.720	80667.6
-19.715	80676.6
-19.710	80657.6
-19.705	80641.6
-19.700	80629.6
-19.695	80665.6
-19.690	80684.6
-19.685	80699.5
-19.680	80691.5
-19.675	80680.5
-19.670	80651.6
-19.665	80651.6
-19.660	80646.6
-19.655	80660.6
-19.650	80646.6
-19.645	80642.6
-19.640	80620.6
-19.635	80628.6
-19.630	80642.6
-19.625	80686.5
-19.620	80710.5
-19.615	80722.5
-19.610	80722.5
-19.605	80739.5
-19.600	80780.5
-19.595	80807.4
-19.590	80840.4
-19.585	80859.4
-19.580	80848.4
-19.575	80829.4
-19.570	80828.4
-19.565	80854.4
-19.560	80899.4
-19.555	80907.3
-19.550	80925.3
-19.545	80928.3
-19.540	80939.3
-19.535	80959.3
-19.530	80976.3
-19.525	80996.3
-19.520	81016.3
-19.515	81019.3
-19.510	81028.3
-19.505	81005.3
-19.500	80990.3
-19.495	81014.3
-19.490	81023.2
-19.485	81016.3
-19.480	81008.3
-19.475	80995.3
-19.470	80984.3
-19.465	80972.3
-19.460	80959.3
-19.455	80960.3
-19.450	80956.3
-19.445	80953.3
-19.440	80913.3
-19.435	80897.3
-19.430	80898.3
-19.425	80918.3
-19.420	80913.3
-19.415	80919.3
-19.410	80905.3
-19.405	80909.3
-19.400	80882.3
-19.395	80867.3
-19.390	80846.4
-19.385	80851.3
-19.380	80852.3
-19.375	80847.3
-19.370	80857.3
-19.365	80864.3
-19.360	80882.3
-19.355	80877.3
-19.350	80898.3
-19.345	80924.3
-19.340	80943.3
-19.335	80937.3
-19.330	80945.3
-19.325	80960.3
-19.320	80980.2
-19.315	81019.2
-19.310	81043.2
-19.305	81064.2
-19.300	81075.2
-19.295	81140.1
-19.290	81154.1
-19.285	81166.1
-19.280	81187.1
-19.275	81208.1
-19.270	81210.1
-19.265	81221.0
-19.260	81237.0
-19.255	81252.0
-19.250	81257.0
-19.245	81267.0
-19.240	81250.0
-19.235	81251.0
-19.230	81259.0
-19.225	81279.0
-19.220	81274.0
-19.215	81262.0
-19.210	81243.0
-19.205	81250.0
-19.200	81237.0
-19.195	81231.0
-19.190	81225.0
-19.185	81221.0
-19.180	81220.0
-19.175	81187.0
-19.170	81152.1
-19.165	81147.1
-19.160	81157.1
-19.155	81164.1
-19.150	81149.1
-19.145	81139.1
-19.140	81120.1
-19.135	81121.1
-19.130	81105.1
-19.125	81099.1
-19.120	81096.1
-19.115	81124.1
-19.110	81127.1
-19.105	81111.1
-19.100	81108.1
-19.095	81131.1
-19.090	81133.1
-19.085	81118.1
-19.080	81122.1
-19.075	81135.1
-19.070	81131.1
-19.065	81133.1
-19.060	81127.1
-19.055	81130.1
-19.050	81150.0
-19.045	81167.0
-19.040	81139.1
-19.035	81134.1
-19.030	81146.0
-19.025	81156.0
-19.020	81146.0
-19.015	81140.0
-19.010	81133.0
-19.005	81122.1
-19.000	81115.1
-18.995	81108.1
-18.990	81122.1
-18.985	81123.0
-18.980	81121.0
-18.975	81111.1
-18.970	81089.1
-18.965	81108.1
-18.960	81138.0
-18.955	81136.0
-18.950	81120.0
-18.945	81111.0
-18.940	81096.1
-18.935	81099.1
-18.930	81097.1
-18.925	81097.1
-18.920	81096.1
-18.915	81099.1
-18.910	81087.1
-18.905	81046.1
-18.900	81040.1
-18.895	81076.1
-18.890	81081.1
-18.885	81083.1
-18.880	81104.0
-18.875	81106.0
-18.870	81105.0
-18.865	81102.0
-18.860	81089.0
-18.855	81092.0
-18.850	81095.0
-18.845	81103.0
-18.840	81071.1
-18.835	81064.1
-18.830	81099.0
-18.825	81134.0
-18.820	81148.0
-18.815	81165.0
-18.810	81171.0
-18.805	81198.0
-18.800	81222.9
-18.795	81241.9
-18.790	81258.9
-18.785	81271.9
-18.780	81281.9
-18.775	81284.9
-18.770	81278.9
-18.765	81312.9
-18.760	81331.8
-18.755	81339.8
-18.750	81329.9
-18.745	81335.8
-18.740	81334.8
-18.735	81344.8
-18.730	81353.8
-18.725	81365.8
-18.720	81360.8
-18.715	81378.8
-18.710	81366.8
-18.705	81348.8
-18.700	81348.8
-18.695	81385.8
-18.690	81396.8
-18.685	81400.8
-18.680	81411.8
-18.675	81422.8
-18.670	81424.8
-18.665	81430.8
-18.660	81432.8
-18.655	81435.8
-18.650	81452.7
-18.645	81463.7
-18.640	81444.7
-18.635	81436.7
-18.630	81456.7
-18.625	81473.7
-18.620	81480.7
-18.615	81494.7
-18.610	81485.7
-18.605	81478.7
-18.600	81458.7
-18.595	81460.7
-18.590	81470.7
-18.585	81481.7
-18.580	81480.7
-18.575	81460.7
-18.570	81454.7
-18.565	81464.7
-18.560	81481.7
-18.555	81491.7
-18.550	81482.7
-18.545	81484.7
-18.540	81475.7
-18.535	81477.7
-18.530	81476.7
-18.525	81474.7
-18.520	81473.7
-18.515	81479.7
-18.510	81476.7
-18.505	81456.7
-18.500	81450.7
-18.495	81481.7
-18.490	81481.7
-18.485	81482.7
-18.480	81474.7
-18.475	81489.7
-18.470	81483.7
-18.465	81489.7
-18.460	81489.7
-18.455	81497.7
-18.450	81494.7
-18.445	81498.7
-18.440	81481.7
-18.435	81466.7
-18.430	81484.7
-18.425	81502.7
-18.420	81498.7
-18.415	81491.7
-18.410	81486.7
-18.405	81490.7
-18.400	81483.7
-18.395	81482.7
-18.390	81498.7
-18.385	81505.7
-18.380	81499.7
-18.375	81485.7
-18.370	81472.7
-18.365	81482.7
-18.360	81510.6
-18.355	81517.6
-18.350	81527.6
-18.345	81530.6
-18.340	81533.6
-18.335	81531.6
-18.330	81524.6
-18.325	81525.6
-18.320	81517.6
-18.315	81534.6
-18.310	81511.6
-18.305	81500.6
-18.300	81505.6
-18.295	81542.6
-18.290	81535.6
-18.285	81540.6
-18.280	81539.6
-18.275	81536.6
-18.270	81522.6
-18.265	81522.6
-18.260	81512.6
-18.255	81507.6
-18.250	81505.6
-18.245	81502.6
-18.240	81476.7
-18.235	81456.7
-18.230	81465.7
-18.225	81469.7
-18.220	81470.7
-18.215	81463.7
-18.210	81460.7
-18.205	81445.7
-18.200	81419.7
-18.195	81418.7
-18.190	81407.7
-18.185	81398.7
-18.180	81395.7
-18.175	81370.7
-18.170	81357.7
-18.165	81375.7
-18.160	81395.7
-18.155	81387.7
-18.150	81379.7
-18.145	81366.7
-18.140	81333.8
-18.135	81321.8
-18.130	81301.8
-18.125	81301.8
-18.120	81296.8
-18.115	81305.8
-18.110	81305.8
-18.105	81280.8
-18.100	81276.8
-18.095	81304.8
-18.090	81292.8
-18.085	81296.8
-18.080	81293.8
-18.075	81306.8
-18.070	81310.8
-18.065	81328.7
-18.060	81339.7
-18.055	81352.7
-18.050	81355.7
-18.045	81345.7
-18.040	81326.7
-18.035	81343.7
-18.030	81381.7
-18.025	81398.7
-18.020	81409.7
-18.015	81412.7
-18.010	81411.7
-18.005	81427.7
-18.000	81433.7
-17.995	81431.7
-17.990	81444.6
-17.985	81451.6
-17.980	81450.6
-17.975	81453.6
-17.970	81431.7
-17.965	81453.6
-17.960	81485.6
-17.955	81496.6
-17.950	81499.6
-17.945	81489.6
-17.940	81483.6
-17.935	81491.6
-17.930	81485.6
-17.925	81504.6
-17.920	81496.6
-17.915	81502.6
-17.910	81481.6
-17.905	81469.6
-17.900	81475.6
-17.895	81496.6
-17.890	81501.6
-17.885	81492.6
-17.880	81506.6
-17.875	81519.6
-17.870	81509.6
-17.865	81514.6
-17.860	81504.6
-17.855	81532.6
-17.850	81522.6
-17.845	81525.6
-17.840	81498.6
-17.835	81495.6
-17.830	81508.6
-17.825	81534.6
-17.820	81545.6
-17.815	81550.6
-17.810	81552.6
-17.805	81548.6
-17.800	81554.5
-17.795	81563.5
-17.790	81559.5
-17.785	81571.5
-17.780	81571.5
-17.775	81555.5
-17.770	81538.6
-17.765	81569.5
-17.760	81594.5
-17.755	81603.5
-17.750	81600.5
-17.745	81595.5
-17.740	81594.5
-17.735	81594.5
-17.730	81601.5
-17.725	81604.5
-17.720	81600.5
-17.715	81605.5
-17.710	81609.5
-17.705	81593.5
-17.700	81599.5
-17.695	81623.5
-17.690	81630.5
-17.685	81626.5
-17.680	81625.5
-17.675	81617.5
-17.670	81619.5
-17.665	81614.5
-17.660	81612.5
-17.655	81612.5
-17.650	81594.5
-17.645	81582.5
-17.640	81554.5
-17.635	81549.5
-17.630	81587.5
-17.625	81597.5
-17.620	81581.5
-17.615	81584.5
-17.610	81573.5
-17.605	81576.5
-17.600	81577.5
-17.595	81575.5
-17.590	81573.5
-17.585	81590.5
-17.580	81590.5
-17.575	81580.5
-17.570	81554.5
-17.565	81582.5
-17.560	81597.5
-17.555	81620.5
-17.550	81607.5
-17.545	81619.5
-17.540	81606.5
-17.535	81595.5
-17.530	81598.5
-17.525	81611.5
-17.520	81614.5
-17.515	81617.5
-17.510	81587.5
-17.505	81589.5
-17.500	81606.5
-17.495	81647.4
-17.490	81647.4
-17.485	81658.4
-17.480	81649.4
-17.475	81649.4
-17.470	81651.4
-17.465	81635.4
-17.460	81643.4
-17.455	81648.4
-17.450	81662.4
-17.445	81651.4
-17.440	81626.4
-17.435	81621.4
-17.430	81663.4
-17.425	81680.4
-17.420	81673.4
-17.415	81671.4
-17.410	81662.4
-17.405	81672.4
-17.400	81662.4
-17.395	81674.4
-17.390	81682.4
-17.385	81688.4
-17.380	81693.4
-17.375	81678.4
-17.370	81678.4
-17.365	81692.4
-17.360	81717.4
-17.355	81726.4
-17.350	81712.4
-17.345	81720.4
-17.340	81711.4
-17.335	81724.4
-17.330	81723.4
-17.325	81727.4
-17.320	81732.4
-17.315	81744.3
-17.310	81730.4
-17.305	81730.4
-17.300	81729.4
-17.295	81760.3
-17.290	81748.3
-17.285	81753.3
-17.280	81745.3
-17.275	81746.3
-17.270	81744.3
-17.265	81748.3
-17.260	81744.3
-17.255	81752.3
-17.250	81759.3
-17.245	81744.3
-17.240	81729.3
-17.235	81722.4
-17.230	81742.3
-17.225	81742.3
-17.220	81727.3
-17.215	81729.3
-17.210	81715.4
-17.205	81705.4
-17.200	81703.4
-17.195	81711.4
-17.190	81706.4
-17.185	81718.4
-17.180	81725.3
-17.175	81707.4
-17.170	81698.4
-17.165	81715.4
-17.160	81743.3
-17.155	81726.3
-17.150	81730.3
-17.145	81735.3
-17.140	81736.3
-17.135	81738.3
-17.130	81737.3
-17.125	81745.3
-17.120	81743.3
-17.115	81754.3
-17.110	81727.3
-17.105	81726.3
-17.100	81729.3
-17.095	81753.3
-17.090	81754.3
-17.085	81747.3
-17.080	81742.3
-17.075	81749.3
-17.070	81750.3
-17.065	81756.3
-17.060	81755.3
-17.055	81757.3
-17.050	81764.3
-17.045	81766.3
-17.040	81744.3
-17.035	81735.3
-17.030	81765.3
-17.025	81779.3
-17.020	81775.3
-17.015	81771.3
-17.010	81769.3
-17.005	81769.3
-17.000	81761.3
-16.995	81764.3
-16.990	81759.3
-16.985	81760.3
-16.980	81751.3
-16.975	81738.3
-16.970	81716.3
-16.965	81735.3
-16.960	81761.3
-16.955	81763.3
-16.950	81753.3
-16.945	81760.3
-16.940	81750.3
-16.935	81754.3
-16.930	81737.3
-16.925	81738.3
-16.920	81747.3
-16.915	81752.3
-16.910	81734.3
-16.905	81713.3
-16.900	81728.3
-16.895	81756.3
-16.890	81732.3
-16.885	81729.3
-16.880	81724.3
-16.875	81711.3
-16.870	81701.3
-16.865	81692.3
-16.860	81692.3
-16.855	81686.3
-16.850	81666.4
-16.845	81660.4
-16.840	81633.4
-16.835	81636.4
-16.830	81659.4
-16.825	81669.4
-16.820	81672.4
-16.815	81672.4
-16.810	81656.4
-16.805	81645.4
-16.800	81649.4
-16.795	81660.4
-16.790	81652.4
-16.785	81663.4
-16.780	81667.4
-16.775	81649.4
-16.770	81633.4
-16.765	81668.4
-16.760	81679.3
-16.755	81674.3
-16.750	81658.4
-16.745	81661.4
-16.740	81651.4
-16.735	81652.4
-16.730	81659.4
-16.725	81655.4
-16.720	81663.4
-16.715	81668.3
-16.710	81650.4
-16.705	81632.4
-16.700	81636.4
-16.695	81667.3
-16.690	81661.3
-16.685	81662.3
-16.680	81645.4
-16.675	81641.4
-16.670	81633.4
-16.665	81635.4
-16.660	81626.4
-16.655	81640.4
-16.650	81636.4
-16.645	81630.4
-16.640	81603.4
-16.635	81605.4
-16.630	81638.4
-16.625	81636.4
-16.620	81627.4
-16.615	81630.4
-16.610	81612.4
-16.605	81616.4
-16.600	81618.4
-16.595	81627.4
-16.590	81621.4
-16.585	81625.4
-16.580	81614.4
-16.575	81594.4
-16.570	81584.4
-16.565	81610.4
-16.560	81617.4
-16.555	81622.4
-16.550	81623.4
-16.545	81609.4
-16.540	81614.4
-16.535	81607.4
-16.530	81605.4
-16.525	81611.4
-16.520	81622.4
-16.515	81628.4
-16.510	81603.4
-16.505	81605.4
-16.500	81612.4
-16.495	81659.3
-16.490	81673.3
-16.485	81673.3
-16.480	81659.3
-16.475	81656.3
-16.470	81656.3
-16.465	81651.3
-16.460	81657.3
-16.455	81664.3
-16.450	81660.3
-16.445	81657.3
-16.440	81652.3
-16.435	81656.3
-16.430	81677.3
-16.425	81691.3
-16.420	81667.3
-16.415	81671.3
-16.410	81680.3
-16.405	81681.3
-16.400	81678.3
-16.395	81676.3
-16.390	81688.3
-16.385	81702.3
-16.380	81691.3
-16.375	81675.3
-16.370	81675.3
-16.365	81706.3
-16.360	81715.3
-16.355	81729.3
-16.350	81726.3
-16.345	81724.3
-16.340	81710.3
-16.335	81715.3
-16.330	81705.3
-16.325	81710.3
-16.320	81710.3
-16.315	81716.3
-16.310	81684.3
-16.305	81669.3
-16.300	81688.3
-16.295	81720.3
-16.290	81715.3
-16.285	81714.3
-16.280	81701.3
-16.275	81706.3
-16.270	81690.3
-16.265	81688.3
-16.260	81689.3
-16.255	81691.3
-16.250	81691.3
-16.245	81670.3
-16.240	81642.3
-16.235	81641.3
-16.230	81671.3
-16.225	81676.3
-16.220	81665.3
-16.215	81664.3
-16.210	81664.3
-16.205	81658.3
-16.200	81647.3
-16.195	81647.3
-16.190	81629.3
-16.185	81615.3
-16.180	81600.4
-16.175	81575.4
-16.170	81580.4
-16.165	81601.4
-16.160	81595.4
-16.155	81586.4
-16.150	81561.4
-16.145	81564.4
-16.140	81556.4
-16.135	81548.4
-16.130	81535.4
-16.125	81532.4
-16.120	81526.4
-16.115	81528.4
-16.110	81509.4
-16.105	81508.4
-16.100	81517.4
-16.095	81536.4
-16.090	81538.4
-16.085	81540.4
-16.080	81538.4
-16.075	81540.4
-16.070	81534.4
-16.065	81539.4
-16.060	81551.4
-16.055	81552.4
-16.050	81545.4
-16.045	81526.4
-16.040	81501.4
-16.035	81510.4
-16.030	81550.4
-16.025	81546.4
-16.020	81539.4
-16.015	81547.4
-16.010	81552.4
-16.005	81562.4
-16.000	81567.4
-15.995	81579.4
-15.990	81584.4
-15.985	81578.4
-15.980	81580.4
-15.975	81573.4
-15.970	81573.4
-15.965	81598.3
-15.960	81611.3
-15.955	81627.3
-15.950	81624.3
-15.945	81641.3
-15.940	81647.3
-15.935	81646.3
-15.930	81633.3
-15.925	81654.3
-15.920	81654.3
-15.915	81670.3
-15.910	81640.3
-15.905	81636.3
-15.900	81665.3
-15.895	81684.3
-15.890	81700.3
-15.885	81701.3
-15.880	81693.3
-15.875	81706.3
-15.870	81709.3
-15.865	81707.3
-15.860	81717.2
-15.855	81736.2
-15.850	81739.2
-15.845	81732.2
-15.840	81724.2
-15.835	81722.2
-15.830	81751.2
-15.825	81763.2
-15.820	81761.2
-15.815	81757.2
-15.810	81762.2
-15.805	81760.2
-15.800	81745.2
-15.795	81751.2
-15.790	81755.2
-15.785	81762.2
-15.780	81747.2
-15.775	81729.2
-15.770	81721.2
-15.765	81753.2
-15.760	81758.2
-15.755	81766.2
-15.750	81753.2
-15.745	81752.2
-15.740	81749.2
-15.735	81742.2
-15.730	81732.2
-15.725	81745.2
-15.720	81749.2
-15.715	81761.2
-15.710	81724.2
-15.705	81715.2
-15.700	81717.2
-15.695	81732.2
-15.690	81744.2
-15.685	81749.2
-15.680	81737.2
-15.675	81727.2
-15.670	81720.2
-15.665	81718.2
-15.660	81715.2
-15.655	81713.2
-15.650	81712.2
-15.645	81689.3
-15.640	81668.3
-15.635	81675.3
-15.630	81695.2
-15.625	81685.3
-15.620	81689.3
-15.615	81683.3
-15.610	81681.3
-15.605	81683.3
-15.600	81683.3
-15.595	81692.2
-15.590	81700.2
-15.585	81711.2
-15.580	81698.2
-15.575	81681.3
-15.570	81672.3
-15.565	81702.2
-15.560	81706.2
-15.555	81713.2
-15.550	81706.2
-15.545	81707.2
-15.540	81703.2
-15.535	81697.2
-15.530	81693.2
-15.525	81693.2
-15.520	81685.2
-15.515	81688.2
-15.510	81648.3
-15.505	81643.3
-15.500	81664.3
-15.495	81685.2
-15.490	81677.3
-15.485	81687.2
-15.480	81686.2
-15.475	81691.2
-15.470	81692.2
-15.465	81690.2
-15.460	81691.2
-15.455	81702.2
-15.450	81702.2
-15.445	81686.2
-15.440	81671.3
-15.435	81683.2
-15.430	81699.2
-15.425	81719.2
-15.420	81714.2
-15.415	81712.2
-15.410	81707.2
-15.405	81712.2
-15.400	81709.2
-15.395	81722.2
-15.390	81730.2
-15.385	81736.2
-15.380	81711.2
-15.375	81687.2
-15.370	81680.2
-15.365	81719.2
-15.360	81716.2
-15.355	81722.2
-15.350	81718.2
-15.345	81712.2
-15.340	81703.2
-15.335	81703.2
-15.330	81697.2
-15.325	81696.2
-15.320	81715.2
-15.315	81725.2
-15.310	81690.2
-15.305	81676.2
-15.300	81692.2
-15.295	81699.2
-15.290	81697.2
-15.285	81692.2
-15.280	81683.2
-15.275	81674.2
-15.270	81657.3
-15.265	81647.3
-15.260	81646.3
-15.255	81659.2
-15.250	81655.3
-15.245	81632.3
-15.240	81592.3
-15.235	81598.3
-15.230	81610.3
-15.225	81605.3
-15.220	81591.3
-15.215	81572.3
-15.210	81544.3
-15.205	81539.3
-15.200	81528.3
-15.195	81510.4
-15.190	81505.4
-15.185	81489.4
-15.180	81473.4
-15.175	81427.4
-15.170	81404.4
-15.165	81426.4
-15.160	81418.4
-15.155	81412.4
-15.150	81399.4
-15.145	81393.4
-15.140	81382.4
-15.135	81392.4
-15.130	81383.4
-15.125	81383.4
-15.120	81385.4
-15.115	81382.4
-15.110	81364.5
-15.105	81351.5
-15.100	81373.5
-15.095	81389.4
-15.090	81387.4
-15.085	81378.4
-15.080	81365.5
-15.075	81359.5
-15.070	81355.5
-15.065	81349.5
-15.060	81353.5
-15.055	81372.5
-15.050	81375.5
-15.045	81361.5
-15.040	81342.5
-15.035	81356.5
-15.030	81392.4
-15.025	81403.4
-15.020	81419.4
-15.015	81436.4
-15.010	81439.4
-15.005	81450.4
-15.000	81456.4
-14.995	81470.4
-14.990	81476.4
-14.985	81509.4
-14.980	81499.4
-14.975	81491.4
-14.970	81504.4
-14.965	81545.3
-14.960	81545.3
-14.955	81556.3
-14.950	81555.3
-14.945	81570.3
-14.940	81556.3
-14.935	81581.3
-14.930	81594.3
-14.925	81597.3
-14.920	81617.3
-14.915	81622.3
-14.910	81615.3
-14.905	81613.3
-14.900	81632.3
-14.895	81651.2
-14.890	81663.2
-14.885	81669.2
-14.880	81676.2
-14.875	81678.2
-14.870	81675.2
-14.865	81685.2
-14.860	81690.2
-14.855	81695.2
-14.850	81695.2
-14.845	81677.2
-14.840	81673.2
-14.835	81689.2
-14.830	81711.2
-14.825	81700.2
-14.820	81707.2
-14.815	81700.2
-14.810	81696.2
-14.805	81696.2
-14.800	81698.2
-14.795	81702.2
-14.790	81708.2
-14.785	81718.2
-14.780	81691.2
-14.775	81683.2
-14.770	81675.2
-14.765	81704.2
-14.760	81696.2
-14.755	81699.2
-14.750	81691.2
-14.745	81690.2
-14.740	81688.2
-14.735	81679.2
-14.730	81683.2
-14.725	81696.2
-14.720	81695.2
-14.715	81693.2
-14.710	81661.2
-14.705	81646.2
-14.700	81660.2
-14.695	81677.2
-14.690	81673.2
-14.685	81684.2
-14.680	81668.2
-14.675	81668.2
-14.670	81663.2
-14.665	81666.2
-14.660	81657.2
-14.655	81678.2
-14.650	81684.2
-14.645	81656.2
-14.640	81651.2
-14.635	81663.2
-14.630	81699.2
-14.625	81702.2
-14.620	81701.2
-14.615	81693.2
-14.610	81688.2
-14.605	81695.2
-14.600	81687.2
-14.595	81711.2
-14.590	81699.2
-14.585	81709.2
-14.580	81694.2
-14.575	81677.2
-14.570	81697.2
-14.565	81728.2
-14.560	81721.2
-14.555	81732.2
-14.550	81722.2
-14.545	81727.2
-14.540	81721.2
-14.535	81734.2
-14.530	81717.2
-14.525	81735.2
-14.520	81741.1
-14.515	81748.1
-14.510	81725.2
-14.505	81725.2
-14.500	81746.1
-14.495	81764.1
-14.490	81767.1
-14.485	81769.1
-14.480	81769.1
-14.475	81775.1
-14.470	81767.1
-14.465	81765.1
-14.460	81767.1
-14.455	81774.1
-14.450	81787.1
-14.445	81767.1
-14.440	81760.1
-14.435	81784.1
-14.430	81801.1
-14.425	81800.1
-14.420	81804.1
-14.415	81800.1
-14.410	81798.1
-14.405	81799.1
-14.400	81803.1
-14.395	81810.1
-14.390	81805.1
-14.385	81810.1
-14.380	81802.1
-14.375	81792.1
-14.370	81784.1
-14.365	81817.1
-14.360	81826.1
-14.355	81826.1
-14.350	81817.1
-14.345	81820.1
-14.340	81818.1
-14.335	81826.1
-14.330	81822.1
-14.325	81826.1
-14.320	81815.1
-14.315	81807.1
-14.310	81784.1
-14.305	81793.1
-14.300	81815.1
-14.295	81815.1
-14.290	81814.1
-14.285	81819.1
-14.280	81810.1
-14.275	81807.1
-14.270	81815.1
-14.265	81811.1
-14.260	81805.1
-14.255	81813.1
-14.250	81817.1
-14.245	81792.1
-14.240	81779.1
-14.235	81794.1
-14.230	81808.1
-14.225	81811.1
-14.220	81814.1
-14.215	81823.1
-14.210	81823.1
-14.205	81815.1
-14.200	81811.1
-14.195	81814.1
-14.190	81814.1
-14.185	81822.1
-14.180	81805.1
-14.175	81788.1
-14.170	81791.1
-14.165	81815.1
-14.160	81820.1
-14.155	81808.1
-14.150	81799.1
-14.145	81807.1
-14.140	81806.1
-14.135	81814.1
-14.130	81805.1
-14.125	81810.1
-14.120	81826.1
-14.115	81830.1
-14.110	81805.1
-14.105	81804.1
-14.100	81825.1
-14.095	81831.1
-14.090	81828.1
-14.085	81835.1
-14.080	81823.1
-14.075	81821.1
-14.070	81822.1
-14.065	81836.1
-14.060	81828.1
-14.055	81831.1
-14.050	81842.1
-14.045	81822.1
-14.040	81805.1
-14.035	81838.1
-14.030	81848.0
-14.025	81843.0
-14.020	81836.1
-14.015	81834.1
-14.010	81834.1
-14.005	81832.1
-14.000	81831.1
-13.995	81835.1
-13.990	81835.1
-13.985	81843.0
-13.980	81835.0
-13.975	81821.1
-13.970	81811.1
-13.965	81842.0
-13.960	81840.0
-13.955	81848.0
-13.950	81837.0
-13.945	81854.0
-13.940	81841.0
-13.935	81836.0
-13.930	81837.0
-13.925	81834.0
-13.920	81839.0
-13.915	81817.1
-13.910	81793.1
-13.905	81795.1
-13.900	81822.1
-13.895	81825.1
-13.890	81833.0
-13.885	81832.0
-13.880	81823.1
-13.875	81830.0
-13.870	81821.1
-13.865	81835.0
-13.860	81830.1
-13.855	81850.0
-13.850	81847.0
-13.845	81827.0
-13.840	81813.1
-13.835	81829.0
-13.830	81850.0
-13.825	81862.0
-13.820	81852.0
-13.815	81860.0
-13.810	81856.0
-13.805	81859.0
-13.800	81853.0
-13.795	81864.0
-13.790	81860.0
-13.785	81867.0
-13.780	81844.0
-13.775	81833.0
-13.770	81843.0
-13.765	81876.0
-13.760	81868.0
-13.755	81873.0
-13.750	81872.0
-13.745	81868.0
-13.740	81864.0
-13.735	81878.0
-13.730	81875.0
-13.725	81879.0
-13.720	81880.0
-13.715	81882.0
-13.710	81858.0
-13.705	81858.0
-13.700	81894.0
-13.695	81913.0
-13.690	81900.0
-13.685	81897.0
-13.680	81895.0
-13.675	81900.0
-13.670	81882.0
-13.665	81888.0
-13.660	81889.0
-13.655	81888.0
-13.650	81878.0
-13.645	81852.0
-13.640	81850.0
-13.635	81863.0
-13.630	81875.0
-13.625	81874.0
-13.620	81862.0
-13.615	81861.0
-13.610	81858.0
-13.605	81856.0
-13.600	81849.0
-13.595	81862.0
-13.590	81855.0
-13.585	81857.0
-13.580	81833.0
-13.575	81818.0
-13.570	81813.0
-13.565	81854.0
-13.560	81852.0
-13.555	81849.0
-13.550	81830.0
-13.545	81821.0
-13.540	81814.0
-13.535	81801.1
-13.530	81803.1
-13.525	81799.1
-13.520	81802.1
-13.515	81788.1
-13.510	81752.1
-13.505	81744.1
-13.500	81769.1
-13.495	81761.1
-13.490	81755.1
-13.485	81749.1
-13.480	81730.1
-13.475	81729.1
-13.470	81724.1
-13.465	81712.1
-13.460	81712.1
-13.455	81716.1
-13.450	81708.1
-13.445	81680.1
-13.440	81666.1
-13.435	81675.1
-13.430	81687.1
-13.425	81690.1
-13.420	81692.1
-13.415	81705.1
-13.410	81694.1
-13.405	81696.1
-13.400	81678.1
-13.395	81688.1
-13.390	81684.1
-13.385	81699.1
-13.380	81677.1
-13.375	81659.2
-13.370	81670.1
-13.365	81693.1
-13.360	81698.1
-13.355	81692.1
-13.350	81688.1
-13.345	81701.1
-13.340	81698.1
-13.335	81699.1
-13.330	81689.1
-13.325	81711.1
-13.320	81716.1
-13.315	81718.1
-13.310	81691.1
-13.305	81680.1
-13.300	81716.1
-13.295	81729.1
-13.290	81733.1
-13.285	81740.1
-13.280	81745.1
-13.275	81735.1
-13.270	81728.1
-13.265	81726.1
-13.260	81728.1
-13.255	81733.1
-13.250	81740.1
-13.245	81715.1
-13.240	81706.1
-13.235	81737.1
-13.230	81759.1
-13.225	81752.1
-13.220	81755.1
-13.215	81756.1
-13.210	81756.1
-13.205	81762.1
-13.200	81763.1
-13.195	81775.1
-13.190	81772.1
-13.185	81780.1
-13.180	81767.1
-13.175	81752.1
-13.170	81751.1
-13.165	81787.1
-13.160	81784.1
-13.155	81798.0
-13.150	81787.0
-13.145	81785.1
-13.140	81787.0
-13.135	81790.1
-13.130	81784.0
-13.125	81795.0
-13.120	81781.1
-13.115	81765.1
-13.110	81742.1
-13.105	81754.1
-13.100	81775.1
-13.095	81780.0
-13.090	81779.1
-13.085	81773.1
-13.080	81770.1
-13.075	81754.1
-13.070	81765.1
-13.065	81764.1
-13.060	81766.1
-13.055	81777.1
-13.050	81775.1
-13.045	81747.1
-13.040	81725.1
-13.035	81753.1
-13.030	81761.1
-13.025	81764.1
-13.020	81763.1
-13.015	81758.1
-13.010	81762.1
-13.005	81752.1
-13.000	81756.1
-12.995	81752.1
-12.990	81748.1
-12.985	81752.1
-12.980	81723.1
-12.975	81718.1
-12.970	81725.1
-12.965	81756.1
-12.960	81750.1
-12.955	81746.1
-12.950	81744.1
-12.945	81742.1
-12.940	81732.1
-12.935	81740.1
-12.930	81738.1
-12.925	81745.1
-12.920	81752.1
-12.915	81740.1
-12.910	81725.1
-12.905	81715.1
-12.900	81745.1
-12.895	81751.1
-12.890	81752.1
-12.885	81760.1
-12.880	81747.1
-12.875	81759.1
-12.870	81759.1
-12.865	81768.1
-12.860	81759.1
-12.855	81761.1
-12.850	81750.1
-12.845	81742.1
-12.840	81737.1
-12.835	81765.1
-12.830	81783.0
-12.825	81784.0
-12.820	81768.0
-12.815	81768.0
-12.810	81771.0
-12.805	81767.1
-12.800	81772.0
-12.795	81778.0
-12.790	81786.0
-12.785	81786.0
-12.780	81780.0
-12.775	81758.1
-12.770	81768.0
-12.765	81802.0
-12.760	81790.0
-12.755	81797.0
-12.750	81789.0
-12.745	81786.0
-12.740	81777.0
-12.735	81787.0
-12.730	81786.0
-12.725	81780.0
-12.720	81795.0
-12.715	81780.0
-12.710	81753.1
-12.705	81760.1
-12.700	81792.0
-12.695	81802.0
-12.690	81796.0
-12.685	81797.0
-12.680	81798.0
-12.675	81803.0
-12.670	81795.0
-12.665	81809.0
-12.660	81815.0
-12.655	81818.0
-12.650	81816.0
-12.645	81799.0
-12.640	81784.0
-12.635	81809.0
-12.630	81822.0
-12.625	81823.0
-12.620	81812.0
-12.615	81816.0
-12.610	81808.0
-12.605	81823.0
-12.600	81813.0
-12.595	81829.0
-12.590	81819.0
-12.585	81824.0
-12.580	81787.0
-12.575	81778.0
-12.570	81796.0
-12.565	81819.0
-12.560	81814.0
-12.555	81815.0
-12.550	81813.0
-12.545	81814.0
-12.540	81813.0
-12.535	81812.0
-12.530	81826.0
-12.525	81823.0
-12.520	81829.0
-12.515	81818.0
-12.510	81787.0
-12.505	81800.0
-12.500	81824.0
-12.495	81821.0
-12.490	81820.0
-12.485	81820.0
-12.480	81809.0
-12.475	81825.0
-12.470	81823.0
-12.465	81823.0
-12.460	81819.0
-12.455	81827.0
-12.450	81822.0
-12.445	81793.0
-12.440	81787.0
-12.435	81822.0
-12.430	81833.0
-12.425	81826.0
-12.420	81825.0
-12.415	81816.0
-12.410	81811.0
-12.405	81825.0
-12.400	81810.0
-12.395	81825.0
-12.390	81841.0
-12.385	81841.0
-12.380	81812.0
-12.375	81808.0
-12.370	81821.0
-12.365	81847.0
-12.360	81850.0
-12.355	81849.0
-12.350	81842.0
-12.345	81843.0
-12.340	81840.0
-12.335	81852.0
-12.330	81853.0
-12.325	81853.0
-12.320	81857.0
-12.315	81839.0
-12.310	81821.0
-12.305	81831.0
-12.300	81859.0
-12.295	81855.0
-12.290	81852.0
-12.285	81858.0
-12.280	81853.0
-12.275	81856.0
-12.270	81863.0
-12.265	81857.0
-12.260	81862.0
-12.255	81877.9
-12.250	81862.0
-12.245	81844.0
-12.240	81833.0
-12.235	81867.0
-12.230	81875.9
-12.225	81870.9
-12.220	81879.9
-12.215	81894.9
-12.210	81887.9
-12.205	81878.9
-12.200	81883.9
-12.195	81884.9
-12.190	81888.9
-12.185	81895.9
-12.180	81861.0
-12.175	81861.0
-12.170	81878.9
-12.165	81903.9
-12.160	81895.9
-12.155	81900.9
-12.150	81903.9
-12.145	81896.9
-12.140	81895.9
-12.135	81899.9
-12.130	81903.9
-12.125	81907.9
-12.120	81922.9
-12.115	81908.9
-12.110	81890.9
-12.105	81895.9
-12.100	81927.9
-12.095	81930.9
-12.090	81936.9
-12.085	81934.9
-12.080	81941.9
-12.075	81930.9
-12.070	81927.9
-12.065	81933.9
-12.060	81941.9
-12.055	81943.9
-12.050	81926.9
-12.045	81897.9
-12.040	81900.9
-12.035	81935.9
-12.030	81937.9
-12.025	81947.9
-12.020	81939.9
-12.015	81940.9
-12.010	81936.9
-12.005	81934.9
-12.000	81924.9
-11.995	81942.9
-11.990	81950.9
-11.985	81947.9
-11.980	81914.9
-11.975	81905.9
-11.970	81909.9
-11.965	81942.9
-11.960	81946.9
-11.955	81962.9
-11.950	81947.9
-11.945	81951.9
-11.940	81942.9
-11.935	81946.9
-11.930	81945.9
-11.925	81952.9
-11.920	81958.9
-11.915	81932.9
-11.910	81917.9
-11.905	81932.9
-11.900	81952.9
-11.895	81956.9
-11.890	81955.9
-11.885	81949.9
-11.880	81945.9
-11.875	81950.9
-11.870	81947.9
-11.865	81949.9
-11.860	81951.9
-11.855	81971.9
-11.850	81957.9
-11.845	81939.9
-11.840	81931.9
-11.835	81956.9
-11.830	81955.9
-11.825	81956.9
-11.820	81961.9
-11.815	81950.9
-11.810	81957.9
-11.805	81950.9
-11.800	81954.9
-11.795	81952.9
-11.790	81940.9
-11.785	81950.9
-11.780	81925.9
-11.775	81918.9
-11.770	81934.9
-11.765	81952.9
-11.760	81938.9
-11.755	81944.9
-11.750	81936.9
-11.745	81931.9
-11.740	81933.9
-11.735	81932.9
-11.730	81926.9
-11.725	81936.9
-11.720	81934.9
-11.715	81923.9
-11.710	81886.9
-11.705	81908.9
-11.700	81928.9
-11.695	81931.9
-11.690	81931.9
-11.685	81939.9
-11.680	81920.9
-11.675	81936.9
-11.670	81928.9
-11.665	81926.9
-11.660	81919.9
-11.655	81927.9
-11.650	81899.9
-11.645	81881.9
-11.640	81882.9
-11.635	81914.9
-11.630	81910.9
-11.625	81917.9
-11.620	81916.9
-11.615	81908.9
-11.610	81911.9
-11.605	81911.9
-11.600	81895.9
-11.595	81911.9
-11.590	81917.9
-11.585	81927.9
-11.580	81905.9
-11.575	81881.9
-11.570	81889.9
-11.565	81907.9
-11.560	81906.9
-11.555	81910.9
-11.550	81901.9
-11.545	81902.9
-11.540	81892.9
-11.535	81895.9
-11.530	81891.9
-11.525	81893.9
-11.520	81879.9
-11.515	81869.9
-11.510	81850.9
-11.505	81870.9
-11.500	81891.9
-11.495	81898.9
-11.490	81890.9
-11.485	81891.9
-11.480	81878.9
-11.475	81877.9
-11.470	81880.9
-11.465	81881.9
-11.460	81876.9
-11.455	81889.9
-11.450	81878.9
-11.445	81863.9
-11.440	81857.9
-11.435	81894.9
-11.430	81888.9
-11.425	81897.9
-11.420	81897.9
-11.415	81895.9
-11.410	81889.9
-11.405	81890.9
-11.400	81897.9
-11.395	81897.9
-11.390	81902.9
-11.385	81902.9
-11.380	81878.9
-11.375	81869.9
-11.370	81900.9
-11.365	81900.9
-11.360	81899.9
-11.355	81893.9
-11.350	81883.9
-11.345	81882.9
-11.340	81884.9
-11.335	81882.9
-11.330	81888.9
-11.325	81905.9
-11.320	81909.9
-11.315	81891.9
-11.310	81865.9
-11.305	81876.9
-11.300	81902.9
-11.295	81904.9
-11.290	81911.9
-11.285	81906.9
-11.280	81899.9
-11.275	81897.9
-11.270	81890.9
-11.265	81890.9
-11.260	81899.9
-11.255	81903.9
-11.250	81885.9
-11.245	81869.9
-11.240	81857.9
-11.235	81904.9
-11.230	81903.9
-11.225	81901.9
-11.220	81898.9
-11.215	81900.9
-11.210	81889.9
-11.205	81902.9
-11.200	81894.9
-11.195	81906.9
-11.190	81902.9
-11.185	81901.9
-11.180	81883.9
-11.175	81870.9
-11.170	81894.9
-11.165	81915.9
-11.160	81911.9
-11.155	81910.9
-11.150	81905.9
-11.145	81907.9
-11.140	81906.9
-11.135	81902.9
-11.130	81912.9
-11.125	81917.9
-11.120	81911.9
-11.115	81886.9
-11.110	81873.9
-11.105	81882.9
-11.100	81905.9
-11.095	81892.9
-11.090	81904.9
-11.085	81895.9
-11.080	81889.9
-11.075	81894.9
-11.070	81905.9
-11.065	81903.9
-11.060	81905.9
-11.055	81911.9
-11.050	81900.9
-11.045	81882.9
-11.040	81878.9
-11.035	81923.9
-11.030	81921.9
-11.025	81921.9
-11.020	81912.9
-11.015	81908.9
-11.010	81925.9
-11.005	81915.9
-11.000	81913.9
-10.995	81913.9
-10.990	81910.9
-10.985	81906.9
-10.980	81883.9
-10.975	81889.9
-10.970	81904.9
-10.965	81930.9
-10.960	81913.9
-10.955	81923.9
-10.950	81923.9
-10.945	81935.9
-10.940	81929.9
-10.935	81932.9
-10.930	81933.9
-10.925	81943.9
-10.920	81948.8
-10.915	81936.9
-10.910	81920.9
-10.905	81941.9
-10.900	81963.8
-10.895	81961.8
-10.890	81963.8
-10.885	81966.8
-10.880	81956.8
-10.875	81962.8
-10.870	81956.8
-10.865	81962.8
-10.860	81955.8
-10.855	81963.8
-10.850	81955.8
-10.845	81935.9
-10.840	81940.9
-10.835	81973.8
-10.830	81969.8
-10.825	81973.8
-10.820	81980.8
-10.815	81982.8
-10.810	81975.8
-10.805	81983.8
-10.800	81972.8
-10.795	81981.8
-10.790	81975.8
-10.785	81984.8
-10.780	81967.8
-10.775	81961.8
-10.770	81978.8
-10.765	81990.8
-10.760	81986.8
-10.755	81991.8
-10.750	81987.8
-10.745	81983.8
-10.740	81982.8
-10.735	81986.8
-10.730	81995.8
-10.725	81991.8
-10.720	81993.8
-10.715	81974.8
-10.710	81947.8
-10.705	81963.8
-10.700	81982.8
-10.695	81983.8
-10.690	81966.8
-10.685	81977.8
-10.680	81959.8
-10.675	81965.8
-10.670	81965.8
-10.665	81965.8
-10.660	81973.8
-10.655	81979.8
-10.650	81973.8
-10.645	81946.8
-10.640	81947.8
-10.635	81976.8
-10.630	81979.8
-10.625	81976.8
-10.620	81974.8
-10.615	81976.8
-10.610	81963.8
-10.605	81951.8
-10.600	81951.8
-10.595	81943.8
-10.590	81943.8
-10.585	81938.8
-10.580	81906.9
-10.575	81897.9
-10.570	81919.9
-10.565	81926.9
-10.560	81929.8
-10.555	81940.8
-10.550	81934.8
-10.545	81938.8
-10.540	81926.9
-10.535	81917.9
-10.530	81921.9
-10.525	81924.9
-10.520	81921.9
-10.515	81907.9
-10.510	81890.9
-10.505	81896.9
-10.500	81925.9
-10.495	81927.8
-10.490	81929.8
-10.485	81928.8
-10.480	81934.8
-10.475	81934.8
-10.470	81926.9
-10.465	81928.9
-10.460	81922.9
-10.455	81928.8
-10.450	81911.9
-10.445	81898.9
-10.440	81904.9
-10.435	81930.8
-10.430	81935.8
-10.425	81940.8
-10.420	81927.9
-10.415	81932.8
-10.410	81917.9
-10.405	81914.9
-10.400	81917.9
-10.395	81930.8
-10.390	81923.9
-10.385	81920.9
-10.380	81902.9
-10.375	81886.9
-10.370	81914.9
-10.365	81931.8
-10.360	81929.8
-10.355	81939.8
-10.350	81925.9
-10.345	81929.8
-10.340	81924.9
-10.335	81941.8
-10.330	81932.8
-10.325	81947.8
-10.320	81948.8
-10.315	81922.9
-10.310	81909.9
-10.305	81929.8
-10.300	81948.8
-10.295	81954.8
-10.290	81945.8
-10.285	81945.8
-10.280	81940.8
-10.275	81941.8
-10.270	81936.8
-10.265	81933.8
-10.260	81947.8
-10.255	81962.8
-10.250	81942.8
-10.245	81921.8
-10.240	81916.9
-10.235	81955.8
-10.230	81948.8
-10.225	81956.8
-10.220	81949.8
-10.215	81952.8
-10.210	81943.8
-10.205	81945.8
-10.200	81949.8
-10.195	81956.8
-10.190	81953.8
-10.185	81942.8
-10.180	81914.9
-10.175	81913.9
-10.170	81937.8
-10.165	81958.8
-10.160	81955.8
-10.155	81954.8
-10.150	81944.8
-10.145	81954.8
-10.140	81938.8
-10.135	81944.8
-10.130	81939.8
-10.125	81954.8
-10.120	81948.8
-10.115	81938.8
-10.110	81923.8
-10.105	81946.8
-10.100	81962.8
-10.095	81958.8
-10.090	81963.8
-10.085	81953.8
-10.080	81952.8
-10.075	81962.8
-10.070	81940.8
-10.065	81950.8
-10.060	81953.8
-10.055	81958.8
-10.050	81943.8
-10.045	81935.8
-10.040	81933.8
-10.035	81961.8
-10.030	81962.8
-10.025	81955.8
-10.020	81946.8
-10.015	81949.8
-10.010	81949.8
-10.005	81945.8
-10.000	81952.8
-9.995	81957.8
-9.990	81950.8
-9.985	81946.8
-9.980	81924.8
-9.975	81919.8
-9.970	81950.8
-9.965	81957.8
-9.960	81948.8
-9.955	81961.8
-9.950	81953.8
-9.945	81953.8
-9.940	81941.8
-9.935	81940.8
-9.930	81936.8
-9.925	81940.8
-9.920	81944.8
-9.915	81904.9
-9.910	81898.9
-9.905	81921.8
-9.900	81939.8
-9.895	81932.8
-9.890	81924.8
-9.885	81927.8
-9.880	81921.8
-9.875	81920.8
-9.870	81915.8
-9.865	81931.8
-9.860	81928.8
-9.855	81933.8
-9.850	81920.8
-9.845	81908.8
-9.840	81894.9
-9.835	81930.8
-9.830	81927.8
-9.825	81930.8
-9.820	81925.8
-9.815	81925.8
-9.810	81927.8
-9.805	81920.8
-9.800	81920.8
-9.795	81933.8
-9.790	81929.8
-9.785	81927.8
-9.780	81895.9
-9.775	81900.8
-9.770	81922.8
-9.765	81932.8
-9.760	81937.8
-9.755	81936.8
-9.750	81932.8
-9.745	81919.8
-9.740	81931.8
-9.735	81929.8
-9.730	81930.8
-9.725	81933.8
-9.720	81947.8
-9.715	81922.8
-9.710	81897.8
-9.705	81920.8
-9.700	81933.8
-9.695	81941.8
-9.690	81943.8
-9.685	81953.8
-9.680	81939.8
-9.675	81936.8
-9.670	81938.8
-9.665	81933.8
-9.660	81936.8
-9.655	81938.8
-9.650	81909.8
-9.645	81899.8
-9.640	81911.8
-9.635	81929.8
-9.630	81938.8
-9.625	81931.8
-9.620	81927.8
-9.615	81927.8
-9.610	81929.8
-9.605	81937.8
-9.600	81928.8
-9.595	81940.8
-9.590	81932.8
-9.585	81935.8
-9.580	81906.8
-9.575	81889.8
-9.570	81912.8
-9.565	81900.8
-9.560	81876.7
-9.555	81845.7
-9.550	81774.6
-9.545	81692.5
-9.540	81580.4
-9.535	81440.3
-9.530	81279.2
-9.525	81086.0
-9.520	80845.9
-9.515	80601.7
-9.510	80348.5
-9.505	80157.2
-9.500	79955.9
-9.495	79709.7
-9.490	79502.4
-9.485	79410.0
-9.480	79353.7
-9.475	79295.4
-9.470	79300.1
-9.465	79423.0
-9.460	79626.0
-9.455	79931.2
-9.450	80305.3
-9.445	80667.4
-9.440	80958.5
-9.435	81135.6
-9.430	81230.7
-9.425	81303.9
-9.420	81346.0
-9.415	81459.0
-9.410	81486.1
-9.405	81485.2
-9.400	81504.3
-9.395	81514.3
-9.390	81482.4
-9.385	81436.5
-9.380	81407.6
-9.375	81392.7
-9.370	81438.7
-9.365	81468.7
-9.360	81461.8
-9.355	81465.8
-9.350	81456.9
-9.345	81445.9
-9.340	81447.0
-9.335	81469.0
-9.330	81514.0
-9.325	81540.0
-9.320	81568.0
-9.315	81580.0
-9.310	81579.1
-9.305	81612.1
-9.300	81602.1
-9.295	81539.2
-9.290	81411.3
-9.285	81299.4
-9.280	81269.5
-9.275	81330.5
-9.270	81451.4
-9.265	81553.3
-9.260	81604.3
-9.255	81614.3
-9.250	81592.3
-9.245	81588.4
-9.240	81614.4
-9.235	81643.4
-9.230	81636.4
-9.225	81543.5
-9.220	81351.7
-9.215	80849.1
-9.210	80046.8
-9.205	79952.9
-9.200	80509.4
-9.195	81117.9
-9.190	81492.6
-9.185	81635.5
-9.180	81652.5
-9.175	81669.5
-9.170	81695.5
-9.165	81708.5
-9.160	81710.5
-9.155	81707.6
-9.150	81712.6
-9.145	81720.6
-9.140	81709.6
-9.135	81722.6
-9.130	81722.6
-9.125	81724.6
-9.120	81700.6
-9.115	81689.7
-9.110	81663.7
-9.105	81661.7
-9.100	81656.7
-9.095	81676.7
-9.090	81696.7
-9.085	81718.7
-9.080	81725.7
-9.075	81726.7
-9.070	81734.7
-9.065	81739.7
-9.060	81714.7
-9.055	81661.8
-9.050	81658.8
-9.045	81700.8
-9.040	81736.8
-9.035	81756.7
-9.030	81754.8
-9.025	81766.7
-9.020	81763.8
-9.015	81761.8
-9.010	81762.8
-9.005	81752.8
-9.000	81747.8
-8.995	81749.8
-8.990	81766.8
-8.985	81749.8
-8.980	81713.9
-8.975	81723.8
-8.970	81755.8
-8.965	81761.8
-8.960	81747.9
-8.955	81743.9
-8.950	81723.9
-8.945	81732.9
-8.940	81750.9
-8.935	81753.9
-8.930	81754.9
-8.925	81759.9
-8.920	81742.9
-8.915	81738.9
-8.910	81723.9
-8.905	81752.9
-8.900	81766.9
-8.895	81775.9
-8.890	81776.9
-8.885	81790.9
-8.880	81811.9
-8.875	81814.9
-8.870	81807.9
-8.865	81817.9
-8.860	81821.9
-8.855	81822.9
-8.850	81769.9
-8.845	81766.9
-8.840	81803.9
-8.835	81835.9
-8.830	81828.9
-8.825	81802.9
-8.820	81791.9
-8.815	81790.0
-8.810	81789.0
-8.805	81784.0
-8.800	81786.0
-8.795	81817.0
-8.790	81840.9
-8.785	81838.9
-8.780	81816.0
-8.775	81821.0
-8.770	81846.0
-8.765	81861.9
-8.760	81869.9
-8.755	81863.9
-8.750	81874.9
-8.745	81868.0
-8.740	81881.9
-8.735	81878.0
-8.730	81883.0
-8.725	81888.9
-8.720	81890.0
-8.715	81874.0
-8.710	81865.0
-8.705	81883.0
-8.700	81891.0
-8.695	81911.0
-8.690	81894.0
-8.685	81894.0
-8.680	81890.0
-8.675	81911.0
-8.670	81900.0
-8.665	81896.0
-8.660	81888.0
-8.655	81908.0
-8.650	81892.0
-8.645	81876.0
-8.640	81902.0
-8.635	81929.0
-8.630	81922.0
-8.625	81927.0
-8.620	81911.0
-8.615	81928.0
-8.610	81923.0
-8.605	81915.0
-8.600	81915.0
-8.595	81918.0
-8.590	81921.0
-8.585	81899.0
-8.580	81872.1
-8.575	81865.1
-8.570	81869.1
-8.565	81864.1
-8.560	81861.1
-8.555	81867.1
-8.550	81872.1
-8.545	81875.1
-8.540	81879.1
-8.535	81878.1
-8.530	81895.1
-8.525	81918.1
-8.520	81937.0
-8.515	81921.1
-8.510	81920.1
-8.505	81947.0
-8.500	81963.0
-8.495	81975.0
-8.490	81964.0
-8.485	81960.0
-8.480	81965.0
-8.475	81974.0
-8.470	81981.0
-8.465	81985.0
-8.460	81984.0
-8.455	81976.0
-8.450	81936.1
-8.445	81930.1
-8.440	81927.1
-8.435	81947.1
-8.430	81937.1
-8.425	81955.1
-8.420	81945.1
-8.415	81965.1
-8.410	81961.1
-8.405	81962.1
-8.400	81967.1
-8.395	81962.1
-8.390	81959.1
-8.385	81934.1
-8.380	81903.1
-8.375	81901.1
-8.370	81920.1
-8.365	81923.1
-8.360	81921.1
-8.355	81933.1
-8.350	81916.1
-8.345	81885.2
-8.340	81847.2
-8.335	81804.2
-8.330	81695.3
-8.325	81577.4
-8.320	81490.5
-8.315	81400.5
-8.310	81393.5
-8.305	81566.4
-8.300	81775.2
-8.295	81875.2
-8.290	81920.1
-8.285	81940.1
-8.280	81939.1
-8.275	81941.1
-8.270	81929.1
-8.265	81940.1
-8.260	81943.1
-8.255	81941.1
-8.250	81926.1
-8.245	81900.2
-8.240	81916.2
-8.235	81944.1
-8.230	81935.1
-8.225	81923.2
-8.220	81921.2
-8.215	81920.2
-8.210	81912.2
-8.205	81903.2
-8.200	81899.2
-8.195	81888.2
-8.190	81865.2
-8.185	81830.2
-8.180	81805.3
-8.175	81802.3
-8.170	81805.3
-8.165	81788.3
-8.160	81784.3
-8.155	81790.3
-8.150	81810.3
-8.145	81827.3
-8.140	81822.3
-8.135	81824.3
-8.130	81824.3
-8.125	81822.3
-8.120	81807.3
-8.115	81798.3
-8.110	81790.3
-8.105	81829.3
-8.100	81821.3
-8.095	81813.3
-8.090	81808.3
-8.085	81810.3
-8.080	81810.3
-8.075	81796.3
-8.070	81784.3
-8.065	81776.3
-8.060	81762.3
-8.055	81756.3
-8.050	81739.3
-8.045	81743.3
-8.040	81757.3
-8.035	81775.3
-8.030	81766.3
-8.025	81762.3
-8.020	81755.3
-8.015	81763.3
-8.010	81759.3
-8.005	81774.3
-8.000	81773.3
-7.995	81799.3
-7.990	81810.3
-7.985	81802.3
-7.980	81771.3
-7.975	81800.3
-7.970	81822.3
-7.965	81818.3
-7.960	81827.3
-7.955	81823.3
-7.950	81807.3
-7.945	81815.3
-7.940	81816.3
-7.935	81822.3
-7.930	81828.3
-7.925	81848.3
-7.920	81836.3
-7.915	81824.3
-7.910	81821.3
-7.905	81854.3
-7.900	81841.3
-7.895	81831.3
-7.890	81802.3
-7.885	81782.4
-7.880	81756.4
-7.875	81737.4
-7.870	81730.4
-7.865	81746.4
-7.860	81748.4
-7.855	81748.4
-7.850	81749.4
-7.845	81781.4
-7.840	81820.3
-7.835	81864.3
-7.830	81895.3
-7.825	81900.3
-7.820	81910.3
-7.815	81923.3
-7.810	81922.3
-7.805	81925.3
-7.800	81925.3
-7.795	81938.3
-7.790	81923.3
-7.785	81902.3
-7.780	81882.3
-7.775	81905.3
-7.770	81932.3
-7.765	81929.3
-7.760	81910.3
-7.755	81918.3
-7.750	81922.3
-7.745	81920.3
-7.740	81912.3
-7.735	81915.3
-7.730	81918.3
-7.725	81932.3
-7.720	81924.3
-7.715	81911.3
-7.710	81896.3
-7.705	81938.3
-7.700	81937.3
-7.695	81947.3
-7.690	81931.3
-7.685	81939.3
-7.680	81936.3
-7.675	81941.3
-7.670	81941.3
-7.665	81944.3
-7.660	81942.3
-7.655	81935.3
-7.650	81908.3
-7.645	81903.3
-7.640	81934.3
-7.635	81937.3
-7.630	81930.3
-7.625	81929.3
-7.620	81925.3
-7.615	81921.3
-7.610	81922.3
-7.605	81924.3
-7.600	81917.3
-7.595	81931.3
-7.590	81933.3
-7.585	81918.3
-7.580	81898.3
-7.575	81909.3
-7.570	81944.3
-7.565	81947.3
-7.560	81941.3
-7.555	81952.3
-7.550	81944.3
-7.545	81949.3
-7.540	81947.3
-7.535	81948.3
-7.530	81943.3
-7.525	81953.3
-7.520	81932.3
-7.515	81913.3
-7.510	81917.3
-7.505	81963.3
-7.500	81948.3
-7.495	81949.3
-7.490	81941.3
-7.485	81940.3
-7.480	81942.3
-7.475	81963.3
-7.470	81954.3
-7.465	81952.3
-7.460	81961.3
-7.455	81962.3
-7.450	81930.3
-7.445	81927.3
-7.440	81947.3
-7.435	81966.3
-7.430	81969.3
-7.425	81971.3
-7.420	81963.3
-7.415	81965.3
-7.410	81969.3
-7.405	81961.3
-7.400	81961.3
-7.395	81966.3
-7.390	81976.3
-7.385	81951.3
-7.380	81940.3
-7.375	81959.3
-7.370	81974.3
-7.365	81986.3
-7.360	81976.3
-7.355	81976.3
-7.350	81980.3
-7.345	81990.3
-7.340	81975.3
-7.335	81984.3
-7.330	81987.3
-7.325	81995.3
-7.320	81979.3
-7.315	81971.3
-7.310	81975.3
-7.305	82017.3
-7.300	81998.3
-7.295	82004.3
-7.290	82003.3
-7.285	82006.3
-7.280	82003.3
-7.275	82008.3
-7.270	82006.3
-7.265	82009.3
-7.260	82005.3
-7.255	82010.3
-7.250	81979.3
-7.245	81976.3
-7.240	81981.3
-7.235	82003.3
-7.230	82002.3
-7.225	82003.3
-7.220	81991.3
-7.215	81983.3
-7.210	81989.3
-7.205	81994.3
-7.200	81991.3
-7.195	81999.3
-7.190	82014.3
-7.185	82006.3
-7.180	81978.3
-7.175	81993.3
-7.170	82026.3
-7.165	82031.3
-7.160	82035.3
-7.155	82038.3
-7.150	82033.3
-7.145	82028.3
-7.140	82030.3
-7.135	82034.3
-7.130	82023.3
-7.125	82031.3
-7.120	82011.3
-7.115	81988.3
-7.110	81998.3
-7.105	82021.3
-7.100	82013.3
-7.095	82020.3
-7.090	82011.3
-7.085	82022.3
-7.080	82025.3
-7.075	82032.3
-7.070	82026.3
-7.065	82036.3
-7.060	82047.3
-7.055	82049.3
-7.050	82025.3
-7.045	82018.3
-7.040	82040.3
-7.035	82043.3
-7.030	82033.3
-7.025	82043.3
-7.020	82017.3
-7.015	82006.3
-7.010	82000.3
-7.005	81998.3
-7.000	81991.3
-6.995	81989.3
-6.990	81975.3
-6.985	81955.4
-6.980	81927.4
-6.975	81954.4
-6.970	81968.3
-6.965	81966.3
-6.960	81964.3
-6.955	81971.3
-6.950	81974.3
-6.945	81976.3
-6.940	81971.3
-6.935	81983.3
-6.930	81995.3
-6.925	82006.3
-6.920	82000.3
-6.915	81985.3
-6.910	81991.3
-6.905	82015.3
-6.900	82024.3
-6.895	82025.3
-6.890	82020.3
-6.885	82020.3
-6.880	82015.3
-6.875	82006.3
-6.870	82003.3
-6.865	81999.3
-6.860	82001.3
-6.855	81985.3
-6.850	81946.4
-6.845	81943.4
-6.840	81967.3
-6.835	81956.4
-6.830	81943.4
-6.825	81932.4
-6.820	81906.4
-6.815	81910.4
-6.810	81905.4
-6.805	81898.4
-6.800	81866.4
-6.795	81875.4
-6.790	81860.4
-6.785	81841.4
-6.780	81830.4
-6.775	81844.4
-6.770	81856.4
-6.765	81876.4
-6.760	81883.4
-6.755	81888.4
-6.750	81897.4
-6.745	81910.4
-6.740	81918.4
-6.735	81921.4
-6.730	81930.4
-6.725	81930.4
-6.720	81913.4
-6.715	81901.4
-6.710	81894.4
-6.705	81927.4
-6.700	81920.4
-6.695	81915.4
-6.690	81907.4
-6.685	81894.4
-6.680	81862.4
-6.675	81856.4
-6.670	81842.5
-6.665	81831.5
-6.660	81829.5
-6.655	81826.5
-6.650	81805.5
-6.645	81790.5
-6.640	81818.5
-6.635	81826.5
-6.630	81836.5
-6.625	81836.5
-6.620	81837.5
-6.615	81853.5
-6.610	81851.5
-6.605	81860.4
-6.600	81880.4
-6.595	81891.4
-6.590	81892.4
-6.585	81880.4
-6.580	81868.4
-6.575	81900.4
-6.570	81916.4
-6.565	81918.4
-6.560	81924.4
-6.555	81924.4
-6.550	81925.4
-6.545	81929.4
-6.540	81931.4
-6.535	81930.4
-6.530	81930.4
-6.525	81946.4
-6.520	81929.4
-6.515	81916.4
-6.510	81908.4
-6.505	81946.4
-6.500	81939.4
-6.495	81955.4
-6.490	81948.4
-6.485	81947.4
-6.480	81933.4
-6.475	81933.4
-6.470	81941.4
-6.465	81938.4
-6.460	81946.4
-6.455	81925.4
-6.450	81899.4
-6.445	81910.4
-6.440	81935.4
-6.435	81935.4
-6.430	81946.4
-6.425	81936.4
-6.420	81920.4
-6.415	81933.4
-6.410	81917.4
-6.405	81931.4
-6.400	81932.4
-6.395	81947.4
-6.390	81939.4
-6.385	81921.4
-6.380	81905.4
-6.375	81924.4
-6.370	81947.4
-6.365	81948.4
-6.360	81937.4
-6.355	81939.4
-6.350	81930.4
-6.345	81933.4
-6.340	81930.4
-6.335	81932.4
-6.330	81919.4
-6.325	81935.4
-6.320	81903.4
-6.315	81886.4
-6.310	81892.4
-6.305	81921.4
-6.300	81917.4
-6.295	81916.4
-6.290	81919.4
-6.285	81921.4
-6.280	81921.4
-6.275	81928.4
-6.270	81933.4
-6.265	81938.4
-6.260	81954.4
-6.255	81935.4
-6.250	81920.4
-6.245	81917.4
-6.240	81935.4
-6.235	81950.4
-6.230	81957.4
-6.225	81964.4
-6.220	81959.4
-6.215	81959.4
-6.210	81956.4
-6.205	81951.4
-6.200	81951.4
-6.195	81951.4
-6.190	81951.4
-6.185	81928.4
-6.180	81917.4
-6.175	81933.4
-6.170	81952.4
-6.165	81946.4
-6.160	81945.4
-6.155	81948.4
-6.150	81942.4
-6.145	81942.4
-6.140	81939.4
-6.135	81938.4
-6.130	81946.4
-6.125	81962.4
-6.120	81930.4
-6.115	81916.4
-6.110	81921.4
-6.105	81952.4
-6.100	81939.4
-6.095	81940.4
-6.090	81945.4
-6.085	81941.4
-6.080	81933.4
-6.075	81927.4
-6.070	81929.4
-6.065	81933.4
-6.060	81931.4
-6.055	81919.4
-6.050	81896.5
-6.045	81903.5
-6.040	81923.4
-6.035	81931.4
-6.030	81923.4
-6.025	81916.4
-6.020	81909.4
-6.015	81909.4
-6.010	81908.5
-6.005	81902.5
-6.000	81905.5
-5.995	81914.4
-5.990	81917.4
-5.985	81894.5
-5.980	81867.5
-5.975	81895.5
-5.970	81906.5
-5.965	81916.4
-5.960	81914.5
-5.955	81926.4
-5.950	81921.5
-5.945	81914.5
-5.940	81919.5
-5.935	81932.4
-5.930	81922.5
-5.925	81926.4
-5.920	81897.5
-5.915	81884.5
-5.910	81891.5
-5.905	81921.5
-5.900	81918.5
-5.895	81909.5
-5.890	81901.5
-5.885	81897.5
-5.880	81880.5
-5.875	81881.5
-5.870	81879.5
-5.865	81865.5
-5.860	81875.5
-5.855	81871.5
-5.850	81839.5
-5.845	81831.5
-5.840	81858.5
-5.835	81869.5
-5.830	81853.5
-5.825	81847.5
-5.820	81848.5
-5.815	81850.5
-5.810	81861.5
-5.805	81874.5
-5.800	81874.5
-5.795	81887.5
-5.790	81889.5
-5.785	81867.5
-5.780	81859.5
-5.775	81883.5
-5.770	81897.4
-5.765	81898.4
-5.760	81897.4
-5.755	81902.4
-5.750	81899.4
-5.745	81903.4
-5.740	81898.4
-5.735	81919.4
-5.730	81924.3
-5.725	81930.3
-5.720	81909.3
-5.715	81900.3
-5.710	81917.3
-5.705	81946.3
-5.700	81944.3
-5.695	81940.3
-5.690	81925.3
-5.685	81923.4
-5.680	81921.4
-5.675	81914.4
-5.670	81917.4
-5.665	81904.4
-5.660	81899.5
-5.655	81885.5
-5.650	81867.5
-5.645	81862.5
-5.640	81873.5
-5.635	81882.5
-5.630	81874.5
-5.625	81867.5
-5.620	81865.5
-5.615	81873.5
-5.610	81861.5
-5.605	81859.5
-5.600	81859.5
-5.595	81866.5
-5.590	81864.5
-5.585	81849.5
-5.580	81820.6
-5.575	81840.5
-5.570	81853.5
-5.565	81858.5
-5.560	81845.5
-5.555	81849.5
-5.550	81852.5
-5.545	81854.5
-5.540	81848.5
-5.535	81854.5
-5.530	81850.5
-5.525	81852.5
-5.520	81825.6
-5.515	81811.6
-5.510	81818.6
-5.505	81835.5
-5.500	81838.5
-5.495	81834.5
-5.490	81820.6
-5.485	81811.6
-5.480	81800.6
-5.475	81791.6
-5.470	81792.6
-5.465	81793.6
-5.460	81795.6
-5.455	81770.6
-5.450	81732.7
-5.445	81715.8
-5.440	81713.9
-5.435	81689.1
-5.430	81641.3
-5.425	81604.6
-5.420	81536.0
-5.415	81474.5
-5.410	81412.9
-5.405	81332.5
-5.400	81283.1
-5.395	81247.6
-5.390	81140.3
-5.385	81016.1
-5.380	80951.8
-5.375	80968.3
-5.370	80918.9
-5.365	80848.6
-5.360	80832.1
-5.355	80932.2
-5.350	81104.0
-5.345	81305.5
-5.340	81436.0
-5.335	81540.5
-5.330	81635.0
-5.325	81735.6
-5.320	81767.3
-5.315	81792.0
-5.310	81807.7
-5.305	81863.5
-5.300	81880.3
-5.295	81884.2
-5.290	81871.0
-5.285	81863.9
-5.280	81853.8
-5.275	81851.7
-5.270	81869.6
-5.265	81879.5
-5.260	81904.4
-5.255	81897.3
-5.250	81884.3
-5.245	81896.2
-5.240	81916.1
-5.235	81919.0
-5.230	81924.9
-5.225	81914.9
-5.220	81902.8
-5.215	81904.8
-5.210	81901.7
-5.205	81908.7
-5.200	81928.6
-5.195	81964.6
-5.190	81980.5
-5.185	81962.5
-5.180	81966.4
-5.175	82003.3
-5.170	82009.3
-5.165	82008.3
-5.160	81995.2
-5.155	82008.2
-5.150	82007.2
-5.145	82025.1
-5.140	82021.1
-5.135	82032.0
-5.130	82028.0
-5.125	82029.0
-5.120	81994.0
-5.115	81982.0
-5.110	82009.0
-5.105	82044.9
-5.100	82043.9
-5.095	82041.9
-5.090	82042.8
-5.085	82041.8
-5.080	82058.8
-5.075	82075.7
-5.070	82078.7
-5.065	82078.7
-5.060	82067.7
-5.055	82048.7
-5.050	82027.7
-5.045	82029.7
-5.040	82052.6
-5.035	82085.6
-5.030	82090.5
-5.025	82099.5
-5.020	82106.5
-5.015	82114.5
-5.010	82113.5
-5.005	82117.5
-5.000	82121.4
-4.995	82116.4
-4.990	82088.4
-4.985	82080.4
-4.980	82083.4
-4.975	82109.4
-4.970	82124.3
-4.965	82127.3
-4.960	82113.3
-4.955	82142.3
-4.950	82127.3
-4.945	82127.3
-4.940	82130.2
-4.935	82126.2
-4.930	82129.2
-4.925	82139.2
-4.920	82117.2
-4.915	82104.2
-4.910	82123.2
-4.905	82147.2
-4.900	82159.1
-4.895	82164.1
-4.890	82150.1
-4.885	82171.1
-4.880	82214.1
-4.875	82236.1
-4.870	82214.1
-4.865	82191.1
-4.860	82166.1
-4.855	82127.1
-4.850	82103.1
-4.845	82104.1
-4.840	82139.1
-4.835	82143.1
-4.830	82142.1
-4.825	82127.1
-4.820	82116.1
-4.815	82111.0
-4.810	82109.0
-4.805	82119.0
-4.800	82126.0
-4.795	82130.0
-4.790	82128.0
-4.785	82113.0
-4.780	82097.0
-4.775	82124.0
-4.770	82126.0
-4.765	82120.0
-4.760	82118.9
-4.755	82108.9
-4.750	82104.9
-4.745	82101.9
-4.740	82109.9
-4.735	82114.9
-4.730	82116.9
-4.725	82117.9
-4.720	82087.9
-4.715	82068.9
-4.710	82081.9
-4.705	82098.9
-4.700	82081.9
-4.695	82081.9
-4.690	82079.9
-4.685	82094.9
-4.680	82089.9
-4.675	82096.9
-4.670	82110.8
-4.665	82108.8
-4.660	82108.8
-4.655	82081.8
-4.650	82053.8
-4.645	82058.8
-4.640	82096.8
-4.635	82116.8
-4.630	82124.7
-4.625	82121.7
-4.620	82118.7
-4.615	82103.8
-4.610	82089.8
-4.605	82103.7
-4.600	82108.7
-4.595	82105.7
-4.590	82079.8
-4.585	82046.8
-4.580	82054.8
-4.575	82105.7
-4.570	82119.7
-4.565	82111.7
-4.560	82101.7
-4.555	82104.7
-4.550	82103.7
-4.545	82101.7
-4.540	82117.7
-4.535	82130.7
-4.530	82149.7
-4.525	82149.7
-4.520	82116.7
-4.515	82091.7
-4.510	82097.7
-4.505	82119.6
-4.500	82121.6
-4.495	82130.6
-4.490	82148.6
-4.485	82152.6
-4.480	82155.6
-4.475	82165.6
-4.470	82163.6
-4.465	82169.6
-4.460	82176.6
-4.455	82150.6
-4.450	82144.6
-4.445	82169.6
-4.440	82174.5
-4.435	82176.5
-4.430	82167.5
-4.425	82179.5
-4.420	82160.5
-4.415	82163.5
-4.410	82165.5
-4.405	82167.5
-4.400	82175.5
-4.395	82176.5
-4.390	82169.5
-4.385	82152.5
-4.380	82144.5
-4.375	82175.5
-4.370	82190.5
-4.365	82183.5
-4.360	82177.5
-4.355	82168.5
-4.350	82149.5
-4.345	82150.5
-4.340	82138.5
-4.335	82147.5
-4.330	82131.5
-4.325	82132.5
-4.320	82098.5
-4.315	82102.5
-4.310	82121.5
-4.305	82127.5
-4.300	82127.5
-4.295	82118.5
-4.290	82122.5
-4.285	82123.5
-4.280	82123.5
-4.275	82125.5
-4.270	82140.4
-4.265	82155.4
-4.260	82145.4
-4.255	82123.4
-4.250	82100.4
-4.245	82106.4
-4.240	82114.4
-4.235	82126.4
-4.230	82109.4
-4.225	82097.4
-4.220	82080.5
-4.215	82083.5
-4.210	82084.5
-4.205	82101.5
-4.200	82103.4
-4.195	82100.4
-4.190	82069.5
-4.185	82054.5
-4.180	82055.4
-4.175	82097.4
-4.170	82092.4
-4.165	82095.4
-4.160	82093.4
-4.155	82099.3
-4.150	82075.3
-4.145	82068.3
-4.140	82053.2
-4.135	82063.1
-4.130	82046.9
-4.125	82022.7
-4.120	81968.5
-4.115	81923.2
-4.110	81900.8
-4.105	81857.4
-4.100	81791.0
-4.095	81711.5
-4.090	81651.9
-4.085	81592.4
-4.080	81534.7
-4.075	81468.1
-4.070	81407.5
-4.065	81356.9
-4.060	81280.4
-4.055	81182.0
-4.050	81185.6
-4.045	81247.4
-4.040	81304.4
-4.035	81356.6
-4.030	81400.0
-4.025	81458.4
-4.020	81517.8
-4.015	81606.1
-4.010	81733.4
-4.005	81849.6
-4.000	81876.8
-3.995	81904.1
-3.990	81897.3
-3.985	81869.5
-3.980	81903.6
-3.975	81928.7
-3.970	81915.8
-3.965	81922.0
-3.960	81951.0
-3.955	81957.1
-3.950	81916.3
-3.945	81921.3
-3.940	81909.4
-3.935	81905.5
-3.930	81866.6
-3.925	81825.7
-3.920	81799.8
-3.915	81826.8
-3.910	81851.8
-3.905	81820.9
-3.900	81808.0
-3.895	81837.0
-3.890	81841.0
-3.885	81845.1
-3.880	81827.1
-3.875	81843.2
-3.870	81858.2
-3.865	81884.2
-3.860	81857.3
-3.855	81792.4
-3.850	81787.4
-3.845	81840.4
-3.840	81870.4
-3.835	81843.5
-3.830	81831.5
-3.825	81825.5
-3.820	81847.6
-3.815	81855.6
-3.810	81846.6
-3.805	81847.6
-3.800	81862.7
-3.795	81861.7
-3.790	81833.7
-3.785	81819.8
-3.780	81815.8
-3.775	81866.8
-3.770	81865.8
-3.765	81869.8
-3.760	81848.9
-3.755	81828.9
-3.750	81827.9
-3.745	81820.0
-3.740	81812.0
-3.735	81814.0
-3.730	81799.0
-3.725	81817.0
-3.720	81793.1
-3.715	81800.1
-3.710	81810.1
-3.705	81832.1
-3.700	81850.1
-3.695	81853.1
-3.690	81833.1
-3.685	81840.1
-3.680	81828.2
-3.675	81817.2
-3.670	81805.2
-3.665	81801.2
-3.660	81782.3
-3.655	81765.3
-3.650	81744.3
-3.645	81753.3
-3.640	81766.3
-3.635	81768.3
-3.630	81748.4
-3.625	81759.4
-3.620	81751.4
-3.615	81740.4
-3.610	81728.4
-3.605	81732.5
-3.600	81756.4
-3.595	81787.4
-3.590	81770.5
-3.585	81746.5
-3.580	81734.6
-3.575	81772.6
-3.570	81762.6
-3.565	81755.6
-3.560	81752.7
-3.555	81766.7
-3.550	81800.7
-3.545	81866.7
-3.540	81931.7
-3.535	82004.7
-3.530	82029.8
-3.525	82023.8
-3.520	81986.9
-3.515	81975.0
-3.510	81972.1
-3.505	81982.2
-3.500	81971.2
-3.495	81963.3
-3.490	81955.4
-3.485	81958.4
-3.480	81962.5
-3.475	81977.5
-3.470	81988.5
-3.465	82006.6
-3.460	82014.6
-3.455	82002.6
-3.450	81989.6
-3.445	81998.6
-3.440	82009.6
-3.435	82011.6
-3.430	82015.6
-3.425	82010.6
-3.420	81995.6
-3.415	82036.6
-3.410	82081.6
-3.405	82055.7
-3.400	81991.8
-3.395	81957.8
-3.390	81953.9
-3.385	82027.9
-3.380	82110.0
-3.375	82142.0
-3.370	82064.2
-3.365	81982.4
-3.360	81974.5
-3.355	82038.5
-3.350	82108.6
-3.345	82144.7
-3.340	82117.8
-3.335	82082.8
-3.330	82075.8
-3.325	82072.8
-3.320	82041.8
-3.315	82029.7
-3.310	82046.6
-3.305	82059.6
-3.300	82059.6
-3.295	82066.5
-3.290	82059.5
-3.285	82061.5
-3.280	82069.5
-3.275	82077.5
-3.270	82078.5
-3.265	82096.4
-3.260	82091.4
-3.255	82073.5
-3.250	82057.5
-3.245	82075.5
-3.240	82088.5
-3.235	82084.5
-3.230	82068.5
-3.225	82056.5
-3.220	82059.5
-3.215	82054.5
-3.210	82063.5
-3.205	82068.5
-3.200	82058.5
-3.195	82073.5
-3.190	82068.6
-3.185	82054.6
-3.180	82049.6
-3.175	82077.6
-3.170	82067.6
-3.165	82066.6
-3.160	82075.7
-3.155	82071.7
-3.150	82054.7
-3.145	82047.7
-3.140	82057.7
-3.135	82063.7
-3.130	82067.7
-3.125	82054.7
-3.120	82036.7
-3.115	82023.7
-3.110	82035.7
-3.105	82044.7
-3.100	82049.7
-3.095	82045.8
-3.090	82045.8
-3.085	82043.8
-3.080	82035.8
-3.075	82036.8
-3.070	82021.8
-3.065	82021.8
-3.060	82009.9
-3.055	81995.9
-3.050	81977.9
-3.045	82021.8
-3.040	82045.8
-3.035	82049.8
-3.030	82040.9
-3.025	82046.9
-3.020	82032.9
-3.015	82028.9
-3.010	82010.9
-3.005	82012.9
-3.000	82012.9
-2.995	82024.9
-2.990	82009.0
-2.985	82008.0
-2.980	82009.0
-2.975	82030.0
-2.970	82023.0
-2.965	82030.0
-2.960	82024.0
-2.955	82029.0
-2.950	82038.0
-2.945	82044.0
-2.940	82038.0
-2.935	82037.0
-2.930	82046.0
-2.925	82045.1
-2.920	82044.1
-2.915	82042.1
-2.910	82070.1
-2.905	82076.1
-2.900	82071.1
-2.895	82068.1
-2.890	82052.1
-2.885	82051.1
-2.880	82049.1
-2.875	82055.1
-2.870	82058.1
-2.865	82072.2
-2.860	82078.2
-2.855	82056.2
-2.850	82037.2
-2.845	82042.2
-2.840	82065.2
-2.835	82078.2
-2.830	82066.2
-2.825	82049.2
-2.820	82051.2
-2.815	82062.2
-2.810	82065.2
-2.805	82082.2
-2.800	82091.2
-2.795	82098.2
-2.790	82067.2
-2.785	82054.2
-2.780	82053.2
-2.775	82095.2
-2.770	82087.2
-2.765	82094.2
-2.760	82089.2
-2.755	82087.2
-2.750	82086.3
-2.745	82106.3
-2.740	82135.2
-2.735	82142.2
-2.730	82133.2
-2.725	82114.3
-2.720	82094.3
-2.715	82065.3
-2.710	82061.4
-2.705	82066.4
-2.700	82051.4
-2.695	82033.4
-2.690	82032.4
-2.685	82061.4
-2.680	82058.4
-2.675	82067.4
-2.670	82060.4
-2.665	82058.4
-2.660	82050.4
-2.655	82014.5
-2.650	82006.5
-2.645	82022.5
-2.640	82019.5
-2.635	81984.5
-2.630	81960.6
-2.625	81960.6
-2.620	81973.6
-2.615	81980.5
-2.610	81958.6
-2.605	81947.6
-2.600	81908.6
-2.595	81886.6
-2.590	81864.7
-2.585	81852.7
-2.580	81835.7
-2.575	81830.7
-2.570	81791.7
-2.565	81752.7
-2.560	81746.7
-2.555	81799.7
-2.550	81851.7
-2.545	81906.6
-2.540	81936.6
-2.535	81953.6
-2.530	81914.7
-2.525	81887.7
-2.520	81875.7
-2.515	81894.6
-2.510	81942.6
-2.505	81972.6
-2.500	81987.6
-2.495	82011.6
-2.490	82050.6
-2.485	82061.6
-2.480	82051.6
-2.475	82039.6
-2.470	82056.6
-2.465	82071.6
-2.460	82062.6
-2.455	82023.6
-2.450	82004.6
-2.445	82040.6
-2.440	82067.6
-2.435	82061.6
-2.430	82046.6
-2.425	82037.6
-2.420	82046.6
-2.415	82057.6
-2.410	82071.6
-2.405	82077.6
-2.400	82075.6
-2.395	82102.6
-2.390	82093.6
-2.385	82074.6
-2.380	82065.6
-2.375	82100.6
-2.370	82116.6
-2.365	82131.6
-2.360	82142.6
-2.355	82141.6
-2.350	82132.6
-2.345	82136.6
-2.340	82130.6
-2.335	82123.7
-2.330	82127.7
-2.325	82120.7
-2.320	82109.7
-2.315	82101.7
-2.310	82118.7
-2.305	82114.7
-2.300	82111.7
-2.295	82124.7
-2.290	82114.7
-2.285	82104.7
-2.280	82103.7
-2.275	82098.7
-2.270	82088.7
-2.265	82093.6
-2.260	82106.6
-2.255	82080.6
-2.250	82071.6
-2.245	82104.6
-2.240	82116.6
-2.235	82136.6
-2.230	82138.6
-2.225	82132.6
-2.220	82147.6
-2.215	82154.6
-2.210	82155.6
-2.205	82156.6
-2.200	82160.6
-2.195	82171.6
-2.190	82142.6
-2.185	82128.6
-2.180	82126.6
-2.175	82145.6
-2.170	82141.6
-2.165	82134.6
-2.160	82141.6
-2.155	82144.6
-2.150	82140.6
-2.145	82151.6
-2.140	82145.6
-2.135	82149.6
-2.130	82149.6
-2.125	82136.6
-2.120	82118.6
-2.115	82115.6
-2.110	82163.6
-2.105	82181.6
-2.100	82182.6
-2.095	82167.6
-2.090	82147.6
-2.085	82150.6
-2.080	82149.6
-2.075	82162.6
-2.070	82150.6
-2.065	82158.6
-2.060	82151.7
-2.055	82131.7
-2.050	82116.7
-2.045	82143.7
-2.040	82128.7
-2.035	82094.7
-2.030	82064.7
-2.025	82066.7
-2.020	82081.7
-2.015	82084.7
-2.010	82098.7
-2.005	82102.7
-2.000	82113.7
-1.995	82120.7
-1.990	82090.7
-1.985	82076.7
-1.980	82082.7
-1.975	82113.7
-1.970	82106.7
-1.965	82108.7
-1.960	82091.7
-1.955	82094.7
-1.950	82092.6
-1.945	82093.6
-1.940	82107.6
-1.935	82117.6
-1.930	82126.6
-1.925	82112.6
-1.920	82089.6
-1.915	82079.6
-1.910	82108.6
-1.905	82106.6
-1.900	82108.6
-1.895	82107.6
-1.890	82099.6
-1.885	82103.6
-1.880	82089.6
-1.875	82099.6
-1.870	82096.6
-1.865	82097.6
-1.860	82085.6
-1.855	82065.6
-1.850	82049.6
-1.845	82093.6
-1.840	82119.6
-1.835	82116.6
-1.830	82112.6
-1.825	82112.6
-1.820	82100.6
-1.815	82098.6
-1.810	82118.6
-1.805	82120.6
-1.800	82106.6
-1.795	82108.6
-1.790	82075.6
-1.785	82063.6
-1.780	82068.6
-1.775	82093.6
-1.770	82085.6
-1.765	82075.6
-1.760	82075.6
-1.755	82067.6
-1.750	82069.6
-1.745	82077.5
-1.740	82076.5
-1.735	82097.5
-1.730	82099.5
-1.725	82077.5
-1.720	82064.5
-1.715	82068.5
-1.710	82087.5
-1.705	82098.5
-1.700	82099.5
-1.695	82110.5
-1.690	82110.5
-1.685	82093.5
-1.680	82078.5
-1.675	82083.5
-1.670	82096.5
-1.665	82115.4
-1.660	82128.4
-1.655	82120.5
-1.650	82105.5
-1.645	82132.5
-1.640	82138.5
-1.635	82131.5
-1.630	82129.5
-1.625	82122.5
-1.620	82105.5
-1.615	82101.5
-1.610	82098.5
-1.605	82103.5
-1.600	82091.5
-1.595	82102.5
-1.590	82085.5
-1.585	82094.5
-1.580	82106.5
-1.575	82139.4
-1.570	82136.4
-1.565	82126.4
-1.560	82128.4
-1.555	82133.4
-1.550	82135.4
-1.545	82129.4
-1.540	82126.4
-1.535	82130.4
-1.530	82137.4
-1.525	82120.4
-1.520	82104.4
-1.515	82117.4
-1.510	82144.4
-1.505	82137.4
-1.500	82146.3
-1.495	82145.3
-1.490	82139.3
-1.485	82134.3
-1.480	82136.3
-1.475	82130.3
-1.470	82134.3
-1.465	82138.3
-1.460	82136.3
-1.455	82112.3
-1.450	82105.3
-1.445	82145.2
-1.440	82159.2
-1.435	82181.2
-1.430	82191.2
-1.425	82200.2
-1.420	82198.2
-1.415	82208.2
-1.410	82196.2
-1.405	82182.2
-1.400	82173.2
-1.395	82170.2
-1.390	82144.2
-1.385	82131.2
-1.380	82148.2
-1.375	82164.2
-1.370	82161.2
-1.365	82168.2
-1.360	82158.2
-1.355	82169.2
-1.350	82165.2
-1.345	82161.2
-1.340	82155.2
-1.335	82173.1
-1.330	82177.1
-1.325	82168.1
-1.320	82148.1
-1.315	82150.1
-1.310	82177.1
-1.305	82190.1
-1.300	82189.1
-1.295	82184.1
-1.290	82174.1
-1.285	82161.1
-1.280	82141.1
-1.275	82147.1
-1.270	82148.1
-1.265	82148.1
-1.260	82136.1
-1.255	82110.1
-1.250	82100.1
-1.245	82128.0
-1.240	82135.0
-1.235	82132.0
-1.230	82114.0
-1.225	82126.0
-1.220	82117.0
-1.215	82121.0
-1.210	82121.0
-1.205	82126.0
-1.200	82120.0
-1.195	82122.0
-1.190	82099.1
-1.185	82084.1
-1.180	82076.1
-1.175	82116.1
-1.170	82107.1
-1.165	82105.1
-1.160	82095.1
-1.155	82095.1
-1.150	82073.1
-1.145	82073.1
-1.140	82071.1
-1.135	82067.1
-1.130	82052.1
-1.125	82036.1
-1.120	82021.1
-1.115	82034.1
-1.110	82056.0
-1.105	82059.0
-1.100	82059.0
-1.095	82059.0
-1.090	82043.0
-1.085	82047.0
-1.080	82048.0
-1.075	82050.0
-1.070	82046.0
-1.065	82058.9
-1.060	82042.9
-1.055	82022.0
-1.050	82007.0
-1.045	82021.9
-1.040	82028.9
-1.035	82021.9
-1.030	82027.9
-1.025	82014.9
-1.020	82014.9
-1.015	82013.9
-1.010	82012.9
-1.005	82017.9
-1.000	82014.9
-0.995	82012.9
-0.990	81986.9
-0.985	81975.9
-0.980	81978.9
-0.975	82002.9
-0.970	81989.9
-0.965	81989.9
-0.960	81971.9
-0.955	81990.9
-0.950	81984.9
-0.945	82000.9
-0.940	81994.8
-0.935	82005.8
-0.930	81996.8
-0.925	81985.8
-0.920	81965.8
-0.915	81960.8
-0.910	81983.8
-0.905	81981.8
-0.900	81970.8
-0.895	81980.8
-0.890	81972.9
-0.885	81978.9
-0.880	81978.9
-0.875	81996.9
-0.870	81983.9
-0.865	81992.9
-0.860	81955.9
-0.855	81944.9
-0.850	81941.9
-0.845	81980.9
-0.840	81982.8
-0.835	81982.8
-0.830	81980.8
-0.825	81977.8
-0.820	81972.8
-0.815	81969.8
-0.810	81963.8
-0.805	81962.8
-0.800	81956.7
-0.795	81958.7
-0.790	81930.7
-0.785	81924.7
-0.780	81940.7
-0.775	81967.6
-0.770	81977.6
-0.765	81976.6
-0.760	81975.6
-0.755	81976.6
-0.750	81958.6
-0.745	81953.6
-0.740	81956.6
-0.735	81945.6
-0.730	81947.6
-0.725	81919.6
-0.720	81898.6
-0.715	81913.6
-0.710	81933.5
-0.705	81918.5
-0.700	81902.6
-0.695	81896.6
-0.690	81884.6
-0.685	81890.6
-0.680	81894.6
-0.675	81910.5
-0.670	81917.5
-0.665	81929.5
-0.660	81947.5
-0.655	81942.5
-0.650	81953.5
-0.645	82003.5
-0.640	82014.5
-0.635	82019.5
-0.630	82019.5
-0.625	82007.5
-0.620	81984.5
-0.615	81976.5
-0.610	81966.5
-0.605	81969.5
-0.600	81955.5
-0.595	81955.4
-0.590	81923.5
-0.585	81902.5
-0.580	81921.5
-0.575	81923.4
-0.570	81918.4
-0.565	81911.4
-0.560	81910.4
-0.555	81910.4
-0.550	81926.4
-0.545	81939.4
-0.540	81957.4
-0.535	81973.3
-0.530	81996.3
-0.525	81983.3
-0.520	81970.3
-0.515	81982.3
-0.510	82005.3
-0.505	81999.3
-0.500	81995.3
-0.495	81993.3
-0.490	81988.3
-0.485	81976.3
-0.480	81973.3
-0.475	81976.3
-0.470	81967.3
-0.465	81967.2
-0.460	81949.3
-0.455	81925.3
-0.450	81918.3
-0.445	81947.2
-0.440	81956.2
-0.435	81961.2
-0.430	81954.2
-0.425	81947.2
-0.420	81939.2
-0.415	81944.2
-0.410	81950.2
-0.405	81967.2
-0.400	81967.2
-0.395	81984.2
-0.390	81975.2
-0.385	81982.2
-0.380	82004.1
-0.375	82005.1
-0.370	81995.1
-0.365	81988.1
-0.360	81972.1
-0.355	81976.1
-0.350	81978.1
-0.345	81983.1
-0.340	82004.1
-0.335	82013.1
-0.330	82025.1
-0.325	81997.1
-0.320	81986.1
-0.315	81984.1
-0.310	82016.0
-0.305	82014.0
-0.300	82015.0
-0.295	82026.0
-0.290	82035.0
-0.285	82042.0
-0.280	82024.0
-0.275	81999.0
-0.270	81969.0
-0.265	81962.0
-0.260	81953.0
-0.255	81942.0
-0.250	81949.0
-0.245	81976.9
-0.240	81976.9
-0.235	81998.9
-0.230	82005.9
-0.225	82018.9
-0.220	82012.9
-0.215	82012.9
-0.210	82017.9
-0.205	82035.8
-0.200	82034.8
-0.195	82030.8
-0.190	81983.9
-0.185	81962.9
-0.180	81983.8
-0.175	81999.8
-0.170	81967.8
-0.165	81962.8
-0.160	81963.8
-0.155	81973.8
-0.150	81974.8
-0.145	81976.8
-0.140	81980.8
-0.135	81996.8
-0.130	82002.7
-0.125	81975.8
-0.120	81956.8
-0.115	81983.7
-0.110	82021.7
-0.105	82030.7
-0.100	82049.7
-0.095	82075.7
-0.090	82061.7
-0.085	82029.8
-0.080	81994.8
-0.075	82004.8
-0.070	82008.8
-0.065	82013.8
-0.060	81994.8
-0.055	81977.8
-0.050	81963.8
-0.045	81992.8
-0.040	81974.7
-0.035	81951.7
-0.030	81949.6
-0.025	81968.5
-0.020	81970.4
-0.015	81942.4
-0.010	81929.3
-0.005	81922.2
0.000	81878.2
0.005	81819.1
0.010	81788.1
0.015	81859.1
0.020	81939.1
0.025	81949.2
0.030	81935.4
0.035	81996.5
0.040	81998.7
0.045	81946.9
0.050	81950.0
0.055	82022.1
0.060	82049.1
0.065	82022.2
0.070	81955.2
0.075	81872.1
0.080	81807.1
0.085	81848.9
0.090	81902.7
0.095	81962.5
0.100	81976.3
0.105	81977.2
0.110	81945.2
0.115	81928.2
0.120	81890.2
0.125	81864.3
0.130	81889.3
0.135	81926.3
0.140	81936.3
0.145	81953.3
0.150	81982.3
0.155	82032.3
0.160	82037.3
0.165	82014.3
0.170	81991.4
0.175	81942.4
0.180	81907.4
0.185	81876.4
0.190	81873.4
0.195	81894.4
0.200	81898.4
0.205	81888.4
0.210	81862.4
0.215	81854.4
0.220	81874.3
0.225	81884.3
0.230	81862.3
0.235	81869.3
0.240	81888.3
0.245	81925.3
0.250	81935.2
0.255	81953.2
0.260	81951.2
0.265	81942.2
0.270	81942.2
0.275	81915.2
0.280	81895.2
0.285	81923.2
0.290	81954.1
0.295	81979.1
0.300	81963.1
0.305	81964.1
0.310	81939.1
0.315	81921.1
0.320	81893.2
0.325	81887.2
0.330	81875.2
0.335	81884.1
0.340	81871.1
0.345	81850.1
0.350	81862.1
0.355	81893.1
0.360	81887.1
0.365	81877.1
0.370	81873.1
0.375	81890.1
0.380	81914.1
0.385	81930.0
0.390	81925.0
0.395	81939.0
0.400	81955.0
0.405	81957.0
0.410	81925.0
0.415	81903.0
0.420	81934.0
0.425	81952.0
0.430	81950.0
0.435	81939.0
0.440	81923.0
0.445	81914.0
0.450	81915.0
0.455	81933.0
0.460	81913.0
0.465	81925.0
0.470	81926.0
0.475	81901.0
0.480	81877.0
0.485	81886.0
0.490	81900.0
0.495	81911.0
0.500	81908.0
0.505	81918.0
0.510	81929.9
0.515	81955.9
0.520	81955.9
0.525	81952.9
0.530	81948.9
0.535	81956.9
0.540	81942.9
0.545	81918.9
0.550	81895.9
0.555	81918.9
0.560	81897.9
0.565	81887.9
0.570	81885.9
0.575	81888.9
0.580	81879.9
0.585	81880.9
0.590	81871.9
0.595	81882.8
0.600	81904.8
0.605	81892.8
0.610	81887.8
0.615	81897.8
0.620	81923.7
0.625	81931.7
0.630	81944.7
0.635	81926.7
0.640	81931.7
0.645	81928.7
0.650	81914.7
0.655	81913.6
0.660	81912.6
0.665	81912.6
0.670	81902.6
0.675	81875.6
0.680	81843.7
0.685	81844.6
0.690	81857.6
0.695	81856.6
0.700	81873.6
0.705	81879.6
0.710	81869.6
0.715	81866.6
0.720	81856.6
0.725	81856.6
0.730	81846.6
0.735	81852.6
0.740	81807.7
0.745	81804.7
0.750	81810.7
0.755	81854.6
0.760	81865.6
0.765	81876.6
0.770	81873.6
0.775	81878.6
0.780	81871.6
0.785	81874.6
0.790	81871.6
0.795	81881.6
0.800	81879.6
0.805	81870.6
0.810	81858.6
0.815	81865.6
0.820	81894.5
0.825	81897.5
0.830	81904.5
0.835	81915.5
0.840	81895.5
0.845	81884.5
0.850	81861.5
0.855	81845.5
0.860	81842.5
0.865	81824.5
0.870	81825.5
0.875	81812.5
0.880	81806.5
0.885	81837.5
0.890	81859.4
0.895	81856.4
0.900	81849.4
0.905	81853.4
0.910	81855.4
0.915	81853.4
0.920	81844.4
0.925	81865.4
0.930	81864.4
0.935	81891.4
0.940	81870.4
0.945	81849.4
0.950	81851.4
0.955	81875.3
0.960	81874.3
0.965	81883.3
0.970	81881.3
0.975	81894.3
0.980	81892.3
0.985	81887.3
0.990	81884.3
0.995	81884.2
1.000	81876.2
1.005	81871.2
1.010	81847.2
1.015	81849.2
1.020	81881.2
1.025	81908.2
1.030	81898.2
1.035	81886.2
1.040	81872.2
1.045	81844.2
1.050	81825.2
1.055	81795.2
1.060	81787.2
1.065	81788.2
1.070	81771.2
1.075	81740.3
1.080	81722.3
1.085	81747.3
1.090	81767.3
1.095	81785.2
1.100	81789.2
1.105	81794.2
1.110	81780.3
1.115	81787.2
1.120	81788.2
1.125	81805.2
1.130	81815.2
1.135	81842.2
1.140	81822.2
1.145	81807.2
1.150	81821.2
1.155	81842.1
1.160	81822.1
1.165	81828.1
1.170	81829.1
1.175	81843.1
1.180	81841.1
1.185	81846.1
1.190	81851.1
1.195	81861.1
1.200	81879.0
1.205	81883.0
1.210	81856.1
1.215	81855.1
1.220	81876.0
1.225	81877.0
1.230	81871.0
1.235	81895.0
1.240	81892.0
1.245	81908.0
1.250	81899.0
1.255	81889.0
1.260	81889.0
1.265	81881.0
1.270	81881.0
1.275	81854.0
1.280	81842.0
1.285	81882.0
1.290	81901.9
1.295	81914.9
1.300	81911.9
1.305	81917.9
1.310	81903.9
1.315	81893.9
1.320	81867.9
1.325	81866.9
1.330	81865.9
1.335	81857.9
1.340	81843.9
1.345	81827.9
1.350	81834.9
1.355	81848.9
1.360	81855.9
1.365	81858.9
1.370	81875.9
1.375	81884.9
1.380	81889.9
1.385	81892.9
1.390	81897.9
1.395	81898.9
1.400	81908.9
1.405	81890.9
1.410	81867.9
1.415	81871.9
1.420	81895.9
1.425	81893.9
1.430	81877.9
1.435	81880.9
1.440	81873.8
1.445	81889.8
1.450	81890.8
1.455	81912.8
1.460	81900.8
1.465	81916.8
1.470	81912.8
1.475	81891.8
1.480	81870.8
1.485	81908.8
1.490	81918.8
1.495	81937.7
1.500	81936.7
1.505	81949.7
1.510	81937.7
1.515	81921.7
1.520	81909.7
1.525	81904.7
1.530	81906.7
1.535	81919.7
1.540	81890.7
1.545	81884.7
1.550	81891.6
1.555	81912.6
1.560	81907.6
1.565	81890.6
1.570	81890.6
1.575	81894.6
1.580	81881.6
1.585	81872.6
1.590	81858.7
1.595	81846.7
1.600	81844.7
1.605	81837.7
1.610	81817.7
1.615	81824.7
1.620	81856.7
1.625	81862.7
1.630	81857.7
1.635	81859.7
1.640	81859.7
1.645	81865.6
1.650	81841.7
1.655	81848.7
1.660	81848.6
1.665	81861.6
1.670	81856.6
1.675	81834.7
1.680	81826.7
1.685	81861.7
1.690	81876.6
1.695	81874.6
1.700	81878.6
1.705	81907.6
1.710	81903.6
1.715	81902.6
1.720	81893.6
1.725	81883.6
1.730	81891.6
1.735	81889.6
1.740	81867.6
1.745	81842.6
1.750	81841.6
1.755	81862.6
1.760	81873.5
1.765	81890.5
1.770	81880.5
1.775	81863.5
1.780	81844.5
1.785	81824.6
1.790	81817.6
1.795	81825.6
1.800	81837.6
1.805	81829.6
1.810	81815.6
1.815	81822.6
1.820	81861.6
1.825	81843.6
1.830	81847.6
1.835	81844.6
1.840	81837.6
1.845	81814.6
1.850	81798.6
1.855	81788.6
1.860	81781.6
1.865	81789.6
1.870	81805.6
1.875	81802.6
1.880	81803.6
1.885	81820.6
1.890	81811.6
1.895	81811.6
1.900	81792.6
1.905	81790.6
1.910	81797.5
1.915	81794.5
1.920	81776.5
1.925	81779.5
1.930	81777.5
1.935	81803.5
1.940	81770.5
1.945	81763.5
1.950	81767.5
1.955	81761.5
1.960	81753.5
1.965	81732.6
1.970	81717.6
1.975	81733.6
1.980	81732.6
1.985	81760.6
1.990	81774.6
1.995	81777.6
2.000	81795.5
2.005	81793.5
2.010	81769.6
2.015	81786.5
2.020	81788.5
2.025	81745.6
2.030	81726.6
2.035	81722.6
2.040	81748.6
2.045	81787.5
2.050	81799.5
2.055	81811.5
2.060	81807.5
2.065	81791.5
2.070	81787.5
2.075	81769.5
2.080	81768.5
2.085	81835.4
2.090	81843.4
2.095	81831.4
2.100	81820.4
2.105	81800.5
2.110	81800.5
2.115	81806.5
2.120	81801.5
2.125	81811.5
2.130	81808.5
2.135	81805.5
2.140	81755.6
2.145	81723.6
2.150	81739.6
2.155	81790.6
2.160	81797.6
2.165	81819.6
2.170	81817.6
2.175	81792.6
2.180	81775.6
2.185	81764.6
2.190	81769.6
2.195	81798.6
2.200	81791.6
2.205	81783.6
2.210	81761.6
2.215	81752.6
2.220	81755.6
2.225	81745.6
2.230	81740.6
2.235	81743.6
2.240	81743.6
2.245	81761.6
2.250	81773.5
2.255	81781.5
2.260	81752.6
2.265	81730.6
2.270	81723.6
2.275	81702.6
2.280	81705.6
2.285	81750.6
2.290	81742.6
2.295	81751.6
2.300	81750.6
2.305	81765.6
2.310	81768.6
2.315	81742.6
2.320	81718.6
2.325	81704.6
2.330	81715.6
2.335	81734.6
2.340	81710.6
2.345	81713.6
2.350	81723.6
2.355	81719.6
2.360	81694.6
2.365	81681.6
2.370	81685.6
2.375	81706.6
2.380	81731.6
2.385	81762.5
2.390	81747.6
2.395	81746.6
2.400	81735.6
2.405	81687.6
2.410	81646.7
2.415	81657.7
2.420	81684.7
2.425	81727.7
2.430	81754.6
2.435	81759.7
2.440	81729.7
2.445	81724.7
2.450	81709.7
2.455	81701.7
2.460	81701.7
2.465	81712.7
2.470	81699.7
2.475	81682.7
2.480	81672.7
2.485	81706.7
2.490	81705.7
2.495	81694.7
2.500	81681.7
2.505	81702.7
2.510	81702.7
2.515	81698.7
2.520	81700.7
2.525	81720.7
2.530	81740.7
2.535	81745.7
2.540	81703.7
2.545	81698.7
2.550	81713.7
2.555	81740.7
2.560	81724.7
2.565	81709.8
2.570	81704.8
2.575	81709.8
2.580	81694.8
2.585	81712.8
2.590	81722.8
2.595	81739.8
2.600	81756.8
2.605	81744.8
2.610	81738.8
2.615	81734.8
2.620	81764.7
2.625	81782.7
2.630	81763.7
2.635	81739.7
2.640	81707.8
2.645	81685.8
2.650	81676.8
2.655	81689.8
2.660	81704.8
2.665	81724.8
2.670	81754.8
2.675	81745.8
2.680	81729.8
2.685	81755.8
2.690	81736.8
2.695	81734.8
2.700	81725.9
2.705	81753.9
2.710	81757.9
2.715	81782.9
2.720	81789.9
2.725	81797.9
2.730	81781.9
2.735	81750.9
2.740	81701.0
2.745	81653.0
2.750	81651.0
2.755	81674.0
2.760	81718.0
2.765	81763.0
2.770	81787.0
2.775	81803.0
2.780	81805.0
2.785	81810.0
2.790	81786.0
2.795	81787.0
2.800	81782.0
2.805	81797.0
2.810	81801.0
2.815	81816.0
2.820	81841.0
2.825	81840.0
2.830	81831.0
2.835	81830.0
2.840	81817.0
2.845	81811.0
2.850	81783.0
2.855	81780.0
2.860	81770.0
2.865	81773.0
2.870	81773.1
2.875	81761.1
2.880	81763.1
2.885	81791.1
2.890	81802.1
2.895	81803.1
2.900	81805.1
2.905	81815.1
2.910	81823.1
2.915	81832.1
2.920	81839.1
2.925	81841.1
2.930	81842.1
2.935	81840.1
2.940	81803.2
2.945	81772.2
2.950	81774.2
2.955	81769.2
2.960	81792.2
2.965	81806.2
2.970	81828.2
2.975	81842.2
2.980	81862.2
2.985	81865.2
2.990	81854.2
2.995	81837.3
3.000	81821.3
3.005	81792.3
3.010	81773.3
3.015	81801.3
3.020	81826.3
3.025	81818.3
3.030	81827.3
3.035	81830.3
3.040	81836.3
3.045	81838.3
3.050	81845.4
3.055	81847.4
3.060	81840.4
3.065	81861.4
3.070	81852.4
3.075	81832.4
3.080	81814.4
3.085	81868.4
3.090	81870.4
3.095	81886.4
3.100	81892.4
3.105	81891.4
3.110	81881.4
3.115	81871.4
3.120	81870.4
3.125	81870.4
3.130	81862.5
3.135	81861.5
3.140	81826.5
3.145	81837.5
3.150	81858.5
3.155	81882.5
3.160	81891.5
3.165	81895.5
3.170	81868.5
3.175	81858.5
3.180	81859.6
3.185	81861.6
3.190	81863.6
3.195	81878.6
3.200	81891.6
3.205	81885.6
3.210	81863.6
3.215	81872.6
3.220	81884.6
3.225	81889.6
3.230	81865.7
3.235	81854.7
3.240	81854.7
3.245	81864.7
3.250	81869.7
3.255	81883.7
3.260	81896.7
3.265	81909.7
3.270	81868.7
3.275	81845.7
3.280	81852.7
3.285	81885.7
3.290	81885.7
3.295	81880.6
3.300	81878.6
3.305	81878.6
3.310	81881.6
3.315	81873.5
3.320	81874.5
3.325	81900.5
3.330	81933.4
3.335	81948.4
3.340	81884.4
3.345	81802.5
3.350	81756.6
3.355	81749.6
3.360	81806.6
3.365	81875.6
3.370	81890.7
3.375	81868.8
3.380	81866.9
3.385	81923.9
3.390	81921.0
3.395	81873.2
3.400	81849.4
3.405	81912.5
3.410	81962.5
3.415	81972.5
3.420	81964.5
3.425	81969.5
3.430	81979.5
3.435	81997.5
3.440	81986.5
3.445	81971.5
3.450	81957.5
3.455	81977.5
3.460	81999.5
3.465	82006.5
3.470	81992.5
3.475	81975.6
3.480	81969.6
3.485	81991.6
3.490	81994.7
3.495	81993.8
3.500	81999.8
3.505	82007.9
3.510	82020.9
3.515	82038.0
3.520	82050.0
3.525	82050.1
3.530	82043.2
3.535	82033.3
3.540	82018.4
3.545	82017.4
3.550	82039.5
3.555	82042.5
3.560	82039.6
3.565	82030.6
3.570	82022.7
3.575	82014.7
3.580	82007.7
3.585	82021.8
3.590	82014.8
3.595	82038.8
3.600	82023.8
3.605	82008.9
3.610	81980.9
3.615	81988.9
3.620	81996.9
3.625	82015.9
3.630	82002.9
3.635	82004.0
3.640	81999.0
3.645	81996.0
3.650	82000.0
3.655	82018.0
3.660	82012.0
3.665	82028.0
3.670	81988.1
3.675	81961.1
3.680	81959.1
3.685	81986.1
3.690	81984.1
3.695	81988.1
3.700	81980.2
3.705	81995.2
3.710	81998.2
3.715	82017.2
3.720	82016.2
3.725	82021.2
3.730	82037.2
3.735	82031.2
3.740	82005.3
3.745	81993.3
3.750	82032.3
3.755	82044.3
3.760	82056.3
3.765	82075.3
3.770	82078.3
3.775	82086.4
3.780	82088.4
3.785	82099.4
3.790	82105.4
3.795	82114.4
3.800	82121.5
3.805	82098.5
3.810	82089.5
3.815	82094.6
3.820	82098.6
3.825	82106.6
3.830	82116.7
3.835	82128.7
3.840	82126.7
3.845	82133.7
3.850	82129.8
3.855	82127.8
3.860	82120.9
3.865	82128.9
3.870	82091.0
3.875	82077.0
3.880	82065.1
3.885	82099.1
3.890	82081.2
3.895	82075.2
3.900	82071.3
3.905	82049.3
3.910	82026.4
3.915	82018.5
3.920	82000.5
3.925	82001.6
3.930	81983.7
3.935	81955.8
3.940	81907.9
3.945	81898.9
3.950	81898.0
3.955	81878.1
3.960	81829.3
3.965	81807.4
3.970	81861.5
3.975	81632.8
3.980	81092.3
3.985	80898.6
3.990	81254.5
3.995	81696.4
4.000	81866.6
4.005	81933.8
4.010	81896.1
4.015	81721.5
4.020	81500.9
4.025	81480.2
4.030	81588.4
4.035	81650.5
4.040	81602.7
4.045	81554.8
4.050	81529.9
4.055	81517.8
4.060	81467.7
4.065	81420.5
4.070	81346.2
4.075	81323.7
4.080	81364.1
4.085	81449.3
4.090	81494.5
4.095	81557.6
4.100	81618.7
4.105	81678.9
4.110	81709.2
4.115	81750.7
4.120	81779.4
4.125	81802.2
4.130	81805.1
4.135	81806.0
4.140	81766.0
4.145	81759.9
4.150	81781.9
4.155	81790.8
4.160	81791.8
4.165	81793.8
4.170	81793.8
4.175	81792.8
4.180	81790.8
4.185	81793.8
4.190	81796.7
4.195	81792.8
4.200	81770.8
4.205	81745.8
4.210	81736.8
4.215	81766.8
4.220	81797.7
4.225	81804.7
4.230	81788.7
4.235	81794.7
4.240	81795.7
4.245	81792.7
4.250	81769.7
4.255	81773.7
4.260	81774.7
4.265	81780.7
4.270	81775.7
4.275	81780.7
4.280	81795.7
4.285	81823.7
4.290	81817.7
4.295	81806.7
4.300	81782.7
4.305	81780.7
4.310	81770.7
4.315	81766.7
4.320	81773.7
4.325	81783.7
4.330	81781.7
4.335	81772.7
4.340	81757.7
4.345	81780.7
4.350	81824.6
4.355	81837.6
4.360	81826.6
4.365	81818.6
4.370	81807.6
4.375	81824.6
4.380	81827.6
4.385	81825.6
4.390	81834.6
4.395	81849.6
4.400	81860.6
4.405	81826.6
4.410	81798.6
4.415	81812.6
4.420	81820.6
4.425	81821.6
4.430	81842.6
4.435	81844.6
4.440	81834.6
4.445	81839.5
4.450	81847.5
4.455	81837.5
4.460	81831.6
4.465	81824.6
4.470	81807.6
4.475	81797.6
4.480	81794.6
4.485	81824.5
4.490	81819.5
4.495	81817.5
4.500	81817.5
4.505	81840.5
4.510	81842.5
4.515	81843.5
4.520	81850.5
4.525	81851.5
4.530	81845.5
4.535	81828.5
4.540	81797.5
4.545	81801.5
4.550	81830.5
4.555	81844.4
4.560	81837.4
4.565	81853.4
4.570	81835.4
4.575	81839.4
4.580	81833.4
4.585	81820.4
4.590	81814.4
4.595	81829.4
4.600	81826.4
4.605	81800.4
4.610	81792.5
4.615	81838.4
4.620	81841.4
4.625	81842.4
4.630	81833.4
4.635	81842.4
4.640	81835.4
4.645	81837.4
4.650	81823.4
4.655	81821.4
4.660	81836.3
4.665	81827.3
4.670	81801.3
4.675	81795.3
4.680	81794.3
4.685	81833.3
4.690	81838.3
4.695	81828.3
4.700	81817.3
4.705	81819.3
4.710	81822.3
4.715	81816.3
4.720	81809.3
4.725	81815.3
4.730	81803.3
4.735	81782.3
4.740	81763.3
4.745	81765.3
4.750	81790.3
4.755	81802.2
4.760	81817.2
4.765	81821.2
4.770	81814.2
4.775	81798.2
4.780	81785.2
4.785	81778.2
4.790	81783.2
4.795	81794.2
4.800	81781.2
4.805	81777.2
4.810	81772.2
4.815	81808.1
4.820	81817.1
4.825	81817.1
4.830	81804.1
4.835	81802.1
4.840	81777.1
4.845	81776.1
4.850	81770.1
4.855	81791.0
4.860	81807.0
4.865	81820.0
4.870	81779.0
4.875	81776.0
4.880	81788.0
4.885	81828.0
4.890	81816.0
4.895	81796.0
4.900	81790.0
4.905	81778.0
4.910	81768.0
4.915	81777.0
4.920	81785.0
4.925	81797.9
4.930	81815.9
4.935	81807.9
4.940	81784.9
4.945	81773.9
4.950	81806.9
4.955	81811.8
4.960	81798.8
4.965	81800.8
4.970	81797.8
4.975	81782.8
4.980	81768.8
4.985	81764.8
4.990	81758.8
4.995	81782.7
5.000	81782.7
5.005	81770.7
5.010	81757.7
5.015	81768.7
5.020	81764.7
5.025	81773.6
5.030	81773.6
5.035	81777.6
5.040	81779.6
5.045	81760.6
5.050	81759.6
5.055	81771.5
5.060	81778.5
5.065	81817.4
5.070	81783.4
5.075	81742.5
5.080	81724.4
5.085	81733.4
5.090	81733.4
5.095	81765.4
5.100	81773.3
5.105	81787.3
5.110	81784.3
5.115	81770.3
5.120	81763.2
5.125	81760.2
5.130	81765.2
5.135	81775.2
5.140	81748.2
5.145	81734.1
5.150	81747.1
5.155	81753.0
5.160	81771.0
5.165	81787.9
5.170	81781.9
5.175	81774.8
5.180	81782.8
5.185	81797.7
5.190	81782.7
5.195	81786.6
5.200	81776.6
5.205	81749.6
5.210	81744.5
5.215	81761.4
5.220	81778.4
5.225	81787.3
5.230	81781.2
5.235	81777.2
5.240	81774.1
5.245	81764.0
5.250	81747.9
5.255	81720.9
5.260	81710.8
5.265	81708.7
5.270	81650.6
5.275	81645.5
5.280	81652.4
5.285	81671.2
5.290	81632.0
5.295	81603.9
5.300	81547.7
5.305	81504.5
5.310	81437.2
5.315	81394.0
5.320	81283.8
5.325	81221.6
5.330	81128.5
5.335	81037.4
5.340	80964.4
5.345	80878.4
5.350	80848.5
5.355	80831.6
5.360	80803.8
5.365	80798.2
5.370	80816.6
5.375	80868.1
5.380	80903.6
5.385	80946.3
5.390	81051.1
5.395	81240.9
5.400	81463.6
5.405	81656.1
5.410	81781.4
5.415	81877.6
5.420	81929.7
5.425	81965.7
5.430	81967.7
5.435	81980.7
5.440	81970.7
5.445	81979.7
5.450	81976.7
5.455	81978.7
5.460	81980.7
5.465	81991.7
5.470	81963.7
5.475	81942.7
5.480	81954.7
5.485	81976.7
5.490	81975.7
5.495	81983.7
5.500	81969.7
5.505	81986.7
5.510	81971.7
5.515	81974.7
5.520	81964.7
5.525	81976.7
5.530	81973.7
5.535	81950.7
5.540	81934.7
5.545	81941.7
5.550	81973.7
5.555	81983.7
5.560	81975.7
5.565	81979.7
5.570	81971.7
5.575	81972.7
5.580	81964.7
5.585	81967.7
5.590	81965.7
5.595	81979.7
5.600	81966.7
5.605	81949.7
5.610	81940.7
5.615	81968.7
5.620	81983.7
5.625	81978.7
5.630	81985.7
5.635	81979.7
5.640	81983.8
5.645	81985.8
5.650	81986.8
5.655	81993.8
5.660	81975.8
5.665	81979.8
5.670	81947.9
5.675	81947.9
5.680	81966.9
5.685	81984.9
5.690	81965.9
5.695	81959.9
5.700	81951.9
5.705	81963.9
5.710	81968.9
5.715	81965.9
5.720	81974.9
5.725	81987.8
5.730	81982.8
5.735	81972.8
5.740	81936.8
5.745	81932.8
5.750	81942.8
5.755	81953.8
5.760	81939.8
5.765	81941.8
5.770	81935.8
5.775	81946.8
5.780	81939.8
5.785	81949.8
5.790	81944.8
5.795	81948.8
5.800	81927.8
5.805	81914.8
5.810	81913.8
5.815	81949.8
5.820	81947.8
5.825	81946.8
5.830	81940.8
5.835	81935.8
5.840	81940.8
5.845	81944.8
5.850	81944.8
5.855	81951.8
5.860	81955.8
5.865	81961.7
5.870	81936.8
5.875	81911.8
5.880	81922.8
5.885	81951.8
5.890	81960.8
5.895	81951.8
5.900	81951.8
5.905	81950.8
5.910	81944.8
5.915	81938.8
5.920	81946.8
5.925	81944.8
5.930	81947.8
5.935	81915.8
5.940	81897.8
5.945	81905.8
5.950	81930.8
5.955	81938.8
5.960	81924.8
5.965	81927.8
5.970	81918.8
5.975	81915.8
5.980	81916.8
5.985	81906.8
5.990	81912.8
5.995	81921.8
6.000	81914.8
6.005	81897.8
6.010	81890.8
6.015	81926.8
6.020	81933.8
6.025	81922.8
6.030	81912.8
6.035	81912.8
6.040	81905.8
6.045	81904.8
6.050	81898.8
6.055	81896.8
6.060	81896.8
6.065	81889.8
6.070	81868.8
6.075	81855.9
6.080	81875.8
6.085	81892.8
6.090	81885.8
6.095	81890.8
6.100	81889.8
6.105	81886.8
6.110	81883.8
6.115	81892.8
6.120	81885.8
6.125	81896.8
6.130	81897.8
6.135	81884.8
6.140	81858.9
6.145	81864.9
6.150	81890.8
6.155	81900.8
6.160	81876.8
6.165	81874.8
6.170	81871.8
6.175	81867.9
6.180	81859.9
6.185	81861.9
6.190	81841.9
6.195	81839.9
6.200	81827.9
6.205	81821.9
6.210	81819.9
6.215	81853.9
6.220	81852.9
6.225	81851.9
6.230	81842.9
6.235	81839.9
6.240	81830.9
6.245	81852.9
6.250	81869.9
6.255	81879.9
6.260	81872.9
6.265	81890.8
6.270	81865.9
6.275	81862.9
6.280	81883.8
6.285	81911.8
6.290	81917.8
6.295	81920.8
6.300	81921.8
6.305	81913.8
6.310	81914.8
6.315	81927.8
6.320	81934.8
6.325	81935.8
6.330	81936.8
6.335	81918.8
6.340	81899.8
6.345	81910.8
6.350	81944.8
6.355	81938.8
6.360	81938.8
6.365	81940.8
6.370	81943.8
6.375	81943.8
6.380	81946.8
6.385	81948.8
6.390	81959.8
6.395	81970.8
6.400	81957.8
6.405	81940.8
6.410	81936.8
6.415	81978.8
6.420	81970.8
6.425	81971.8
6.430	81970.8
6.435	81963.8
6.440	81968.8
6.445	81959.8
6.450	81965.8
6.455	81971.8
6.460	81955.8
6.465	81971.8
6.470	81934.8
6.475	81941.8
6.480	81956.8
6.485	81979.8
6.490	81975.8
6.495	81973.8
6.500	81974.8
6.505	81970.8
6.510	81973.8
6.515	81972.8
6.520	81969.8
6.525	81984.8
6.530	81982.8
6.535	81953.8
6.540	81926.8
6.545	81931.8
6.550	81960.8
6.555	81969.8
6.560	81963.8
6.565	81972.8
6.570	81966.8
6.575	81965.8
6.580	81975.8
6.585	81978.8
6.590	81973.8
6.595	81983.8
6.600	81969.8
6.605	81960.8
6.610	81963.8
6.615	81995.8
6.620	81997.8
6.625	82003.8
6.630	82000.8
6.635	82001.8
6.640	82004.8
6.645	82010.8
6.650	82005.8
6.655	82013.8
6.660	82015.8
6.665	82016.8
6.670	81982.8
6.675	81975.8
6.680	81996.8
6.685	82014.8
6.690	82009.8
6.695	82007.8
6.700	82002.8
6.705	82001.8
6.710	82003.8
6.715	82006.8
6.720	82005.8
6.725	82011.8
6.730	82012.8
6.735	81988.8
6.740	81977.8
6.745	81998.8
6.750	82015.8
6.755	82025.8
6.760	82011.8
6.765	82017.8
6.770	82011.8
6.775	82003.8
6.780	81995.8
6.785	81981.8
6.790	81978.8
6.795	81967.8
6.800	81950.8
6.805	81925.9
6.810	81919.9
6.815	81942.8
6.820	81939.8
6.825	81919.9
6.830	81909.9
6.835	81904.9
6.840	81906.9
6.845	81905.9
6.850	81909.9
6.855	81923.9
6.860	81942.8
6.865	81948.8
6.870	81939.8
6.875	81952.8
6.880	81977.8
6.885	81985.8
6.890	81993.8
6.895	81986.8
6.900	81998.8
6.905	81997.8
6.910	81987.8
6.915	81980.8
6.920	81971.8
6.925	81973.8
6.930	81962.8
6.935	81941.8
6.940	81920.9
6.945	81931.9
6.950	81945.8
6.955	81957.8
6.960	81957.8
6.965	81959.8
6.970	81951.8
6.975	81965.8
6.980	81973.8
6.985	81983.8
6.990	81997.8
6.995	82004.8
7.000	81996.8
7.005	81987.8
7.010	81981.8
7.015	82018.8
7.020	82019.8
7.025	82014.8
7.030	82018.8
7.035	82018.8
7.040	82012.8
7.045	82007.8
7.050	82009.8
7.055	82014.8
7.060	82026.8
7.065	82017.8
7.070	81988.8
7.075	81977.8
7.080	82004.8
7.085	82001.8
7.090	82014.8
7.095	82006.8
7.100	81999.8
7.105	82009.8
7.110	81998.8
7.115	81999.8
7.120	82001.8
7.125	82005.8
7.130	81993.8
7.135	81964.9
7.140	81955.9
7.145	81976.8
7.150	81987.8
7.155	81986.8
7.160	81987.8
7.165	81983.8
7.170	81968.9
7.175	81976.8
7.180	81969.9
7.185	81969.9
7.190	81974.9
7.195	81981.8
7.200	81962.9
7.205	81947.9
7.210	81930.9
7.215	81977.9
7.220	81970.9
7.225	81969.9
7.230	81959.9
7.235	81963.9
7.240	81947.9
7.245	81946.9
7.250	81947.9
7.255	81946.9
7.260	81945.9
7.265	81928.9
7.270	81905.9
7.275	81909.9
7.280	81934.9
7.285	81935.9
7.290	81929.9
7.295	81922.9
7.300	81921.9
7.305	81919.9
7.310	81916.9
7.315	81922.9
7.320	81916.9
7.325	81920.9
7.330	81915.9
7.335	81888.9
7.340	81870.0
7.345	81870.9
7.350	81886.9
7.355	81890.9
7.360	81890.9
7.365	81875.9
7.370	81870.0
7.375	81874.9
7.380	81871.0
7.385	81872.0
7.390	81865.0
7.395	81880.9
7.400	81853.0
7.405	81857.0
7.410	81854.0
7.415	81881.9
7.420	81882.0
7.425	81880.0
7.430	81855.0
7.435	81860.0
7.440	81846.0
7.445	81824.0
7.450	81799.0
7.455	81785.0
7.460	81769.0
7.465	81745.1
7.470	81695.1
7.475	81667.1
7.480	81680.1
7.485	81694.1
7.490	81710.1
7.495	81718.1
7.500	81715.1
7.505	81749.1
7.510	81754.1
7.515	81784.0
7.520	81813.0
7.525	81844.0
7.530	81851.0
7.535	81844.0
7.540	81849.0
7.545	81894.0
7.550	81913.9
7.555	81930.9
7.560	81937.9
7.565	81942.9
7.570	81938.9
7.575	81942.9
7.580	81935.9
7.585	81944.9
7.590	81911.0
7.595	81906.0
7.600	81862.0
7.605	81816.0
7.610	81759.1
7.615	81733.1
7.620	81664.1
7.625	81624.2
7.630	81538.2
7.635	81458.3
7.640	81351.4
7.645	81228.5
7.650	81062.6
7.655	80867.7
7.660	80630.9
7.665	80388.1
7.670	80143.3
7.675	79939.4
7.680	79709.6
7.685	79500.8
7.690	79383.8
7.695	79396.8
7.700	79488.8
7.705	79667.6
7.710	79920.4
7.715	80246.2
7.720	80605.9
7.725	80954.7
7.730	81257.5
7.735	81428.3
7.740	81561.2
7.745	81726.1
7.750	81805.1
7.755	81859.0
7.760	81869.0
7.765	81878.0
7.770	81883.0
7.775	81877.0
7.780	81868.0
7.785	81859.0
7.790	81829.1
7.795	81832.1
7.800	81832.1
7.805	81845.0
7.810	81875.0
7.815	81924.0
7.820	81952.0
7.825	81960.0
7.830	81972.0
7.835	81982.9
7.840	81971.0
7.845	81984.9
7.850	81985.9
7.855	81996.9
7.860	82005.9
7.865	81999.9
7.870	81977.0
7.875	81982.0
7.880	82002.9
7.885	82013.9
7.890	82008.9
7.895	82015.9
7.900	82011.9
7.905	82011.9
7.910	82007.9
7.915	82015.9
7.920	82015.9
7.925	82025.9
7.930	82016.9
7.935	82002.0
7.940	81991.0
7.945	82014.9
7.950	82030.9
7.955	82024.9
7.960	82016.9
7.965	82022.9
7.970	82008.0
7.975	82014.0
7.980	82016.0
7.985	82016.0
7.990	82029.9
7.995	82028.9
8.000	82002.0
8.005	81998.0
8.010	81992.0
8.015	82028.9
8.020	82027.0
8.025	82030.0
8.030	82024.0
8.035	82032.0
8.040	82030.0
8.045	82028.0
8.050	82038.0
8.055	82045.9
8.060	82040.0
8.065	82030.0
8.070	82005.0
8.075	81990.0
8.080	82022.0
8.085	82022.0
8.090	82001.0
8.095	81991.0
8.100	81979.0
8.105	81978.0
8.110	81967.0
8.115	81980.0
8.120	81992.0
8.125	82016.0
8.130	82023.0
8.135	82010.0
8.140	81998.0
8.145	82022.0
8.150	82038.0
8.155	82027.0
8.160	82023.0
8.165	82032.0
8.170	82032.0
8.175	82030.0
8.180	82025.0
8.185	82030.0
8.190	82026.0
8.195	82038.0
8.200	82002.0
8.205	82004.0
8.210	81992.0
8.215	82024.0
8.220	82013.0
8.225	82013.0
8.230	82016.0
8.235	82010.0
8.240	82009.0
8.245	82002.0
8.250	82002.0
8.255	82013.0
8.260	82017.0
8.265	82009.0
8.270	81994.1
8.275	81975.1
8.280	82004.1
8.285	82014.0
8.290	82009.1
8.295	82005.1
8.300	82005.1
8.305	82003.1
8.310	82001.1
8.315	82011.1
8.320	82000.1
8.325	82011.1
8.330	82004.1
8.335	81972.1
8.340	81966.1
8.345	81993.1
8.350	82006.1
8.355	81989.1
8.360	81985.1
8.365	81990.1
8.370	81971.1
8.375	81976.1
8.380	81970.1
8.385	81966.1
8.390	81963.1
8.395	81968.1
8.400	81923.2
8.405	81914.2
8.410	81906.2
8.415	81927.2
8.420	81929.2
8.425	81923.2
8.430	81916.2
8.435	81908.2
8.440	81894.2
8.445	81893.2
8.450	81869.2
8.455	81861.2
8.460	81860.2
8.465	81833.3
8.470	81799.3
8.475	81798.3
8.480	81825.3
8.485	81838.3
8.490	81818.3
8.495	81816.3
8.500	81802.3
8.505	81785.3
8.510	81759.3
8.515	81743.4
8.520	81737.4
8.525	81751.4
8.530	81756.3
8.535	81747.4
8.540	81738.4
8.545	81752.4
8.550	81762.4
8.555	81782.3
8.560	81791.3
8.565	81798.3
8.570	81777.4
8.575	81773.4
8.580	81744.4
8.585	81761.4
8.590	81766.4
8.595	81782.4
8.600	81767.4
8.605	81775.4
8.610	81809.4
8.615	81863.3
8.620	81860.3
8.625	81859.3
8.630	81857.3
8.635	81853.3
8.640	81854.3
8.645	81856.3
8.650	81857.3
8.655	81859.3
8.660	81865.3
8.665	81844.4
8.670	81812.4
8.675	81797.4
8.680	81799.4
8.685	81790.4
8.690	81793.4
8.695	81806.4
8.700	81818.4
8.705	81828.4
8.710	81811.4
8.715	81779.4
8.720	81694.5
8.725	81306.8
8.730	80219.6
8.735	79021.5
8.740	79174.3
8.745	80417.4
8.750	81410.7
8.755	81785.5
8.760	81843.4
8.765	81856.4
8.770	81852.4
8.775	81866.4
8.780	81858.4
8.785	81866.4
8.790	81868.4
8.795	81862.5
8.800	81841.5
8.805	81822.5
8.810	81840.5
8.815	81865.5
8.820	81869.5
8.825	81867.5
8.830	81860.5
8.835	81859.5
8.840	81846.5
8.845	81842.5
8.850	81842.5
8.855	81849.5
8.860	81810.6
8.865	81746.6
8.870	81711.6
8.875	81780.6
8.880	81846.5
8.885	81855.6
8.890	81843.6
8.895	81839.6
8.900	81842.6
8.905	81832.6
8.910	81791.6
8.915	81726.7
8.920	81740.7
8.925	81830.6
8.930	81851.6
8.935	81823.6
8.940	81808.7
8.945	81832.6
8.950	81845.6
8.955	81858.6
8.960	81847.7
8.965	81835.7
8.970	81822.7
8.975	81834.7
8.980	81839.7
8.985	81798.7
8.990	81774.8
8.995	81811.7
9.000	81797.8
9.005	81794.8
9.010	81817.8
9.015	81833.8
9.020	81835.8
9.025	81840.8
9.030	81819.8
9.035	81818.8
9.040	81817.8
9.045	81833.8
9.050	81816.8
9.055	81827.8
9.060	81816.9
9.065	81800.9
9.070	81789.9
9.075	81788.9
9.080	81784.9
9.085	81779.9
9.090	81782.0
9.095	81774.0
9.100	81756.0
9.105	81741.0
9.110	81725.1
9.115	81720.1
9.120	81718.1
9.125	81716.1
9.130	81692.1
9.135	81702.1
9.140	81689.2
9.145	81706.2
9.150	81691.2
9.155	81678.2
9.160	81668.3
9.165	81672.3
9.170	81672.3
9.175	81668.3
9.180	81681.3
9.185	81671.4
9.190	81651.4
9.195	81623.5
9.200	81556.5
9.205	81512.6
9.210	81510.6
9.215	81526.6
9.220	81494.7
9.225	81484.7
9.230	81450.8
9.235	81406.8
9.240	81372.9
9.245	81335.0
9.250	81279.0
9.255	81238.1
9.260	81217.2
9.265	81143.3
9.270	81066.4
9.275	81028.4
9.280	81006.5
9.285	80963.6
9.290	80894.7
9.295	80804.8
9.300	80735.9
9.305	80689.0
9.310	80603.1
9.315	80556.2
9.320	80497.4
9.325	80426.5
9.330	80362.6
9.335	80268.8
9.340	80210.0
9.345	80250.1
9.350	80188.3
9.355	80147.5
9.360	80286.7
9.365	80317.9
9.370	80007.3
9.375	79585.9
9.380	79469.2
9.385	79801.1
9.390	80256.9
9.395	80564.8
9.400	80670.8
9.405	80727.7
9.410	80796.5
9.415	80860.3
9.420	80919.0
9.425	80994.6
9.430	81076.1
9.435	81182.4
9.440	81317.6
9.445	81444.7
9.450	81546.0
9.455	81658.4
9.460	81727.0
9.465	81758.7
9.470	81751.6
9.475	81775.6
9.480	81807.5
9.485	81815.5
9.490	81806.5
9.495	81822.5
9.500	81811.5
9.505	81821.5
9.510	81811.5
9.515	81819.5
9.520	81821.5
9.525	81820.5
9.530	81809.5
9.535	81794.5
9.540	81787.5
9.545	81823.5
9.550	81822.5
9.555	81825.5
9.560	81817.5
9.565	81817.5
9.570	81817.5
9.575	81826.5
9.580	81820.5
9.585	81824.5
9.590	81837.5
9.595	81839.4
9.600	81808.5
9.605	81799.5
9.610	81815.5
9.615	81822.5
9.620	81843.4
9.625	81837.4
9.630	81838.5
9.635	81834.5
9.640	81834.4
9.645	81838.4
9.650	81838.5
9.655	81841.4
9.660	81838.4
9.665	81815.5
9.670	81799.5
9.675	81813.5
9.680	81840.4
9.685	81844.4
9.690	81836.4
9.695	81833.4
9.700	81835.4
9.705	81835.4
9.710	81824.5
9.715	81821.5
9.720	81826.5
9.725	81843.4
9.730	81826.5
9.735	81802.5
9.740	81793.5
9.745	81825.5
9.750	81825.5
9.755	81841.4
9.760	81839.4
9.765	81841.4
9.770	81819.5
9.775	81826.5
9.780	81814.5
9.785	81819.5
9.790	81808.5
9.795	81799.5
9.800	81773.5
9.805	81771.5
9.810	81782.5
9.815	81790.5
9.820	81782.5
9.825	81778.5
9.830	81769.5
9.835	81769.5
9.840	81763.5
9.845	81761.5
9.850	81755.5
9.855	81762.5
9.860	81764.5
9.865	81734.5
9.870	81718.5
9.875	81726.5
9.880	81746.5
9.885	81754.5
9.890	81753.5
9.895	81742.5
9.900	81737.5
9.905	81740.5
9.910	81729.5
9.915	81725.5
9.920	81719.5
9.925	81706.5
9.930	81688.6
9.935	81677.6
9.940	81672.6
9.945	81702.5
9.950	81705.5
9.955	81705.5
9.960	81696.5
9.965	81700.5
9.970	81681.6
9.975	81672.6
9.980	81657.6
9.985	81663.6
9.990	81670.6
9.995	81679.6
10.000	81649.6
10.005	81636.6
10.010	81640.6
10.015	81659.6
10.020	81663.6
10.025	81664.6
10.030	81652.6
10.035	81657.6
10.040	81645.6
10.045	81648.6
10.050	81636.6
10.055	81642.6
10.060	81636.6
10.065	81610.6
10.070	81591.6
10.075	81597.6
10.080	81615.6
10.085	81620.6
10.090	81617.6
10.095	81607.6
10.100	81602.6
10.105	81601.6
10.110	81586.6
10.115	81586.6
10.120	81587.6
10.125	81603.6
10.130	81591.6
10.135	81582.6
10.140	81574.6
10.145	81600.6
10.150	81598.6
10.155	81603.6
10.160	81607.6
10.165	81603.6
10.170	81612.6
10.175	81614.6
10.180	81606.6
10.185	81624.6
10.190	81608.6
10.195	81614.6
10.200	81591.6
10.205	81586.6
10.210	81605.6
10.215	81627.6
10.220	81625.6
10.225	81628.6
10.230	81637.6
10.235	81633.6
10.240	81633.6
10.245	81649.6
10.250	81642.6
10.255	81669.6
10.260	81671.6
10.265	81656.6
10.270	81646.6
10.275	81659.6
10.280	81678.5
10.285	81699.5
10.290	81693.5
10.295	81691.5
10.300	81687.5
10.305	81688.5
10.310	81689.5
10.315	81702.5
10.320	81693.5
10.325	81699.5
10.330	81676.6
10.335	81667.6
10.340	81668.6
10.345	81703.5
10.350	81705.5
10.355	81708.5
10.360	81714.5
10.365	81719.5
10.370	81722.5
10.375	81729.5
10.380	81730.5
10.385	81740.5
10.390	81732.5
10.395	81734.5
10.400	81705.5
10.405	81703.5
10.410	81718.5
10.415	81723.5
10.420	81724.5
10.425	81734.5
10.430	81724.5
10.435	81733.5
10.440	81736.5
10.445	81746.5
10.450	81755.5
10.455	81751.5
10.460	81758.5
10.465	81735.5
10.470	81725.5
10.475	81756.5
10.480	81765.5
10.485	81771.5
10.490	81760.5
10.495	81768.5
10.500	81761.5
10.505	81771.5
10.510	81774.5
10.515	81770.5
10.520	81775.5
10.525	81773.5
10.530	81766.5
10.535	81750.5
10.540	81758.5
10.545	81785.5
10.550	81787.5
10.555	81791.5
10.560	81791.5
10.565	81800.4
10.570	81792.5
10.575	81788.5
10.580	81771.5
10.585	81787.5
10.590	81779.5
10.595	81766.5
10.600	81740.5
10.605	81746.5
10.610	81769.5
10.615	81777.5
10.620	81785.5
10.625	81776.5
10.630	81787.5
10.635	81781.5
10.640	81772.5
10.645	81775.5
10.650	81782.5
10.655	81784.5
10.660	81784.5
10.665	81770.5
10.670	81754.5
10.675	81771.5
10.680	81788.5
10.685	81806.4
10.690	81803.4
10.695	81799.4
10.700	81787.5
10.705	81782.5
10.710	81780.5
10.715	81793.4
10.720	81797.4
10.725	81796.4
10.730	81755.5
10.735	81752.5
10.740	81757.5
10.745	81791.4
10.750	81793.4
10.755	81796.4
10.760	81795.4
10.765	81788.4
10.770	81780.5
10.775	81790.4
10.780	81784.5
10.785	81793.4
10.790	81796.4
10.795	81795.4
10.800	81764.5
10.805	81764.5
10.810	81792.4
10.815	81800.4
10.820	81798.4
10.825	81795.4
10.830	81793.4
10.835	81781.5
10.840	81776.5
10.845	81774.5
10.850	81758.5
10.855	81755.5
10.860	81759.5
10.865	81737.5
10.870	81719.5
10.875	81747.5
10.880	81754.5
10.885	81755.5
10.890	81745.5
10.895	81739.5
10.900	81739.5
10.905	81740.5
10.910	81736.5
10.915	81735.5
10.920	81732.5
10.925	81740.5
10.930	81700.5
10.935	81690.5
10.940	81688.5
10.945	81721.5
10.950	81710.5
10.955	81723.5
10.960	81727.5
10.965	81732.5
10.970	81731.5
10.975	81736.5
10.980	81745.5
10.985	81753.5
10.990	81755.5
10.995	81746.5
11.000	81723.5
11.005	81722.5
11.010	81743.5
11.015	81747.5
11.020	81740.5
11.025	81742.5
11.030	81740.5
11.035	81732.5
11.040	81730.5
11.045	81738.5
11.050	81728.5
11.055	81730.5
11.060	81736.5
11.065	81714.5
11.070	81684.5
11.075	81698.5
11.080	81715.5
11.085	81709.5
11.090	81705.5
11.095	81702.5
11.100	81693.5
11.105	81690.5
11.110	81685.5
11.115	81689.5
11.120	81672.5
11.125	81688.5
11.130	81658.5
11.135	81643.5
11.140	81640.5
11.145	81676.5
11.150	81673.5
11.155	81672.5
11.160	81671.5
11.165	81669.5
11.170	81666.5
11.175	81670.5
11.180	81659.5
11.185	81674.5
11.190	81668.5
11.195	81661.5
11.200	81635.6
11.205	81639.5
11.210	81663.5
11.215	81661.5
11.220	81657.5
11.225	81664.5
11.230	81660.5
11.235	81650.5
11.240	81651.5
11.245	81654.5
11.250	81657.5
11.255	81648.5
11.260	81649.5
11.265	81626.6
11.270	81622.6
11.275	81643.5
11.280	81647.5
11.285	81650.5
11.290	81649.5
11.295	81646.5
11.300	81637.5
11.305	81651.5
11.310	81644.5
11.315	81652.5
11.320	81652.5
11.325	81658.5
11.330	81646.5
11.335	81626.6
11.340	81638.5
11.345	81673.5
11.350	81663.5
11.355	81662.5
11.360	81666.5
11.365	81664.5
11.370	81657.5
11.375	81660.5
11.380	81662.5
11.385	81677.5
11.390	81668.5
11.395	81660.5
11.400	81636.5
11.405	81650.5
11.410	81663.5
11.415	81666.5
11.420	81668.5
11.425	81676.5
11.430	81667.5
11.435	81668.5
11.440	81673.5
11.445	81675.5
11.450	81678.5
11.455	81683.5
11.460	81688.5
11.465	81652.5
11.470	81640.5
11.475	81663.5
11.480	81669.5
11.485	81675.5
11.490	81672.5
11.495	81675.5
11.500	81677.5
11.505	81672.5
11.510	81665.5
11.515	81669.5
11.520	81666.5
11.525	81669.5
11.530	81646.5
11.535	81643.5
11.540	81647.5
11.545	81678.5
11.550	81668.5
11.555	81666.5
11.560	81660.5
11.565	81660.5
11.570	81650.5
11.575	81666.5
11.580	81665.5
11.585	81679.5
11.590	81669.5
11.595	81666.5
11.600	81647.5
11.605	81648.5
11.610	81670.5
11.615	81686.5
11.620	81680.5
11.625	81689.5
11.630	81674.5
11.635	81674.5
11.640	81659.5
11.645	81664.5
11.650	81676.5
11.655	81670.5
11.660	81657.5
11.665	81632.5
11.670	81622.5
11.675	81650.5
11.680	81650.5
11.685	81668.5
11.690	81657.5
11.695	81659.5
11.700	81660.5
11.705	81665.5
11.710	81663.5
11.715	81661.5
11.720	81659.5
11.725	81661.5
11.730	81630.5
11.735	81616.6
11.740	81620.5
11.745	81648.5
11.750	81649.5
11.755	81641.5
11.760	81650.5
11.765	81655.5
11.770	81641.5
11.775	81640.5
11.780	81646.5
11.785	81653.5
11.790	81650.5
11.795	81628.5
11.800	81605.6
11.805	81607.6
11.810	81631.5
11.815	81629.5
11.820	81630.5
11.825	81632.5
11.830	81629.5
11.835	81625.5
11.840	81631.5
11.845	81631.5
11.850	81634.5
11.855	81654.5
11.860	81647.5
11.865	81621.5
11.870	81601.6
11.875	81611.6
11.880	81622.5
11.885	81635.5
11.890	81625.5
11.895	81634.5
11.900	81635.5
11.905	81630.5
11.910	81629.5
11.915	81634.5
11.920	81621.5
11.925	81630.5
11.930	81601.6
11.935	81587.6
11.940	81596.6
11.945	81623.5
11.950	81599.6
11.955	81611.5
11.960	81598.6
11.965	81604.6
11.970	81603.6
11.975	81611.5
11.980	81619.5
11.985	81614.5
11.990	81625.5
11.995	81605.6
12.000	81584.6
12.005	81579.6
12.010	81610.5
12.015	81614.5
12.020	81616.5
12.025	81618.5
12.030	81607.5
12.035	81612.5
12.040	81610.5
12.045	81618.5
12.050	81619.5
12.055	81620.5
12.060	81613.5
12.065	81598.6
12.070	81586.6
12.075	81618.5
12.080	81621.5
12.085	81633.5
12.090	81625.5
12.095	81627.5
12.100	81618.5
12.105	81628.5
12.110	81625.5
12.115	81634.5
12.120	81645.5
12.125	81649.5
12.130	81620.5
12.135	81613.5
12.140	81612.5
12.145	81641.5
12.150	81643.5
12.155	81649.5
12.160	81643.5
12.165	81648.5
12.170	81650.5
12.175	81641.5
12.180	81649.5
12.185	81649.5
12.190	81653.5
12.195	81631.5
12.200	81625.5
12.205	81625.5
12.210	81651.5
12.215	81661.5
12.220	81663.5
12.225	81663.5
12.230	81669.5
12.235	81672.5
12.240	81675.5
12.245	81677.5
12.250	81671.5
12.255	81693.5
12.260	81702.5
12.265	81681.5
12.270	81652.5
12.275	81685.5
12.280	81697.5
12.285	81707.5
12.290	81698.5
12.295	81716.5
12.300	81714.5
12.305	81723.5
12.310	81719.5
12.315	81725.5
12.320	81724.5
12.325	81731.4
12.330	81697.5
12.335	81697.5
12.340	81702.5
12.345	81737.4
12.350	81737.4
12.355	81726.4
12.360	81736.4
12.365	81749.4
12.370	81746.4
12.375	81749.4
12.380	81749.4
12.385	81754.4
12.390	81754.4
12.395	81753.4
12.400	81730.4
12.405	81731.4
12.410	81773.4
12.415	81783.4
12.420	81781.4
12.425	81779.4
12.430	81775.4
12.435	81782.4
12.440	81786.4
12.445	81792.4
12.450	81804.4
12.455	81799.4
12.460	81796.4
12.465	81784.4
12.470	81768.4
12.475	81792.4
12.480	81790.4
12.485	81803.4
12.490	81797.4
12.495	81816.4
12.500	81802.4
12.505	81813.4
12.510	81818.4
12.515	81825.4
12.520	81832.4
12.525	81834.4
12.530	81814.4
12.535	81801.4
12.540	81827.4
12.545	81849.3
12.550	81847.3
12.555	81856.3
12.560	81843.3
12.565	81856.3
12.570	81847.3
12.575	81855.3
12.580	81853.3
12.585	81855.3
12.590	81860.3
12.595	81837.4
12.600	81821.4
12.605	81826.4
12.610	81870.3
12.615	81862.3
12.620	81862.3
12.625	81864.3
12.630	81869.3
12.635	81877.3
12.640	81871.3
12.645	81871.3
12.650	81872.3
12.655	81877.3
12.660	81878.3
12.665	81867.3
12.670	81847.3
12.675	81886.3
12.680	81893.3
12.685	81896.3
12.690	81898.3
12.695	81903.3
12.700	81895.3
12.705	81891.3
12.710	81892.3
12.715	81903.3
12.720	81904.3
12.725	81899.3
12.730	81875.3
12.735	81865.3
12.740	81888.3
12.745	81904.3
12.750	81911.3
12.755	81921.3
12.760	81905.3
12.765	81914.3
12.770	81916.3
12.775	81928.3
12.780	81912.3
12.785	81931.3
12.790	81929.3
12.795	81924.3
12.800	81899.3
12.805	81900.3
12.810	81931.3
12.815	81941.3
12.820	81946.3
12.825	81938.3
12.830	81923.3
12.835	81929.3
12.840	81930.3
12.845	81934.3
12.850	81932.3
12.855	81939.3
12.860	81926.3
12.865	81900.3
12.870	81887.3
12.875	81927.3
12.880	81931.3
12.885	81930.3
12.890	81932.3
12.895	81926.3
12.900	81930.3
12.905	81929.3
12.910	81943.3
12.915	81948.3
12.920	81959.2
12.925	81963.2
12.930	81942.3
12.935	81923.3
12.940	81940.3
12.945	81960.2
12.950	81963.2
12.955	81962.2
12.960	81956.2
12.965	81961.2
12.970	81961.2
12.975	81962.2
12.980	81964.2
12.985	81973.2
12.990	81964.2
12.995	81954.2
13.000	81947.2
13.005	81949.2
13.010	81981.2
13.015	81976.2
13.020	81968.2
13.025	81973.2
13.030	81957.2
13.035	81963.2
13.040	81967.2
13.045	81970.2
13.050	81962.2
13.055	81976.2
13.060	81969.2
13.065	81953.2
13.070	81936.3
13.075	81973.2
13.080	81972.2
13.085	81982.2
13.090	81980.2
13.095	81982.2
13.100	81976.2
13.105	81965.2
13.110	81951.2
13.115	81960.2
13.120	81978.2
13.125	81970.2
13.130	81935.3
13.135	81929.3
13.140	81958.2
13.145	81967.2
13.150	81964.2
13.155	81958.2
13.160	81956.2
13.165	81953.2
13.170	81949.2
13.175	81956.2
13.180	81952.2
13.185	81950.2
13.190	81951.2
13.195	81932.3
13.200	81917.3
13.205	81909.3
13.210	81935.2
13.215	81949.2
13.220	81939.2
13.225	81936.3
13.230	81941.2
13.235	81938.2
13.240	81924.3
13.245	81929.3
13.250	81909.3
13.255	81919.3
13.260	81910.3
13.265	81885.3
13.270	81874.3
13.275	81914.3
13.280	81918.3
13.285	81905.3
13.290	81898.3
13.295	81900.3
13.300	81890.3
13.305	81898.3
13.310	81894.3
13.315	81898.3
13.320	81887.3
13.325	81895.3
13.330	81866.3
13.335	81855.3
13.340	81855.3
13.345	81871.3
13.350	81879.3
13.355	81885.3
13.360	81884.3
13.365	81875.3
13.370	81871.3
13.375	81880.3
13.380	81875.3
13.385	81879.3
13.390	81863.3
13.395	81839.3
13.400	81821.3
13.405	81830.3
13.410	81864.3
13.415	81862.3
13.420	81864.3
13.425	81865.3
13.430	81850.3
13.435	81852.3
13.440	81853.3
13.445	81857.3
13.450	81861.3
13.455	81862.3
13.460	81844.3
13.465	81841.3
13.470	81829.3
13.475	81862.3
13.480	81857.3
13.485	81850.3
13.490	81859.3
13.495	81868.3
13.500	81857.3
13.505	81856.3
13.510	81853.3
13.515	81856.3
13.520	81856.3
13.525	81848.3
13.530	81829.3
13.535	81816.3
13.540	81835.3
13.545	81861.3
13.550	81849.3
13.555	81847.3
13.560	81851.3
13.565	81854.3
13.570	81854.3
13.575	81851.3
13.580	81858.3
13.585	81860.3
13.590	81876.3
13.595	81867.3
13.600	81834.3
13.605	81841.3
13.610	81872.3
13.615	81876.3
13.620	81868.3
13.625	81866.3
13.630	81872.3
13.635	81874.3
13.640	81875.3
13.645	81875.3
13.650	81874.3
13.655	81873.3
13.660	81851.3
13.665	81851.3
13.670	81847.3
13.675	81875.3
13.680	81878.3
13.685	81882.3
13.690	81886.3
13.695	81889.3
13.700	81885.3
13.705	81894.3
13.710	81897.3
13.715	81903.3
13.720	81917.2
13.725	81908.2
13.730	81893.3
13.735	81880.3
13.740	81907.2
13.745	81912.2
13.750	81921.2
13.755	81914.2
13.760	81910.2
13.765	81914.2
13.770	81924.2
13.775	81921.2
13.780	81932.2
13.785	81928.2
13.790	81940.2
13.795	81913.2
13.800	81894.3
13.805	81912.2
13.810	81938.2
13.815	81947.2
13.820	81940.2
13.825	81938.2
13.830	81932.2
13.835	81942.2
13.840	81943.2
13.845	81942.2
13.850	81951.2
13.855	81956.2
13.860	81946.2
13.865	81919.2
13.870	81919.2
13.875	81957.2
13.880	81949.2
13.885	81952.2
13.890	81953.2
13.895	81966.2
13.900	81944.2
13.905	81961.2
13.910	81963.2
13.915	81963.2
13.920	81954.2
13.925	81952.2
13.930	81930.2
13.935	81924.2
13.940	81935.2
13.945	81954.2
13.950	81963.2
13.955	81959.2
13.960	81950.2
13.965	81955.2
13.970	81954.2
13.975	81953.2
13.980	81950.2
13.985	81968.2
13.990	81966.2
13.995	81951.2
14.000	81922.2
14.005	81938.2
14.010	81967.2
14.015	81955.2
14.020	81953.2
14.025	81959.2
14.030	81973.2
14.035	81963.2
14.040	81965.2
14.045	81976.2
14.050	81963.2
14.055	81967.2
14.060	81950.2
14.065	81926.2
14.070	81937.2
14.075	81970.2
14.080	81964.2
14.085	81964.2
14.090	81968.2
14.095	81964.2
14.100	81958.2
14.105	81971.2
14.110	81957.2
14.115	81968.2
14.120	81986.2
14.125	81975.2
14.130	81942.2
14.135	81940.2
14.140	81959.2
14.145	81977.2
14.150	81992.2
14.155	81995.2
14.160	81977.2
14.165	81974.2
14.170	81977.2
14.175	81977.2
14.180	81978.2
14.185	81973.2
14.190	81958.2
14.195	81941.2
14.200	81924.2
14.205	81946.2
14.210	81969.2
14.215	81970.2
14.220	81959.2
14.225	81966.2
14.230	81971.2
14.235	81966.2
14.240	81966.2
14.245	81967.2
14.250	81977.2
14.255	81976.2
14.260	81960.2
14.265	81941.2
14.270	81927.2
14.275	81968.2
14.280	81966.2
14.285	81967.2
14.290	81969.2
14.295	81966.2
14.300	81965.2
14.305	81965.2
14.310	81952.2
14.315	81963.2
14.320	81964.2
14.325	81956.2
14.330	81933.2
14.335	81924.2
14.340	81941.2
14.345	81950.2
14.350	81942.2
14.355	81955.2
14.360	81956.2
14.365	81951.2
14.370	81943.2
14.375	81955.2
14.380	81953.2
14.385	81950.2
14.390	81959.2
14.395	81936.2
14.400	81914.2
14.405	81937.2
14.410	81951.2
14.415	81958.2
14.420	81949.2
14.425	81954.2
14.430	81953.2
14.435	81957.2
14.440	81945.2
14.445	81949.2
14.450	81952.2
14.455	81944.2
14.460	81926.2
14.465	81913.2
14.470	81911.2
14.475	81945.2
14.480	81953.2
14.485	81953.2
14.490	81934.2
14.495	81940.2
14.500	81933.2
14.505	81940.2
14.510	81934.2
14.515	81955.2
14.520	81944.2
14.525	81943.2
14.530	81916.2
14.535	81895.2
14.540	81923.2
14.545	81941.2
14.550	81946.2
14.555	81939.2
14.560	81939.2
14.565	81940.2
14.570	81936.2
14.575	81937.2
14.580	81926.2
14.585	81932.2
14.590	81914.2
14.595	81892.2
14.600	81881.2
14.605	81909.2
14.610	81926.2
14.615	81924.2
14.620	81918.2
14.625	81922.2
14.630	81911.2
14.635	81908.2
14.640	81914.2
14.645	81912.2
14.650	81904.2
14.655	81919.2
14.660	81910.2
14.665	81886.2
14.670	81879.2
14.675	81914.2
14.680	81907.2
14.685	81898.2
14.690	81899.2
14.695	81906.2
14.700	81894.2
14.705	81895.2
14.710	81881.2
14.715	81881.2
14.720	81880.2
14.725	81863.2
14.730	81844.2
14.735	81843.2
14.740	81854.2
14.745	81853.2
14.750	81860.2
14.755	81858.2
14.760	81852.2
14.765	81856.2
14.770	81842.2
14.775	81844.2
14.780	81853.2
14.785	81866.2
14.790	81839.2
14.795	81815.3
14.800	81799.3
14.805	81811.3
14.810	81820.3
14.815	81834.2
14.820	81818.3
14.825	81815.3
14.830	81822.3
14.835	81798.3
14.840	81797.3
14.845	81807.3
14.850	81809.3
14.855	81811.3
14.860	81786.3
14.865	81773.3
14.870	81773.3
14.875	81800.3
14.880	81791.3
14.885	81803.3
14.890	81805.3
14.895	81796.3
14.900	81792.3
14.905	81802.3
14.910	81806.3
14.915	81811.3
14.920	81810.3
14.925	81813.3
14.930	81788.3
14.935	81780.3
14.940	81821.3
14.945	81825.2
14.950	81833.2
14.955	81833.2
14.960	81839.2
14.965	81836.2
14.970	81831.2
14.975	81838.2
14.980	81838.2
14.985	81840.2
14.990	81830.2
14.995	81812.3
15.000	81802.3
15.005	81828.2
15.010	81847.2
15.015	81841.2
15.020	81844.2
15.025	81839.2
15.030	81839.2
15.035	81848.2
15.040	81856.2
15.045	81848.2
15.050	81853.2
15.055	81868.2
15.060	81844.2
15.065	81828.2
15.070	81823.2
15.075	81871.2
15.080	81851.2
15.085	81859.2
15.090	81858.2
15.095	81867.2
15.100	81852.2
15.105	81858.2
15.110	81855.2
15.115	81850.2
15.120	81857.2
15.125	81836.2
15.130	81813.2
15.135	81804.2
15.140	81837.2
15.145	81850.2
15.150	81836.2
15.155	81839.2
15.160	81833.2
15.165	81828.2
15.170	81831.2
15.175	81825.2
15.180	81820.2
15.185	81831.2
15.190	81831.2
15.195	81813.2
15.200	81793.3
15.205	81805.2
15.210	81823.2
15.215	81829.2
15.220	81827.2
15.225	81821.2
15.230	81812.2
15.235	81809.2
15.240	81802.2
15.245	81809.2
15.250	81800.2
15.255	81808.2
15.260	81773.3
15.265	81759.3
15.270	81761.3
15.275	81781.3
15.280	81785.3
15.285	81794.2
15.290	81780.3
15.295	81779.3
15.300	81777.3
15.305	81773.3
15.310	81774.3
15.315	81771.3
15.320	81771.3
15.325	81770.3
15.330	81737.3
15.335	81725.3
15.340	81743.3
15.345	81759.3
15.350	81754.3
15.355	81757.3
15.360	81758.3
15.365	81758.3
15.370	81744.3
15.375	81751.3
15.380	81750.3
15.385	81741.3
15.390	81740.3
15.395	81714.3
15.400	81704.3
15.405	81731.3
15.410	81736.3
15.415	81737.3
15.420	81729.3
15.425	81725.3
15.430	81718.3
15.435	81718.3
15.440	81726.3
15.445	81731.3
15.450	81728.3
15.455	81745.3
15.460	81720.3
15.465	81701.3
15.470	81710.3
15.475	81747.3
15.480	81740.3
15.485	81742.3
15.490	81741.3
15.495	81726.3
15.500	81728.3
15.505	81740.3
15.510	81729.3
15.515	81740.3
15.520	81735.3
15.525	81720.3
15.530	81705.3
15.535	81702.3
15.540	81726.3
15.545	81729.3
15.550	81732.3
15.555	81737.3
15.560	81731.3
15.565	81735.3
15.570	81739.3
15.575	81742.3
15.580	81756.3
15.585	81751.3
15.590	81742.3
15.595	81721.3
15.600	81702.3
15.605	81734.3
15.610	81747.3
15.615	81758.3
15.620	81750.3
15.625	81755.3
15.630	81765.2
15.635	81766.2
15.640	81757.3
15.645	81766.2
15.650	81760.3
15.655	81762.2
15.660	81733.3
15.665	81735.3
15.670	81752.3
15.675	81774.2
15.680	81771.2
15.685	81767.2
15.690	81771.2
15.695	81769.2
15.700	81774.2
15.705	81774.2
15.710	81772.2
15.715	81783.2
15.720	81784.2
15.725	81773.2
15.730	81753.3
15.735	81749.3
15.740	81786.2
15.745	81787.2
15.750	81777.2
15.755	81785.2
15.760	81783.2
15.765	81790.2
15.770	81789.2
15.775	81789.2
15.780	81792.2
15.785	81796.2
15.790	81796.2
15.795	81766.2
15.800	81749.3
15.805	81780.2
15.810	81796.2
15.815	81797.2
15.820	81797.2
15.825	81793.2
15.830	81792.2
15.835	81798.2
15.840	81786.2
15.845	81798.2
15.850	81814.2
15.855	81820.2
15.860	81803.2
15.865	81786.2
15.870	81783.2
15.875	81813.2
15.880	81803.2
15.885	81806.2
15.890	81817.2
15.895	81810.2
15.900	81802.2
15.905	81804.2
15.910	81799.2
15.915	81800.2
15.920	81808.2
15.925	81790.2
15.930	81766.2
15.935	81779.2
15.940	81810.2
15.945	81804.2
15.950	81796.2
15.955	81791.2
15.960	81802.2
15.965	81797.2
15.970	81803.2
15.975	81800.2
15.980	81806.2
15.985	81806.2
15.990	81799.2
15.995	81784.2
16.000	81759.2
16.005	81782.2
16.010	81792.2
16.015	81798.2
16.020	81796.2
16.025	81794.2
16.030	81788.2
16.035	81789.2
16.040	81784.2
16.045	81798.2
16.050	81773.2
16.055	81774.2
16.060	81745.2
16.065	81739.2
16.070	81766.2
16.075	81784.2
16.080	81766.2
16.085	81767.2
16.090	81769.2
16.095	81772.2
16.100	81767.2
16.105	81764.2
16.110	81763.2
16.115	81772.2
16.120	81783.2
16.125	81771.2
16.130	81740.2
16.135	81740.2
16.140	81778.2
16.145	81779.2
16.150	81779.2
16.155	81779.2
16.160	81769.2
16.165	81781.2
16.170	81783.2
16.175	81785.2
16.180	81772.2
16.185	81775.2
16.190	81760.2
16.195	81739.2
16.200	81725.2
16.205	81758.2
16.210	81762.2
16.215	81757.2
16.220	81760.2
16.225	81762.2
16.230	81757.2
16.235	81752.2
16.240	81749.2
16.245	81762.2
16.250	81761.2
16.255	81756.2
16.260	81729.2
16.265	81721.2
16.270	81720.2
16.275	81750.2
16.280	81752.2
16.285	81754.2
16.290	81742.2
16.295	81734.2
16.300	81732.2
16.305	81734.2
16.310	81733.2
16.315	81737.2
16.320	81742.2
16.325	81718.2
16.330	81693.3
16.335	81701.2
16.340	81729.2
16.345	81738.2
16.350	81718.2
16.355	81717.2
16.360	81705.2
16.365	81714.2
16.370	81716.2
16.375	81718.2
16.380	81710.2
16.385	81720.2
16.390	81713.2
16.395	81677.3
16.400	81689.3
16.405	81709.2
16.410	81728.2
16.415	81722.2
16.420	81714.2
16.425	81725.2
16.430	81721.2
16.435	81721.2
16.440	81714.2
16.445	81725.2
16.450	81714.2
16.455	81719.2
16.460	81689.2
16.465	81689.2
16.470	81717.2
16.475	81730.2
16.480	81725.2
16.485	81718.2
16.490	81722.2
16.495	81737.2
16.500	81732.2
16.505	81737.2
16.510	81738.2
16.515	81745.2
16.520	81741.2
16.525	81731.2
16.530	81716.2
16.535	81727.2
16.540	81748.2
16.545	81757.2
16.550	81756.2
16.555	81763.2
16.560	81747.2
16.565	81754.2
16.570	81738.2
16.575	81745.2
16.580	81756.2
16.585	81755.2
16.590	81734.2
16.595	81715.2
16.600	81703.2
16.605	81724.2
16.610	81744.2
16.615	81745.2
16.620	81732.2
16.625	81729.2
16.630	81722.2
16.635	81722.2
16.640	81713.2
16.645	81720.2
16.650	81719.2
16.655	81724.2
16.660	81699.2
16.665	81677.2
16.670	81681.2
16.675	81707.2
16.680	81705.2
16.685	81708.2
16.690	81705.2
16.695	81702.2
16.700	81695.2
16.705	81697.2
16.710	81679.2
16.715	81679.2
16.720	81665.2
16.725	81651.3
16.730	81620.3
16.735	81638.3
16.740	81658.2
16.745	81653.3
16.750	81631.3
16.755	81622.3
16.760	81609.3
16.765	81616.3
16.770	81622.3
16.775	81613.3
16.780	81621.3
16.785	81617.3
16.790	81587.3
16.795	81562.3
16.800	81553.3
16.805	81582.3
16.810	81573.3
16.815	81579.3
16.820	81577.3
16.825	81580.3
16.830	81572.3
16.835	81548.3
16.840	81526.3
16.845	81519.3
16.850	81506.4
16.855	81497.4
16.860	81481.4
16.865	81463.4
16.870	81476.4
16.875	81480.4
16.880	81476.4
16.885	81474.4
16.890	81469.4
16.895	81471.4
16.900	81472.4
16.905	81479.4
16.910	81477.4
16.915	81484.4
16.920	81479.4
16.925	81452.4
16.930	81425.4
16.935	81430.4
16.940	81454.4
16.945	81471.4
16.950	81476.4
16.955	81501.3
16.960	81509.3
16.965	81506.3
16.970	81493.3
16.975	81509.3
16.980	81497.3
16.985	81496.3
16.990	81479.4
16.995	81483.4
17.000	81475.4
17.005	81518.3
17.010	81503.3
17.015	81516.3
17.020	81529.3
17.025	81548.3
17.030	81544.3
17.035	81546.3
17.040	81552.3
17.045	81568.3
17.050	81570.3
17.055	81578.3
17.060	81536.3
17.065	81524.3
17.070	81553.3
17.075	81569.3
17.080	81556.3
17.085	81565.3
17.090	81550.3
17.095	81560.3
17.100	81560.3
17.105	81561.3
17.110	81581.3
17.115	81589.3
17.120	81580.3
17.125	81557.3
17.130	81539.3
17.135	81556.3
17.140	81588.3
17.145	81588.3
17.150	81581.3
17.155	81579.3
17.160	81584.3
17.165	81600.3
17.170	81597.3
17.175	81599.3
17.180	81594.3
17.185	81603.2
17.190	81584.3
17.195	81579.3
17.200	81574.3
17.205	81596.3
17.210	81596.3
17.215	81598.2
17.220	81585.3
17.225	81589.3
17.230	81593.2
17.235	81584.3
17.240	81571.3
17.245	81588.3
17.250	81589.3
17.255	81584.3
17.260	81548.3
17.265	81543.3
17.270	81567.3
17.275	81583.3
17.280	81583.3
17.285	81578.3
17.290	81585.2
17.295	81578.3
17.300	81573.3
17.305	81575.3
17.310	81569.3
17.315	81569.3
17.320	81571.3
17.325	81557.3
17.330	81538.3
17.335	81546.3
17.340	81565.3
17.345	81561.3
17.350	81567.3
17.355	81569.3
17.360	81570.3
17.365	81566.3
17.370	81560.3
17.375	81565.3
17.380	81562.3
17.385	81577.2
17.390	81564.3
17.395	81541.3
17.400	81535.3
17.405	81575.2
17.410	81585.2
17.415	81582.2
17.420	81579.2
17.425	81579.2
17.430	81569.2
17.435	81579.2
17.440	81589.2
17.445	81600.2
17.450	81586.2
17.455	81605.2
17.460	81576.2
17.465	81565.2
17.470	81590.2
17.475	81603.2
17.480	81602.2
17.485	81603.2
17.490	81607.2
17.495	81611.2
17.500	81610.2
17.505	81607.2
17.510	81616.2
17.515	81608.2
17.520	81599.2
17.525	81574.2
17.530	81555.2
17.535	81568.2
17.540	81585.2
17.545	81596.2
17.550	81589.2
17.555	81586.2
17.560	81578.2
17.565	81574.2
17.570	81580.2
17.575	81585.2
17.580	81593.2
17.585	81605.2
17.590	81600.2
17.595	81577.2
17.600	81576.2
17.605	81601.2
17.610	81600.2
17.615	81611.2
17.620	81609.2
17.625	81605.2
17.630	81596.2
17.635	81604.2
17.640	81609.2
17.645	81605.2
17.650	81608.2
17.655	81605.2
17.660	81588.2
17.665	81587.2
17.670	81618.2
17.675	81635.2
17.680	81626.2
17.685	81622.2
17.690	81624.2
17.695	81625.2
17.700	81637.2
17.705	81642.2
17.710	81642.2
17.715	81652.2
17.720	81659.1
17.725	81654.1
17.730	81628.2
17.735	81647.2
17.740	81670.1
17.745	81682.1
17.750	81690.1
17.755	81693.1
17.760	81684.1
17.765	81678.1
17.770	81693.1
17.775	81698.1
17.780	81693.1
17.785	81708.1
17.790	81697.1
17.795	81698.1
17.800	81697.1
17.805	81727.1
17.810	81737.1
17.815	81751.1
17.820	81743.1
17.825	81749.1
17.830	81741.1
17.835	81754.1
17.840	81758.1
17.845	81772.0
17.850	81774.0
17.855	81783.0
17.860	81764.1
17.865	81765.0
17.870	81781.0
17.875	81794.0
17.880	81798.0
17.885	81813.0
17.890	81809.0
17.895	81806.0
17.900	81805.0
17.905	81810.0
17.910	81796.0
17.915	81808.0
17.920	81809.0
17.925	81780.0
17.930	81770.0
17.935	81791.0
17.940	81787.0
17.945	81782.0
17.950	81774.0
17.955	81781.0
17.960	81775.0
17.965	81777.0
17.970	81783.0
17.975	81779.0
17.980	81782.0
17.985	81783.0
17.990	81775.0
17.995	81759.0
18.000	81749.0
18.005	81785.0
18.010	81767.0
18.015	81758.0
18.020	81763.0
18.025	81762.0
18.030	81754.0
18.035	81756.0
18.040	81752.0
18.045	81737.0
18.050	81754.0
18.055	81734.0
18.060	81697.1
18.065	81695.1
18.070	81715.1
18.075	81722.1
18.080	81730.0
18.085	81727.0
18.090	81717.1
18.095	81734.0
18.100	81738.0
18.105	81748.0
18.110	81740.0
18.115	81753.0
18.120	81746.0
18.125	81729.0
18.130	81717.1
18.135	81729.0
18.140	81744.0
18.145	81752.0
18.150	81732.0
18.155	81728.0
18.160	81727.0
18.165	81729.0
18.170	81730.0
18.175	81722.0
18.180	81710.0
18.185	81714.0
18.190	81683.1
18.195	81675.1
18.200	81685.1
18.205	81714.0
18.210	81702.1
18.215	81702.0
18.220	81690.1
18.225	81685.1
18.230	81680.1
18.235	81683.1
18.240	81689.1
18.245	81693.1
18.250	81697.0
18.255	81699.0
18.260	81666.1
18.265	81658.1
18.270	81678.1
18.275	81694.0
18.280	81690.0
18.285	81694.0
18.290	81690.0
18.295	81678.1
18.300	81698.0
18.305	81699.0
18.310	81683.0
18.315	81693.0
18.320	81684.0
18.325	81663.1
18.330	81641.1
18.335	81666.1
18.340	81691.0
18.345	81690.0
18.350	81690.0
18.355	81683.0
18.360	81673.0
18.365	81666.1
18.370	81680.0
18.375	81683.0
18.380	81677.0
18.385	81686.0
18.390	81650.1
18.395	81636.1
18.400	81641.1
18.405	81681.0
18.410	81661.0
18.415	81654.1
18.420	81642.1
18.425	81642.1
18.430	81642.1
18.435	81661.0
18.440	81638.1
18.445	81629.1
18.450	81625.1
18.455	81607.1
18.460	81583.1
18.465	81576.1
18.470	81594.1
18.475	81587.1
18.480	81571.1
18.485	81574.1
18.490	81562.1
18.495	81566.1
18.500	81577.1
18.505	81574.1
18.510	81554.1
18.515	81555.1
18.520	81552.1
18.525	81532.1
18.530	81528.1
18.535	81536.1
18.540	81540.1
18.545	81553.1
18.550	81543.1
18.555	81540.1
18.560	81528.1
18.565	81534.1
18.570	81537.1
18.575	81537.1
18.580	81532.1
18.585	81544.1
18.590	81518.1
18.595	81506.1
18.600	81490.1
18.605	81516.1
18.610	81506.1
18.615	81517.1
18.620	81509.1
18.625	81516.1
18.630	81508.1
18.635	81502.1
18.640	81502.1
18.645	81512.1
18.650	81515.1
18.655	81493.1
18.660	81455.2
18.665	81457.2
18.670	81486.1
18.675	81497.1
18.680	81498.1
18.685	81489.1
18.690	81472.1
18.695	81474.1
18.700	81479.1
18.705	81492.1
18.710	81490.1
18.715	81497.1
18.720	81479.1
18.725	81440.2
18.730	81442.2
18.735	81471.1
18.740	81487.1
18.745	81479.1
18.750	81475.1
18.755	81461.1
18.760	81474.1
18.765	81476.1
18.770	81476.1
18.775	81475.1
18.780	81463.1
18.785	81463.1
18.790	81450.1
18.795	81427.2
18.800	81421.2
18.805	81451.1
18.810	81440.1
18.815	81444.1
18.820	81445.1
18.825	81451.1
18.830	81450.1
18.835	81437.1
18.840	81401.2
18.845	81388.2
18.850	81389.2
18.855	81374.2
18.860	81338.2
18.865	81331.2
18.870	81336.2
18.875	81335.2
18.880	81314.2
18.885	81307.2
18.890	81292.2
18.895	81296.2
18.900	81281.2
18.905	81278.2
18.910	81279.2
18.915	81328.2
18.920	81340.2
18.925	81333.2
18.930	81314.2
18.935	81335.2
18.940	81332.2
18.945	81323.2
18.950	81299.2
18.955	81307.2
18.960	81342.2
18.965	81379.2
18.970	81401.1
18.975	81408.1
18.980	81423.1
18.985	81434.1
18.990	81410.1
18.995	81392.1
19.000	81391.1
19.005	81430.1
19.010	81437.1
19.015	81449.1
19.020	81446.1
19.025	81463.1
19.030	81464.1
19.035	81461.1
19.040	81457.1
19.045	81481.1
19.050	81484.1
19.055	81475.1
19.060	81443.1
19.065	81444.1
19.070	81470.1
19.075	81486.1
19.080	81486.1
19.085	81493.0
19.090	81484.1
19.095	81485.0
19.100	81476.1
19.105	81481.1
19.110	81459.1
19.115	81458.1
19.120	81459.1
19.125	81426.1
19.130	81424.1
19.135	81452.1
19.140	81449.1
19.145	81464.1
19.150	81454.1
19.155	81457.1
19.160	81439.1
19.165	81428.1
19.170	81428.1
19.175	81418.1
19.180	81416.1
19.185	81398.1
19.190	81359.1
19.195	81314.2
19.200	81319.1
19.205	81333.1
19.210	81309.2
19.215	81295.2
19.220	81269.2
19.225	81256.2
19.230	81246.2
19.235	81245.2
19.240	81244.2
19.245	81251.2
19.250	81248.2
19.255	81228.2
19.260	81218.2
19.265	81207.2
19.270	81244.2
19.275	81258.2
19.280	81254.2
19.285	81265.2
19.290	81251.2
19.295	81263.2
19.300	81269.2
19.305	81298.1
19.310	81303.1
19.315	81324.1
19.320	81317.1
19.325	81321.1
19.330	81311.1
19.335	81349.1
19.340	81365.1
19.345	81385.1
19.350	81398.1
19.355	81417.0
19.360	81410.0
19.365	81421.0
19.370	81419.0
19.375	81431.0
19.380	81420.0
19.385	81416.0
19.390	81388.1
19.395	81377.1
19.400	81389.0
19.405	81413.0
19.410	81424.0
19.415	81428.0
19.420	81434.0
19.425	81437.0
19.430	81425.0
19.435	81423.0
19.440	81423.0
19.445	81434.0
19.450	81431.0
19.455	81411.0
19.460	81406.0
19.465	81405.0
19.470	81420.0
19.475	81422.0
19.480	81421.0
19.485	81411.0
19.490	81384.0
19.495	81371.0
19.500	81358.0
19.505	81364.0
19.510	81353.0
19.515	81345.0
19.520	81310.1
19.525	81291.1
19.530	81285.1
19.535	81316.1
19.540	81324.1
19.545	81319.1
19.550	81311.1
19.555	81314.1
19.560	81275.1
19.565	81274.1
19.570	81267.1
19.575	81267.1
19.580	81272.1
19.585	81283.1
19.590	81260.1
19.595	81244.1
19.600	81241.1
19.605	81254.1
19.610	81255.1
19.615	81287.1
19.620	81284.1
19.625	81272.1
19.630	81272.1
19.635	81274.1
19.640	81250.1
19.645	81227.1
19.650	81224.1
19.655	81194.1
19.660	81161.1
19.665	81159.1
19.670	81196.1
19.675	81177.1
19.680	81149.1
19.685	81132.2
19.690	81133.1
19.695	81133.1
19.700	81124.1
19.705	81107.2
19.710	81098.2
19.715	81107.2
19.720	81115.2
19.725	81105.2
19.730	81093.2
19.735	81120.1
19.740	81112.1
19.745	81111.1
19.750	81117.1
19.755	81132.1
19.760	81121.1
19.765	81083.2
19.770	81059.2
19.775	81051.2
19.780	81045.2
19.785	81055.2
19.790	81029.2
19.795	81012.2
19.800	81002.2
19.805	81014.2
19.810	81002.2
19.815	81000.2
19.820	80994.2
19.825	81006.2
19.830	81000.2
19.835	80982.2
19.840	80969.2
19.845	80979.2
19.850	81002.2
19.855	81017.2
19.860	81016.2
19.865	81023.2
19.870	81067.1
19.875	81090.1
19.880	81103.1
19.885	81123.1
19.890	81129.1
19.895	81157.0
19.900	81165.0
19.905	81186.0
19.910	81210.0
19.915	81219.0
19.920	81220.0
19.925	81198.0
19.930	81187.0
19.935	81229.0
19.940	81243.0
19.945	81240.0
19.950	81245.0
19.955	81249.9
19.960	81252.9
19.965	81264.9
19.970	81272.9
19.975	81279.9
19.980	81281.9
19.985	81292.9
19.990	81267.9
19.995	81247.9
20.000	81263.9
20.005	81286.9
20.010	81276.9
20.015	81276.9
20.020	81261.9
20.025	81264.9
20.030	81258.9
20.035	81254.9
20.040	81232.9
20.045	81244.9
20.050	81231.9
20.055	81183.9
20.060	81162.0
20.065	81181.9
20.070	81196.9
20.075	81188.9
20.080	81182.9
20.085	81183.9
20.090	81179.9
20.095	81181.9
20.100	81174.9
20.105	81164.9
20.110	81159.9
20.115	81160.9
20.120	81154.9
20.125	81133.9
20.130	81122.0
20.135	81133.9
20.140	81127.9
20.145	81117.9
20.150	81105.0
20.155	81103.9
20.160	81095.0
20.165	81080.0
20.170	81065.0
20.175	81052.0
20.180	81024.0
20.185	81018.0
20.190	80993.0
20.195	80964.0
20.200	80958.0
20.205	80938.0
20.210	80912.1
20.215	80908.1
20.220	80891.1
20.225	80877.1
20.230	80854.1
20.235	80834.1
20.240	80841.1
20.245	80882.1
20.250	80883.1
20.255	80892.1
20.260	80892.0
20.265	80888.0
20.270	80905.0
20.275	80910.0
20.280	80911.0
20.285	80911.0
20.290	80889.0
20.295	80868.0
20.300	80854.0
20.305	80861.0
20.310	80837.1
20.315	80827.1
20.320	80805.1
20.325	80797.1
20.330	80777.1
20.335	80766.1
20.340	80721.1
20.345	80663.2
20.350	80631.2
20.355	80598.2
20.360	80569.2
20.365	80550.2
20.370	80522.2
20.375	80504.3
20.380	80478.3
20.385	80487.3
20.390	80472.3
20.395	80472.3
20.400	80481.3
20.405	80498.2
20.410	80497.2
20.415	80515.2
20.420	80523.2
20.425	80528.2
20.430	80548.2
20.435	80591.1
20.440	80609.1
20.445	80636.1
20.450	80621.1
20.455	80586.1
20.460	80552.1
20.465	80558.1
20.470	80577.1
20.475	80553.1
20.480	80519.1
20.485	80527.1
20.490	80536.1
20.495	80546.1
20.500	80526.1
20.505	80500.1
20.510	80475.2
20.515	80456.2
20.520	80371.2
20.525	80283.3
20.530	80225.3
20.535	80198.3
20.540	80149.4
20.545	80146.4
20.550	80132.4
20.555	80107.4
20.560	80091.4
20.565	80085.4
20.570	80050.4
20.575	80018.5
20.580	79988.5
20.585	79974.5
20.590	79968.5
20.595	80000.4
20.600	80063.4
20.605	80115.3
20.610	80135.3
20.615	80145.3
20.620	80158.3
20.625	80171.3
20.630	80175.3
20.635	80160.3
20.640	80092.3
20.645	80044.3
20.650	79990.4
20.655	79912.4
20.660	79820.5
20.665	79796.5
20.670	79763.5
20.675	79700.6
20.680	79651.6
20.685	79558.7
20.690	79523.7
20.695	79554.7
20.700	79561.6
20.705	79584.6
20.710	79580.6
20.715	79537.6
20.720	79450.7
20.725	79344.8
20.730	79272.8
20.735	79312.8
20.740	79334.8
20.745	79338.7
20.750	79372.7
20.755	79426.6
20.760	79418.6
20.765	79438.6
20.770	79465.6
20.775	79488.6
20.780	79512.5
20.785	79542.5
20.790	79536.5
20.795	79521.5
20.800	79535.5
20.805	79590.4
20.810	79627.4
20.815	79636.4
20.820	79634.4
20.825	79603.4
20.830	79585.4
20.835	79576.4
20.840	79542.4
20.845	79511.4
20.850	79492.4
20.855	79388.5
20.860	79252.6
20.865	79139.6
20.870	79036.7
20.875	78902.8
20.880	78804.9
20.885	78709.9
20.890	78636.0
20.895	78643.0
20.900	78705.9
20.905	78776.8
20.910	78845.8
20.915	78983.7
20.920	79107.5
20.925	79178.5
20.930	79200.4
20.935	79203.4
20.940	79148.5
20.945	79064.5
20.950	78943.6
20.955	78761.7
20.960	78607.8
20.965	78532.9
20.970	78536.9
20.975	78623.8
20.980	78776.6
20.985	78858.6
20.990	78920.5
20.995	79056.4
21.000	79331.1
21.005	79545.9
21.010	79636.8
21.015	79677.8
21.020	79643.8
21.025	79519.9
21.030	79361.0
21.035	79284.0
21.040	79339.9
21.045	79449.8
21.050	79590.7
21.055	79667.6
21.060	79586.7
21.065	79355.8
21.070	79221.9
21.075	79194.9
21.080	79173.9
21.085	79122.9
21.090	79002.9
21.095	78825.0
21.100	78597.2
21.105	78234.4
21.110	77275.2
21.115	75950.2
21.120	75297.6
21.125	75546.5
21.130	75817.2
21.135	76405.7
21.140	77546.8
21.145	78684.8
21.150	78628.8
21.155	78219.1
21.160	78156.1
21.165	78224.9
21.170	78168.9
21.175	78160.9
21.180	78308.7
21.185	78371.6
21.190	77480.2
21.195	75764.5
21.200	74749.3
21.205	74846.1
21.210	74847.0
21.215	74105.6
21.220	73530.9
21.225	75122.5
21.230	77228.7
21.235	77435.5
21.240	76745.9
21.245	76340.1
21.250	76132.2
21.255	75767.4
21.260	75303.7
21.265	74873.1
21.270	74694.2
21.275	74813.2
21.280	75054.1
21.285	75223.2
21.290	75397.3
21.295	75662.4
21.300	76159.4
21.305	76871.2
21.310	77676.0
21.315	78442.8
21.320	79169.7
21.325	79939.6
21.330	80744.5
21.335	81506.3
21.340	82084.1
21.345	82486.0
21.350	82721.9
21.355	82862.8
21.360	82926.8
21.365	82955.8
21.370	82976.8
21.375	82983.8
21.380	82989.8
21.385	82986.8
21.390	82956.8
21.395	82958.8
21.400	82982.8
21.405	82996.8
21.410	82996.8
21.415	83003.8
21.420	82996.8
21.425	82997.8
21.430	82991.8
21.435	82996.8
21.440	82998.8
21.445	83012.8
21.450	83009.8
21.455	82996.8
21.460	82970.8
21.465	82978.8
21.470	83006.8
21.475	83013.8
21.480	83011.8
21.485	83002.8
21.490	83005.8
21.495	83018.8
21.500	83010.8
21.505	83012.8
21.510	83013.8
21.515	83015.8
21.520	82985.8
21.525	82968.8
21.530	82984.8
21.535	83018.8
21.540	83009.8
21.545	83007.8
21.550	83008.8
21.555	83011.8
21.560	83002.8
21.565	83013.8
21.570	83013.8
21.575	83012.8
21.580	83018.8
21.585	83016.8
21.590	82992.8
21.595	82981.8
21.600	83008.8
21.605	83021.8
21.610	83012.8
21.615	83025.8
21.620	83020.8
21.625	83018.8
21.630	83014.8
21.635	83018.8
21.640	83016.8
21.645	83020.8
21.650	83012.8
21.655	82998.8
21.660	82973.8
21.665	82999.8
21.670	83016.8
21.675	83008.8
21.680	83008.8
21.685	83015.8
21.690	83012.8
21.695	83015.8
21.700	83013.8
21.705	83020.8
21.710	83013.8
21.715	83028.8
21.720	83005.8
21.725	82993.8
21.730	82997.8
21.735	83017.8
21.740	83027.8
21.745	83034.8
21.750	83028.8
21.755	83013.8
21.760	83016.8
21.765	83017.8
21.770	83029.8
21.775	83022.8
21.780	83029.8
21.785	83013.8
21.790	82989.8
21.795	82986.8
21.800	83013.8
21.805	83018.8
21.810	83023.8
21.815	83018.8
21.820	83014.8
21.825	83013.8
21.830	83016.8
21.835	83021.8
21.840	83025.8
21.845	83021.8
21.850	83039.8
21.855	83013.8
21.860	82992.8
21.865	83012.8
21.870	83030.8
21.875	83033.8
21.880	83032.8
21.885	83037.8
21.890	83034.8
21.895	83028.8
21.900	83027.8
21.905	83037.8
21.910	83025.8
21.915	83035.8
21.920	82999.8
21.925	82992.8
21.930	82994.8
21.935	83022.8
21.940	83019.8
21.945	83020.8
21.950	83026.8
21.955	83025.8
21.960	83018.8
21.965	83020.8
21.970	83021.8
21.975	83030.8
21.980	83037.8
21.985	83031.8
21.990	83007.8
21.995	83002.8
22.000	83028.8
22.005	83032.8
22.010	83033.8
22.015	83042.8
22.020	83038.8
22.025	83031.8
22.030	83042.8
22.035	83033.8
22.040	83027.8
22.045	83025.8
22.050	83029.8
22.055	83004.8
22.060	82993.8
22.065	83014.8
22.070	83032.8
22.075	83038.8
22.080	83025.8
22.085	83032.8
22.090	83024.8
22.095	83029.8
22.100	83029.8
22.105	83042.8
22.110	83036.8
22.115	83038.8
22.120	83015.8
22.125	82997.8
22.130	83000.8
22.135	83034.8
22.140	83035.8
22.145	83040.8
22.150	83047.8
22.155	83044.8
22.160	83033.8
22.165	83036.8
22.170	83027.8
22.175	83029.8
22.180	83035.8
22.185	83021.8
22.190	82996.8
22.195	82998.8
22.200	83024.8
22.205	83035.8
22.210	83034.8
22.215	83038.8
22.220	83031.8
22.225	83030.8
22.230	83026.8
22.235	83027.8
22.240	83036.8
22.245	83045.8
22.250	83039.8
22.255	83016.8
22.260	83000.8
22.265	83024.8
22.270	83030.8
22.275	83038.8
22.280	83033.8
22.285	83043.8
22.290	83037.8
22.295	83036.8
22.300	83029.8
22.305	83037.8
22.310	83023.8
22.315	83033.8
22.320	83008.8
22.325	82996.8
22.330	83003.8
22.335	83035.8
22.340	83026.8
22.345	83038.8
22.350	83030.8
22.355	83028.8
22.360	83019.8
22.365	83030.8
22.370	83027.8
22.375	83041.8
22.380	83040.8
22.385	83029.8
22.390	83006.8
22.395	83004.8
22.400	83031.8
22.405	83040.8
22.410	83037.8
22.415	83041.8
22.420	83037.8
22.425	83035.8
22.430	83042.8
22.435	83042.8
22.440	83039.8
22.445	83042.8
22.450	83033.8
22.455	83011.8
22.460	82999.8
22.465	83023.8
22.470	83029.8
22.475	83033.8
22.480	83026.8
22.485	83029.8
22.490	83025.8
22.495	83027.8
22.500	83025.8
22.505	83038.8
22.510	83038.8
22.515	83043.8
22.520	83016.8
22.525	83002.8
22.530	83017.8
22.535	83039.8
22.540	83043.8
22.545	83037.8
22.550	83037.8
22.555	83045.8
22.560	83042.8
22.565	83043.8
22.570	83034.8
22.575	83043.8
22.580	83036.8
22.585	83025.8
22.590	83002.8
22.595	83009.8
22.600	83032.8
22.605	83038.8
22.610	83031.8
22.615	83035.8
22.620	83036.8
22.625	83038.8
22.630	83033.8
22.635	83033.8
22.640	83037.8
22.645	83047.8
22.650	83041.8
22.655	83026.8
22.660	83000.8
22.665	83028.8
22.670	83043.8
22.675	83037.8
22.680	83057.8
22.685	83046.8
22.690	83029.8
22.695	83032.8
22.700	83037.8
22.705	83044.8
22.710	83039.8
22.715	83045.8
22.720	83007.8
22.725	83001.8
22.730	83006.8
22.735	83037.8
22.740	83030.8
22.745	83032.8
22.750	83027.8
22.755	83034.8
22.760	83024.8
22.765	83027.8
22.770	83034.8
22.775	83041.8
22.780	83036.8
22.785	83026.8
22.790	83004.8
22.795	83014.8
22.800	83035.8
22.805	83041.8
22.810	83031.8
22.815	83036.8
22.820	83031.8
22.825	83034.8
22.830	83037.8
22.835	83036.8
22.840	83037.8
22.845	83032.8
22.850	83028.8
22.855	83007.8
22.860	82991.8
22.865	83022.8
22.870	83030.8
22.875	83028.8
22.880	83021.8
22.885	83025.8
22.890	83017.8
22.895	83037.8
22.900	83030.8
22.905	83033.8
22.910	83032.8
22.915	83039.8
22.920	83017.8
22.925	83002.8
22.930	83014.8
22.935	83032.8
22.940	83035.8
22.945	83041.8
22.950	83035.8
22.955	83033.8
22.960	83033.8
22.965	83030.8
22.970	83025.8
22.975	83028.8
22.980	83031.8
22.985	83013.8
22.990	82990.8
22.995	82998.8
23.000	83022.8
23.005	83033.8
23.010	83027.8
23.015	83037.8
23.020	83023.8
23.025	83020.8
23.030	83022.8
23.035	83025.8
23.040	83026.8
23.045	83034.8
23.050	83031.8
23.055	83004.8
23.060	82984.8
23.065	83016.8
23.070	83022.8
23.075	83033.8
23.080	83032.8
23.085	83033.8
23.090	83019.8
23.095	83023.8
23.100	83023.8
23.105	83031.8
23.110	83033.8
23.115	83029.8
23.120	83007.8
23.125	82984.8
23.130	83007.8
23.135	83028.8
23.140	83029.8
23.145	83026.8
23.150	83027.8
23.155	83023.8
23.160	83014.8
23.165	83023.8
23.170	83023.8
23.175	83034.8
23.180	83033.8
23.185	83021.8
23.190	82999.8
23.195	82991.8
23.200	83027.8
23.205	83030.8
23.210	83027.8
23.215	83021.8
23.220	83030.8
23.225	83033.8
23.230	83019.8
23.235	83031.8
23.240	83023.8
23.245	83030.8
23.250	83011.8
23.255	82994.8
23.260	82984.8
23.265	83016.8
23.270	83014.8
23.275	83024.8
23.280	83016.8
23.285	83010.8
23.290	83014.8
23.295	83020.8
23.300	83020.8
23.305	83028.8
23.310	83028.8
23.315	83040.8
23.320	83007.8
23.325	82995.8
23.330	83005.8
23.335	83029.8
23.340	83025.8
23.345	83038.8
23.350	83021.8
23.355	83028.8
23.360	83021.8
23.365	83019.8
23.370	83027.8
23.375	83030.8
23.380	83035.8
23.385	83001.8
23.390	82987.8
23.395	83005.8
23.400	83020.8
23.405	83024.8
23.410	83027.8
23.415	83022.8
23.420	83022.8
23.425	83017.8
23.430	83011.8
23.435	83026.8
23.440	83020.8
23.445	83031.8
23.450	83027.8
23.455	83002.8
23.460	82990.8
23.465	83022.8
23.470	83023.8
23.475	83028.8
23.480	83026.8
23.485	83034.8
23.490	83022.8
23.495	83035.8
23.500	83027.8
23.505	83027.8
23.510	83028.8
23.515	83023.8
23.520	82996.8
23.525	82994.8
23.530	83010.8
23.535	83023.8
23.540	83020.8
23.545	83020.8
23.550	83019.8
23.555	83016.8
23.560	83018.8
23.565	83023.8
23.570	83024.8
23.575	83028.8
23.580	83036.8
23.585	83020.8
23.590	82998.8
23.595	83001.8
23.600	83026.8
23.605	83025.8
23.610	83029.8
23.615	83033.8
23.620	83025.8
23.625	83025.8
23.630	83026.8
23.635	83027.8
23.640	83026.8
23.645	83031.8
23.650	83017.8
23.655	82987.8
23.660	82990.8
23.665	83026.8
23.670	83021.8
23.675	83028.8
23.680	83021.8
23.685	83021.8
23.690	83014.8
23.695	83016.8
23.700	83016.8
23.705	83021.8
23.710	83029.8
23.715	83035.8
23.720	83000.8
23.725	82995.8
23.730	83001.8
23.735	83029.8
23.740	83032.8
23.745	83026.8
23.750	83020.8
23.755	83019.8
23.760	83026.8
23.765	83024.8
23.770	83028.8
23.775	83023.8
23.780	83024.8
23.785	82997.8
23.790	82978.8
23.795	82986.8
23.800	83014.8
23.805	83016.8
23.810	83015.8
23.815	83025.8
23.820	83014.8
23.825	83012.8
23.830	83015.8
23.835	83015.8
23.840	83030.8
23.845	83035.8
23.850	83023.8
23.855	83006.8
23.860	82986.8
23.865	83021.8
23.870	83017.8
23.875	83028.8
23.880	83026.8
23.885	83030.8
23.890	83026.8
23.895	83021.8
23.900	83030.8
23.905	83026.8
23.910	83026.8
23.915	83016.8
23.920	82988.8
23.925	82984.8
23.930	83012.8
23.935	83023.8
23.940	83016.8
23.945	83014.8
23.950	83009.8
23.955	83004.8
23.960	83016.8
23.965	83022.8
23.970	83012.8
23.975	83028.8
23.980	83020.8
23.985	83012.8
23.990	82991.8
23.995	82994.8
24.000	83020.8
24.005	83024.8
24.010	83021.8
24.015	83026.8
24.020	83024.8
24.025	83024.8
24.030	83017.8
24.035	83027.8
24.040	83017.8
24.045	83026.8
24.050	82999.8
24.055	82995.8
24.060	82988.8
24.065	83017.8
24.070	83017.8
24.075	83013.8
24.080	83014.8
24.085	83013.8
24.090	83005.8
24.095	83006.8
24.100	83009.8
24.105	83011.8
24.110	83014.8
24.115	83022.8
24.120	83000.8
24.125	82985.8
24.130	83000.8
24.135	83018.8
24.140	83017.8
24.145	83021.8
24.150	83018.8
24.155	83023.8
24.160	83014.8
24.165	83014.8
24.170	83013.8
24.175	83029.8
24.180	83012.8
24.185	82987.8
24.190	82980.8
24.195	82983.8
24.200	83011.8
24.205	83008.8
24.210	83011.8
24.215	83008.8
24.220	83010.8
24.225	83008.8
24.230	83011.8
24.235	83013.8
24.240	83008.8
24.245	83034.8
24.250	83012.8
24.255	82994.8
24.260	82980.8
24.265	83011.8
24.270	83018.8
24.275	83018.8
24.280	83018.8
24.285	83015.8
24.290	83014.8
24.295	83013.8
24.300	83018.8
24.305	83022.8
24.310	83020.8
24.315	83002.8
24.320	82979.8
24.325	82978.8
24.330	83005.8
24.335	83011.8
24.340	83005.8
24.345	83000.8
24.350	83006.8
24.355	82996.8
24.360	83002.8
24.365	83004.8
24.370	83011.8
24.375	83017.8
24.380	83020.8
24.385	82997.8
24.390	82979.8
24.395	82986.8
24.400	83009.8
24.405	83019.8
24.410	83019.8
24.415	83011.8
24.420	83010.8
24.425	83025.8
24.430	83009.8
24.435	83018.8
24.440	83014.8
24.445	83011.8
24.450	82995.8
24.455	82983.8
24.460	82982.8
24.465	83010.8
24.470	83003.8
24.475	83008.8
24.480	82999.8
24.485	83012.8
24.490	83009.8
24.495	83009.8
24.500	83010.8
24.505	83012.8
24.510	83010.8
24.515	83015.8
24.520	82985.8
24.525	82974.8
24.530	83007.8
24.535	83021.8
24.540	83017.8
24.545	83021.8
24.550	83018.8
24.555	83019.8
24.560	83005.8
24.565	83008.8
24.570	83013.8
24.575	83004.8
24.580	83010.8
24.585	82994.8
24.590	82974.8
24.595	82994.8
24.600	83005.8
24.605	83011.8
24.610	83012.8
24.615	83006.8
24.620	83010.8
24.625	83006.8
24.630	83008.8
24.635	83012.8
24.640	83010.8
24.645	83022.8
24.650	83004.8
24.655	82984.8
24.660	82976.8
24.665	83018.8
24.670	83017.8
24.675	83025.8
24.680	83017.8
24.685	83015.8
24.690	83008.8
24.695	83023.8
24.700	83010.8
24.705	83021.8
24.710	83020.8
24.715	83011.8
24.720	82980.8
24.725	82975.8
24.730	83007.8
24.735	83011.8
24.740	83005.8
24.745	83016.8
24.750	83008.8
24.755	83007.8
24.760	83005.8
24.765	83013.8
24.770	83014.8
24.775	83020.8
24.780	83020.8
24.785	82996.8
24.790	82982.8
24.795	82992.8
24.800	83020.8
24.805	83017.8
24.810	83022.8
24.815	83020.8
24.820	83019.8
24.825	83014.8
24.830	83015.8
24.835	83015.8
24.840	83009.8
24.845	83015.8
24.850	82987.8
24.855	82976.8
24.860	82982.8
24.865	83010.8
24.870	83015.8
24.875	83005.8
24.880	83009.8
24.885	83011.8
24.890	83004.8
24.895	83005.8
24.900	83011.8
24.905	83008.8
24.910	83017.8
24.915	83013.8
24.920	82986.8
24.925	82976.8
24.930	83004.8
24.935	83019.8
24.940	83009.8
24.945	83019.8
24.950	83009.8
24.955	83012.8
24.960	83005.8
24.965	83012.8
24.970	83004.8
24.975	83011.8
24.980	83016.8
24.985	82977.8
24.990	82970.8
24.995	82986.8
25.000	83015.8
25.005	83012.8
25.010	83002.8
25.015	83004.8
25.020	83002.8
25.025	83002.8
25.030	83001.8
25.035	82994.8
25.040	83005.8
25.045	83021.8
25.050	83005.8
25.055	82980.8
25.060	82975.8
25.065	83015.8
25.070	83012.8
25.075	83007.8
25.080	83007.8
25.085	83020.8
25.090	83002.8
25.095	83002.8
25.100	83009.8
25.105	83008.8
25.110	83011.8
25.115	82997.8
25.120	82974.8
25.125	82965.8
25.130	83001.8
25.135	83002.8
25.140	83002.8
25.145	82998.8
25.150	83000.8
25.155	83008.8
25.160	82993.8
25.165	83003.8
25.170	82999.8
25.175	83006.8
25.180	83010.8
25.185	82984.8
25.190	82964.8
25.195	82986.8
25.200	83002.8
25.205	83011.8
25.210	83008.8
25.215	83012.8
25.220	83002.8
25.225	83001.8
25.230	83011.8
25.235	83006.8
25.240	83003.8
25.245	83009.8
25.250	82982.8
25.255	82973.8
25.260	82978.8
25.265	83009.8
25.270	82996.8
25.275	82997.8
25.280	82999.8
25.285	83007.8
25.290	82996.8
25.295	83005.8
25.300	83003.8
25.305	83002.8
25.310	83012.8
25.315	83011.8
25.320	82978.8
25.325	82977.8
25.330	83006.8
25.335	83016.8
25.340	83012.8
25.345	83014.8
25.350	83008.8
25.355	83011.8
25.360	83000.8
25.365	83006.8
25.370	83003.8
25.375	83007.8
25.380	83004.8
25.385	82983.8
25.390	82962.8
25.395	82978.8
25.400	82998.8
25.405	83005.8
25.410	83002.8
25.415	83002.8
25.420	83000.8
25.425	83003.8
25.430	82995.8
25.435	83007.8
25.440	83011.8
25.445	83022.8
25.450	82999.8
25.455	82970.8
25.460	82976.8
25.465	83011.8
25.470	83010.8
25.475	83014.8
25.480	83019.8
25.485	83012.8
25.490	83002.8
25.495	83011.8
25.500	83012.8
25.505	83009.8
25.510	83010.8
25.515	83001.8
25.520	82964.8
25.525	82976.8
25.530	83009.8
25.535	83002.8
25.540	83008.8
25.545	83003.8
25.550	83001.8
25.555	82998.8
25.560	82992.8
25.565	83015.8
25.570	83012.8
25.575	83020.8
25.580	83014.8
25.585	82993.8
25.590	82984.8
25.595	82998.8
25.600	83010.8
25.605	83023.8
25.610	83018.8
25.615	83027.8
25.620	83013.8
25.625	83024.8
25.630	83021.8
25.635	83017.8
25.640	83014.8
25.645	83019.8
25.650	82997.8
25.655	82982.8
25.660	82995.8
25.665	83014.8
25.670	83014.8
25.675	83008.8
25.680	83005.8
25.685	83012.8
25.690	83012.8
25.695	83010.8
25.700	83007.8
25.705	83023.8
25.710	83027.8
25.715	83018.8
25.720	82994.8
25.725	82985.8
25.730	83016.8
25.735	83023.8
25.740	83027.8
25.745	83020.8
25.750	83029.8
25.755	83020.8
25.760	83023.8
25.765	83013.8
25.770	83019.8
25.775	83024.8
25.780	83022.8
25.785	82990.8
25.790	82971.8
25.795	83004.8
25.800	83016.8
25.805	83018.8
25.810	83014.8
25.815	83016.8
25.820	83007.8
25.825	83019.8
25.830	83009.8
25.835	83014.8
25.840	83017.8
25.845	83026.8
25.850	82999.8
25.855	82992.8
25.860	82992.8
25.865	83023.8
25.870	83023.8
25.875	83018.8
25.880	83024.8
25.885	83018.8
25.890	83013.8
25.895	83018.8
25.900	83010.8
25.905	83018.8
25.910	83011.8
25.915	82998.8
25.920	82979.8
25.925	82987.8
25.930	83023.8
25.935	83017.8
25.940	83011.8
25.945	83018.8
25.950	83011.8
25.955	83013.8
25.960	83015.8
25.965	83017.8
25.970	83021.8
25.975	83025.8
25.980	83022.8
25.985	83003.8
25.990	82990.8
25.995	83005.8
26.000	83020.8
26.005	83020.8
26.010	83026.8
26.015	83021.8
26.020	83023.8
26.025	83021.8
26.030	83022.8
26.035	83021.8
26.040	83020.8
26.045	83020.8
26.050	82999.8
26.055	82989.8
26.060	82992.8
26.065	83019.8
26.070	83016.8
26.075	83019.8
26.080	83005.8
26.085	83011.8
26.090	83004.8
26.095	83005.8
26.100	83013.8
26.105	83027.8
26.110	83031.8
26.115	83011.8
26.120	82993.8
26.125	82993.8
26.130	83023.8
26.135	83027.8
26.140	83019.8
26.145	83028.8
26.150	83023.8
26.155	83032.8
26.160	83017.8
26.165	83018.8
26.170	83022.8
26.175	83020.8
26.180	83009.8
26.185	82991.8
26.190	82984.8
26.195	83009.8
26.200	83015.8
26.205	83013.8
26.210	83015.8
26.215	83011.8
26.220	83000.8
26.225	83009.8
26.230	83015.8
26.235	83018.8
26.240	83018.8
26.245	83026.8
26.250	83001.8
26.255	82985.8
26.260	82993.8
26.265	83014.8
26.270	83013.8
26.275	83019.8
26.280	83023.8
26.285	83024.8
26.290	83021.8
26.295	83024.8
26.300	83016.8
26.305	83022.8
