PK2650 Deflection Data
Z Position (mm)	50.000	W Position (deg)	60.00
Preform ID	Diameter (mm)	Time Stamp	Start Time	Operator	Serial Number
test	18	22-Mar-23 22:58:02	22-Mar-23 23:03:44	[no user]	56941311
Radius (mm)	Deflection
-13.680	0.000041
-13.675	0.000046
-13.670	0.000011
-13.665	0.000027
-13.660	0.000046
-13.655	0.000037
-13.650	0.000012
-13.645	0.000037
-13.640	0.000022
-13.635	0.000032
-13.630	0.000027
-13.625	0.000022
-13.620	0.000022
-13.615	0.000022
-13.610	0.000027
-13.605	0.000037
-13.600	0.000017
-13.595	0.000032
-13.590	0.000022
-13.585	0.000042
-13.580	0.000017
-13.575	0.000022
-13.570	0.000052
-13.565	0.000012
-13.560	0.000007
-13.555	0.000012
-13.550	0.000012
-13.545	-0.000003
-13.540	0.000047
-13.535	0.000037
-13.530	0.000012
-13.525	0.000007
-13.520	0.000027
-13.515	0.000032
-13.510	0.000037
-13.505	0.000017
-13.500	0.000022
-13.495	0.000042
-13.490	0.000022
-13.485	0.000002
-13.480	0.000023
-13.475	0.000028
-13.470	0.000032
-13.465	0.000027
-13.460	0.000037
-13.455	0.000037
-13.450	0.000027
-13.445	0.000008
-13.440	0.000028
-13.435	0.000013
-13.430	0.000047
-13.425	0.000008
-13.420	0.000028
-13.415	-0.000007
-13.410	0.000003
-13.405	0.000023
-13.400	0.000038
-13.395	0.000023
-13.390	-0.000022
-13.385	0.000008
-13.380	0.000033
-13.375	0.000028
-13.370	0.000038
-13.365	0.000013
-13.360	0.000008
-13.355	0.000023
-13.350	0.000033
-13.345	0.000023
-13.340	0.000033
-13.335	0.000008
-13.330	0.000023
-13.325	0.000013
-13.320	0.000013
-13.315	0.000033
-13.310	0.000028
-13.305	0.000003
-13.300	0.000013
-13.295	0.000018
-13.290	0.000003
-13.285	0.000003
-13.280	0.000004
-13.275	0.000028
-13.270	-0.000001
-13.265	-0.000001
-13.260	0.000009
-13.255	0.000014
-13.250	0.000004
-13.245	0.000024
-13.240	0.000024
-13.235	0.000019
-13.230	0.000019
-13.225	0.000009
-13.220	0.000024
-13.215	0.000019
-13.210	0.000024
-13.205	0.000019
-13.200	0.000024
-13.195	0.000024
-13.190	0.000014
-13.185	0.000019
-13.180	0.000009
-13.175	0.000004
-13.170	0.000014
-13.165	0.000014
-13.160	0.000009
-13.155	0.000039
-13.150	-0.000001
-13.145	0.000024
-13.140	0.000014
-13.135	0.000019
-13.130	0.000024
-13.125	0.000009
-13.120	0.000009
-13.115	0.000029
-13.110	-0.000001
-13.105	0.000029
-13.100	0.000014
-13.095	0.000004
-13.090	0.000019
-13.085	0.000014
-13.080	-0.000005
-13.075	-0.000000
-13.070	-0.000000
-13.065	0.000005
-13.060	0.000020
-13.055	-0.000000
-13.050	-0.000005
-13.045	0.000024
-13.040	0.000035
-13.035	0.000010
-13.030	-0.000015
-13.025	-0.000005
-13.020	0.000035
-13.015	-0.000000
-13.010	-0.000005
-13.005	-0.000005
-13.000	0.000005
-12.995	0.000000
-12.990	0.000005
-12.985	-0.000000
-12.980	0.000020
-12.975	0.000025
-12.970	0.000000
-12.965	0.000020
-12.960	0.000040
-12.955	-0.000004
-12.950	-0.000010
-12.945	0.000010
-12.940	0.000025
-12.935	0.000025
-12.930	0.000005
-12.925	0.000015
-12.920	0.000021
-12.915	0.000016
-12.910	-0.000004
-12.905	0.000001
-12.900	0.000011
-12.895	0.000036
-12.890	0.000030
-12.885	-0.000009
-12.880	0.000016
-12.875	0.000011
-12.870	0.000026
-12.865	0.000036
-12.860	0.000016
-12.855	0.000001
-12.850	0.000021
-12.845	0.000016
-12.840	0.000026
-12.835	0.000011
-12.830	0.000011
-12.825	0.000011
-12.820	0.000011
-12.815	0.000006
-12.810	0.000021
-12.805	0.000011
-12.800	-0.000009
-12.795	0.000011
-12.790	0.000016
-12.785	-0.000014
-12.780	-0.000014
-12.775	0.000011
-12.770	-0.000004
-12.765	-0.000004
-12.760	0.000021
-12.755	0.000011
-12.750	-0.000019
-12.745	0.000006
-12.740	-0.000009
-12.735	0.000006
-12.730	0.000006
-12.725	0.000011
-12.720	-0.000003
-12.715	0.000002
-12.710	0.000016
-12.705	0.000007
-12.700	-0.000003
-12.695	0.000012
-12.690	0.000022
-12.685	0.000022
-12.680	0.000022
-12.675	0.000012
-12.670	0.000012
-12.665	0.000007
-12.660	0.000027
-12.655	0.000012
-12.650	0.000002
-12.645	0.000007
-12.640	0.000012
-12.635	0.000022
-12.630	0.000007
-12.625	-0.000003
-12.620	-0.000013
-12.615	0.000017
-12.610	0.000002
-12.605	0.000007
-12.600	0.000007
-12.595	0.000002
-12.590	0.000012
-12.585	0.000002
-12.580	-0.000008
-12.575	0.000017
-12.570	0.000012
-12.565	0.000012
-12.560	-0.000023
-12.555	-0.000008
-12.550	0.000003
-12.545	-0.000012
-12.540	-0.000032
-12.535	-0.000008
-12.530	-0.000007
-12.525	-0.000013
-12.520	-0.000023
-12.515	-0.000003
-12.510	0.000012
-12.505	0.000002
-12.500	0.000007
-12.495	-0.000032
-12.490	-0.000012
-12.485	-0.000027
-12.480	-0.000002
-12.475	-0.000007
-12.470	-0.000007
-12.465	-0.000027
-12.460	-0.000017
-12.455	-0.000027
-12.450	-0.000012
-12.445	0.000008
-12.440	-0.000027
-12.435	-0.000017
-12.430	-0.000012
-12.425	-0.000032
-12.420	-0.000027
-12.415	-0.000007
-12.410	-0.000017
-12.405	-0.000027
-12.400	-0.000022
-12.395	-0.000017
-12.390	-0.000022
-12.385	-0.000017
-12.380	-0.000027
-12.375	-0.000027
-12.370	0.000003
-12.365	-0.000022
-12.360	-0.000036
-12.355	-0.000036
-12.350	-0.000012
-12.345	-0.000017
-12.340	-0.000017
-12.335	-0.000022
-12.330	-0.000021
-12.325	-0.000021
-12.320	-0.000031
-12.315	-0.000016
-12.310	-0.000031
-12.305	-0.000026
-12.300	-0.000016
-12.295	-0.000026
-12.290	-0.000026
-12.285	-0.000006
-12.280	-0.000026
-12.275	-0.000011
-12.270	-0.000021
-12.265	-0.000026
-12.260	-0.000056
-12.255	-0.000031
-12.250	-0.000011
-12.245	-0.000036
-12.240	-0.000016
-12.235	-0.000031
-12.230	-0.000031
-12.225	-0.000041
-12.220	-0.000026
-12.215	-0.000031
-12.210	-0.000016
-12.205	-0.000016
-12.200	-0.000031
-12.195	-0.000031
-12.190	-0.000030
-12.185	-0.000016
-12.180	-0.000011
-12.175	-0.000026
-12.170	-0.000030
-12.165	-0.000025
-12.160	-0.000040
-12.155	-0.000021
-12.150	0.000029
-12.145	-0.000050
-12.140	-0.000045
-12.135	-0.000025
-12.130	-0.000035
-12.125	-0.000025
-12.120	-0.000040
-12.115	-0.000025
-12.110	-0.000035
-12.105	-0.000000
-12.100	-0.000040
-12.095	-0.000025
-12.090	-0.000050
-12.085	-0.000015
-12.080	-0.000015
-12.075	-0.000025
-12.070	-0.000025
-12.065	-0.000030
-12.060	-0.000025
-12.055	-0.000015
-12.050	-0.000035
-12.045	-0.000045
-12.040	-0.000025
-12.035	-0.000030
-12.030	-0.000040
-12.025	-0.000035
-12.020	-0.000020
-12.015	-0.000030
-12.010	-0.000050
-12.005	-0.000040
-12.000	-0.000025
-11.995	-0.000050
-11.990	-0.000030
-11.985	-0.000035
-11.980	-0.000025
-11.975	-0.000045
-11.970	-0.000034
-11.965	-0.000030
-11.960	-0.000045
-11.955	-0.000054
-11.950	-0.000029
-11.945	-0.000039
-11.940	-0.000030
-11.935	-0.000064
-11.930	-0.000054
-11.925	-0.000039
-11.920	-0.000049
-11.915	-0.000049
-11.910	-0.000024
-11.905	-0.000024
-11.900	-0.000054
-11.895	-0.000039
-11.890	-0.000024
-11.885	-0.000039
-11.880	-0.000034
-11.875	-0.000044
-11.870	-0.000029
-11.865	-0.000039
-11.860	-0.000039
-11.855	-0.000024
-11.850	-0.000038
-11.845	-0.000024
-11.840	-0.000014
-11.835	-0.000054
-11.830	-0.000034
-11.825	-0.000029
-11.820	-0.000054
-11.815	-0.000049
-11.810	-0.000038
-11.805	-0.000033
-11.800	-0.000029
-11.795	-0.000034
-11.790	-0.000038
-11.785	-0.000023
-11.780	-0.000029
-11.775	-0.000028
-11.770	-0.000023
-11.765	-0.000028
-11.760	-0.000043
-11.755	-0.000028
-11.750	-0.000003
-11.745	-0.000028
-11.740	-0.000023
-11.735	-0.000028
-11.730	-0.000033
-11.725	-0.000023
-11.720	-0.000038
-11.715	-0.000038
-11.710	-0.000033
-11.705	-0.000018
-11.700	-0.000038
-11.695	-0.000038
-11.690	-0.000033
-11.685	-0.000013
-11.680	-0.000028
-11.675	-0.000043
-11.670	-0.000033
-11.665	-0.000048
-11.660	-0.000038
-11.655	-0.000028
-11.650	-0.000023
-11.645	-0.000013
-11.640	-0.000043
-11.635	-0.000018
-11.630	-0.000042
-11.625	-0.000047
-11.620	-0.000013
-11.615	-0.000033
-11.610	-0.000013
-11.605	-0.000018
-11.600	-0.000028
-11.595	-0.000027
-11.590	-0.000027
-11.585	-0.000032
-11.580	-0.000027
-11.575	-0.000027
-11.570	-0.000012
-11.565	-0.000027
-11.560	-0.000017
-11.555	-0.000037
-11.550	-0.000032
-11.545	-0.000037
-11.540	-0.000022
-11.535	-0.000002
-11.530	-0.000027
-11.525	-0.000017
-11.520	-0.000012
-11.515	-0.000022
-11.510	-0.000037
-11.505	-0.000032
-11.500	-0.000052
-11.495	-0.000037
-11.490	-0.000022
-11.485	-0.000052
-11.480	-0.000022
-11.475	-0.000027
-11.470	-0.000042
-11.465	-0.000022
-11.460	-0.000027
-11.455	-0.000017
-11.450	-0.000037
-11.445	-0.000002
-11.440	-0.000002
-11.435	-0.000027
-11.430	-0.000002
-11.425	-0.000032
-11.420	-0.000002
-11.415	-0.000017
-11.410	-0.000007
-11.405	-0.000012
-11.400	-0.000031
-11.395	-0.000036
-11.390	-0.000017
-11.385	-0.000002
-11.380	-0.000026
-11.375	-0.000016
-11.370	-0.000017
-11.365	-0.000006
-11.360	-0.000016
-11.355	-0.000031
-11.350	-0.000046
-11.345	-0.000016
-11.340	-0.000026
-11.335	-0.000011
-11.330	-0.000016
-11.325	-0.000011
-11.320	-0.000031
-11.315	-0.000021
-11.310	-0.000031
-11.305	-0.000041
-11.300	-0.000036
-11.295	-0.000046
-11.290	-0.000016
-11.285	-0.000031
-11.280	-0.000036
-11.275	-0.000021
-11.270	-0.000036
-11.265	-0.000031
-11.260	-0.000016
-11.255	-0.000041
-11.250	-0.000031
-11.245	-0.000026
-11.240	-0.000031
-11.235	-0.000016
-11.230	-0.000036
-11.225	-0.000021
-11.220	-0.000035
-11.215	-0.000031
-11.210	-0.000031
-11.205	-0.000041
-11.200	-0.000035
-11.195	-0.000025
-11.190	-0.000036
-11.185	-0.000030
-11.180	-0.000020
-11.175	-0.000010
-11.170	-0.000036
-11.165	-0.000016
-11.160	-0.000006
-11.155	-0.000035
-11.150	-0.000026
-11.145	-0.000040
-11.140	-0.000010
-11.135	-0.000005
-11.130	-0.000020
-11.125	-0.000010
-11.120	-0.000010
-11.115	0.000005
-11.110	-0.000020
-11.105	-0.000015
-11.100	-0.000010
-11.095	-0.000005
-11.090	-0.000015
-11.085	0.000020
-11.080	0.000020
-11.075	0.000005
-11.070	-0.000000
-11.065	0.000010
-11.060	0.000010
-11.055	0.000010
-11.050	-0.000010
-11.045	0.000015
-11.040	0.000015
-11.035	0.000015
-11.030	0.000005
-11.025	0.000015
-11.020	0.000005
-11.015	0.000025
-11.010	0.000000
-11.005	0.000010
-11.000	0.000010
-10.995	-0.000010
-10.990	-0.000005
-10.985	-0.000005
-10.980	0.000005
-10.975	-0.000009
-10.970	0.000001
-10.965	-0.000009
-10.960	-0.000019
-10.955	0.000006
-10.950	-0.000029
-10.945	-0.000009
-10.940	-0.000005
-10.935	0.000000
-10.930	-0.000034
-10.925	-0.000014
-10.920	-0.000015
-10.915	-0.000034
-10.910	-0.000039
-10.905	-0.000019
-10.900	-0.000064
-10.895	-0.000049
-10.890	-0.000024
-10.885	-0.000024
-10.880	-0.000024
-10.875	-0.000024
-10.870	-0.000029
-10.865	-0.000029
-10.860	-0.000054
-10.855	-0.000019
-10.850	-0.000024
-10.845	-0.000044
-10.840	-0.000024
-10.835	-0.000044
-10.830	-0.000034
-10.825	-0.000044
-10.820	-0.000044
-10.815	-0.000034
-10.810	-0.000039
-10.805	-0.000054
-10.800	-0.000039
-10.795	-0.000019
-10.790	-0.000044
-10.785	-0.000034
-10.780	-0.000029
-10.775	-0.000054
-10.770	-0.000044
-10.765	-0.000034
-10.760	-0.000029
-10.755	-0.000034
-10.750	-0.000009
-10.745	-0.000039
-10.740	-0.000014
-10.735	-0.000019
-10.730	-0.000048
-10.725	-0.000014
-10.720	-0.000023
-10.715	-0.000023
-10.710	-0.000014
-10.705	-0.000028
-10.700	-0.000023
-10.695	-0.000028
-10.690	-0.000038
-10.685	-0.000038
-10.680	-0.000023
-10.675	-0.000023
-10.670	-0.000038
-10.665	-0.000043
-10.660	-0.000023
-10.655	-0.000008
-10.650	-0.000053
-10.645	-0.000048
-10.640	-0.000018
-10.635	-0.000028
-10.630	-0.000048
-10.625	-0.000053
-10.620	-0.000038
-10.615	-0.000043
-10.610	-0.000048
-10.605	-0.000043
-10.600	-0.000018
-10.595	-0.000028
-10.590	-0.000033
-10.585	-0.000048
-10.580	-0.000048
-10.575	-0.000058
-10.570	-0.000038
-10.565	-0.000043
-10.560	-0.000033
-10.555	-0.000033
-10.550	-0.000053
-10.545	-0.000053
-10.540	-0.000037
-10.535	-0.000047
-10.530	-0.000038
-10.525	-0.000033
-10.520	-0.000037
-10.515	-0.000027
-10.510	-0.000067
-10.505	-0.000038
-10.500	-0.000032
-10.495	-0.000042
-10.490	-0.000063
-10.485	-0.000058
-10.480	-0.000037
-10.475	-0.000042
-10.470	-0.000042
-10.465	-0.000037
-10.460	-0.000027
-10.455	-0.000037
-10.450	-0.000027
-10.445	-0.000022
-10.440	-0.000062
-10.435	-0.000037
-10.430	-0.000037
-10.425	-0.000042
-10.420	-0.000052
-10.415	-0.000012
-10.410	-0.000042
-10.405	-0.000052
-10.400	-0.000062
-10.395	-0.000037
-10.390	-0.000032
-10.385	-0.000027
-10.380	-0.000017
-10.375	-0.000037
-10.370	-0.000042
-10.365	-0.000027
-10.360	-0.000037
-10.355	-0.000022
-10.350	-0.000057
-10.345	-0.000032
-10.340	-0.000027
-10.335	-0.000031
-10.330	-0.000042
-10.325	-0.000041
-10.320	-0.000046
-10.315	-0.000031
-10.310	-0.000061
-10.305	-0.000056
-10.300	-0.000031
-10.295	-0.000026
-10.290	-0.000026
-10.285	-0.000041
-10.280	-0.000031
-10.275	-0.000056
-10.270	-0.000051
-10.265	-0.000056
-10.260	-0.000016
-10.255	-0.000046
-10.250	-0.000066
-10.245	-0.000071
-10.240	-0.000036
-10.235	-0.000021
-10.230	-0.000041
-10.225	-0.000046
-10.220	-0.000036
-10.215	-0.000036
-10.210	-0.000036
-10.205	-0.000041
-10.200	-0.000026
-10.195	-0.000061
-10.190	-0.000021
-10.185	-0.000031
-10.180	-0.000041
-10.175	-0.000055
-10.170	-0.000036
-10.165	-0.000036
-10.160	-0.000026
-10.155	-0.000050
-10.150	-0.000026
-10.145	-0.000055
-10.140	-0.000055
-10.135	-0.000040
-10.130	-0.000050
-10.125	-0.000055
-10.120	-0.000025
-10.115	-0.000035
-10.110	-0.000025
-10.105	-0.000040
-10.100	-0.000040
-10.095	-0.000035
-10.090	-0.000020
-10.085	-0.000020
-10.080	-0.000025
-10.075	-0.000055
-10.070	-0.000050
-10.065	-0.000025
-10.060	-0.000060
-10.055	-0.000050
-10.050	-0.000045
-10.045	-0.000025
-10.040	-0.000060
-10.035	-0.000020
-10.030	-0.000035
-10.025	-0.000030
-10.020	-0.000025
-10.015	-0.000025
-10.010	-0.000040
-10.005	-0.000035
-10.000	-0.000044
-9.995	-0.000035
-9.990	-0.000030
-9.985	-0.000020
-9.980	-0.000020
-9.975	-0.000010
-9.970	-0.000050
-9.965	-0.000025
-9.960	-0.000034
-9.955	-0.000024
-9.950	-0.000030
-9.945	-0.000029
-9.940	-0.000049
-9.935	-0.000014
-9.930	-0.000044
-9.925	-0.000044
-9.920	-0.000029
-9.915	-0.000029
-9.910	-0.000019
-9.905	-0.000024
-9.900	-0.000029
-9.895	-0.000024
-9.890	-0.000054
-9.885	-0.000044
-9.880	-0.000004
-9.875	-0.000009
-9.870	0.000001
-9.865	-0.000030
-9.860	0.000375
-9.855	-0.000356
-9.850	-0.000154
-9.845	-0.000054
-9.840	-0.000029
-9.835	-0.000034
-9.830	-0.000049
-9.825	-0.000039
-9.820	-0.000029
-9.815	-0.000029
-9.810	-0.000039
-9.805	-0.000044
-9.800	-0.000058
-9.795	-0.000034
-9.790	-0.000029
-9.785	-0.000034
-9.780	-0.000048
-9.775	-0.000053
-9.770	-0.000023
-9.765	-0.000038
-9.760	-0.000048
-9.755	-0.000043
-9.750	-0.000029
-9.745	-0.000023
-9.740	-0.000043
-9.735	-0.000048
-9.730	-0.000033
-9.725	0.000002
-9.720	-0.000033
-9.715	-0.000038
-9.710	-0.000023
-9.705	-0.000033
-9.700	-0.000038
-9.695	-0.000048
-9.690	-0.000033
-9.685	-0.000048
-9.680	-0.000028
-9.675	-0.000008
-9.670	-0.000028
-9.665	-0.000048
-9.660	-0.000033
-9.655	-0.000043
-9.650	-0.000063
-9.645	-0.000028
-9.640	-0.000023
-9.635	-0.000023
-9.630	-0.000033
-9.625	-0.000023
-9.620	-0.000033
-9.615	-0.000023
-9.610	-0.000043
-9.605	-0.000048
-9.600	-0.000013
-9.595	-0.000023
-9.590	-0.000053
-9.585	-0.000033
-9.580	-0.000038
-9.575	-0.000038
-9.570	-0.000063
-9.565	-0.000053
-9.560	-0.000042
-9.555	-0.000042
-9.550	-0.000048
-9.545	-0.000063
-9.540	-0.000018
-9.535	-0.000037
-9.530	-0.000073
-9.525	-0.000038
-9.520	-0.000012
-9.515	-0.000022
-9.510	-0.000032
-9.505	-0.000037
-9.500	-0.000017
-9.495	-0.000032
-9.490	-0.000023
-9.485	-0.000047
-9.480	-0.000022
-9.475	-0.000032
-9.470	-0.000037
-9.465	-0.000022
-9.460	-0.000032
-9.455	-0.000052
-9.450	-0.000032
-9.445	-0.000037
-9.440	-0.000042
-9.435	-0.000017
-9.430	-0.000027
-9.425	-0.000032
-9.420	-0.000007
-9.415	-0.000027
-9.410	-0.000062
-9.405	-0.000037
-9.400	-0.000017
-9.395	-0.000027
-9.390	-0.000032
-9.385	-0.000032
-9.380	-0.000022
-9.375	-0.000032
-9.370	-0.000032
-9.365	-0.000022
-9.360	-0.000022
-9.355	-0.000022
-9.350	-0.000037
-9.345	-0.000012
-9.340	-0.000026
-9.335	0.000008
-9.330	-0.000017
-9.325	-0.000001
-9.320	-0.000016
-9.315	-0.000011
-9.310	-0.000026
-9.305	-0.000011
-9.300	-0.000011
-9.295	-0.000006
-9.290	-0.000051
-9.285	-0.000026
-9.280	-0.000026
-9.275	-0.000026
-9.270	-0.000006
-9.265	-0.000031
-9.260	-0.000021
-9.255	-0.000026
-9.250	-0.000011
-9.245	0.000019
-9.240	-0.000016
-9.235	-0.000021
-9.230	-0.000011
-9.225	-0.000011
-9.220	-0.000016
-9.215	-0.000021
-9.210	-0.000011
-9.205	-0.000001
-9.200	-0.000026
-9.195	-0.000021
-9.190	-0.000016
-9.185	-0.000026
-9.180	-0.000031
-9.175	-0.000036
-9.170	-0.000021
-9.165	-0.000031
-9.160	-0.000031
-9.155	-0.000031
-9.150	-0.000006
-9.145	-0.000026
-9.140	-0.000026
-9.135	-0.000016
-9.130	-0.000021
-9.125	-0.000006
-9.120	-0.000021
-9.115	-0.000036
-9.110	-0.000016
-9.105	-0.000021
-9.100	-0.000046
-9.095	-0.000021
-9.090	-0.000016
-9.085	-0.000016
-9.080	-0.000006
-9.075	-0.000031
-9.070	-0.000015
-9.065	-0.000006
-9.060	-0.000011
-9.055	-0.000006
-9.050	-0.000025
-9.045	-0.000006
-9.040	-0.000036
-9.035	-0.000020
-9.030	-0.000005
-9.025	-0.000020
-9.020	-0.000000
-9.015	-0.000020
-9.010	-0.000010
-9.005	-0.000005
-9.000	-0.000020
-8.995	-0.000015
-8.990	-0.000000
-8.985	-0.000015
-8.980	-0.000015
-8.975	-0.000030
-8.970	-0.000010
-8.965	-0.000000
-8.960	-0.000015
-8.955	-0.000020
-8.950	-0.000015
-8.945	0.000000
-8.940	-0.000020
-8.935	-0.000015
-8.930	-0.000010
-8.925	-0.000030
-8.920	-0.000025
-8.915	-0.000025
-8.910	0.000000
-8.905	-0.000025
-8.900	-0.000019
-8.895	-0.000024
-8.890	-0.000010
-8.885	0.000000
-8.880	-0.000019
-8.875	-0.000014
-8.870	-0.000034
-8.865	0.000001
-8.860	-0.000029
-8.855	-0.000019
-8.850	-0.000034
-8.845	-0.000019
-8.840	-0.000049
-8.835	-0.000014
-8.830	-0.000009
-8.825	-0.000024
-8.820	-0.000014
-8.815	-0.000028
-8.810	0.000006
-8.805	-0.000028
-8.800	-0.000048
-8.795	-0.000013
-8.790	-0.000028
-8.785	-0.000043
-8.780	-0.000038
-8.775	-0.000038
-8.770	-0.000053
-8.765	-0.000053
-8.760	-0.000018
-8.755	-0.000058
-8.750	-0.000053
-8.745	-0.000078
-8.740	-0.000083
-8.735	-0.000078
-8.730	-0.000093
-8.725	-0.000098
-8.720	-0.000103
-8.715	-0.000137
-8.710	-0.000167
-8.705	-0.000217
-8.700	-0.000435
-8.695	-0.001101
-8.690	-0.003549
-8.685	-0.008961
-8.680	-0.017373
-8.675	-0.027855
-8.670	-0.040816
-8.665	-0.056334
-8.660	-0.075151
-8.655	-0.090154
-8.650	-0.098825
-8.645	-0.103274
-8.640	-0.101836
-8.635	-0.092624
-8.630	-0.077294
-8.625	-0.067247
-8.620	-0.061096
-8.615	-0.056356
-8.610	-0.052721
-8.605	-0.049977
-8.600	-0.047738
-8.595	-0.045828
-8.590	-0.044458
-8.585	-0.043017
-8.580	-0.041347
-8.575	-0.039316
-8.570	-0.038279
-8.565	-0.037521
-8.560	-0.036309
-8.555	-0.035318
-8.550	-0.034434
-8.545	-0.033577
-8.540	-0.032787
-8.535	-0.032081
-8.530	-0.031366
-8.525	-0.030721
-8.520	-0.030130
-8.515	-0.029591
-8.510	-0.029036
-8.505	-0.028558
-8.500	-0.028083
-8.495	-0.027644
-8.490	-0.027187
-8.485	-0.026761
-8.480	-0.026356
-8.475	-0.025936
-8.470	-0.025582
-8.465	-0.025292
-8.460	-0.024978
-8.455	-0.024678
-8.450	-0.024389
-8.445	-0.024099
-8.440	-0.023799
-8.435	-0.023568
-8.430	-0.023245
-8.425	-0.023047
-8.420	-0.022799
-8.415	-0.022605
-8.410	-0.022344
-8.405	-0.022131
-8.400	-0.021889
-8.395	-0.021682
-8.390	-0.021456
-8.385	-0.021288
-8.380	-0.021086
-8.375	-0.020874
-8.370	-0.020717
-8.365	-0.020523
-8.360	-0.020376
-8.355	-0.020191
-8.350	-0.020025
-8.345	-0.019835
-8.340	-0.019704
-8.335	-0.019551
-8.330	-0.019372
-8.325	-0.019249
-8.320	-0.019077
-8.315	-0.018976
-8.310	-0.018803
-8.305	-0.018675
-8.300	-0.018557
-8.295	-0.018409
-8.290	-0.018277
-8.285	-0.018145
-8.280	-0.018050
-8.275	-0.017924
-8.270	-0.017805
-8.265	-0.017673
-8.260	-0.017569
-8.255	-0.017468
-8.250	-0.017331
-8.245	-0.017254
-8.240	-0.017117
-8.235	-0.017019
-8.230	-0.016924
-8.225	-0.016805
-8.220	-0.016722
-8.215	-0.016642
-8.210	-0.016517
-8.205	-0.016442
-8.200	-0.016331
-8.195	-0.016258
-8.190	-0.016150
-8.185	-0.016041
-8.180	-0.015961
-8.175	-0.015880
-8.170	-0.015770
-8.165	-0.015698
-8.160	-0.015617
-8.155	-0.015521
-8.150	-0.015495
-8.145	-0.015377
-8.140	-0.015282
-8.135	-0.015231
-8.130	-0.015132
-8.125	-0.015057
-8.120	-0.014995
-8.115	-0.014887
-8.110	-0.014842
-8.105	-0.014739
-8.100	-0.014669
-8.095	-0.014599
-8.090	-0.014528
-8.085	-0.014455
-8.080	-0.014389
-8.075	-0.014314
-8.070	-0.014246
-8.065	-0.014167
-8.060	-0.014112
-8.055	-0.014027
-8.050	-0.013995
-8.045	-0.013916
-8.040	-0.013862
-8.035	-0.013781
-8.030	-0.013707
-8.025	-0.013665
-8.020	-0.013602
-8.015	-0.013546
-8.010	-0.013511
-8.005	-0.013426
-8.000	-0.013350
-7.995	-0.013334
-7.990	-0.013271
-7.985	-0.013200
-7.980	-0.013135
-7.975	-0.013092
-7.970	-0.013020
-7.965	-0.012997
-7.960	-0.012955
-7.955	-0.012919
-7.950	-0.012904
-7.945	-0.012872
-7.940	-0.012845
-7.935	-0.012794
-7.930	-0.012796
-7.925	-0.012725
-7.920	-0.012660
-7.915	-0.012611
-7.910	-0.012570
-7.905	-0.012487
-7.900	-0.012448
-7.895	-0.012382
-7.890	-0.012334
-7.885	-0.012260
-7.880	-0.012228
-7.875	-0.012180
-7.870	-0.012105
-7.865	-0.012063
-7.860	-0.012021
-7.855	-0.011987
-7.850	-0.011920
-7.845	-0.011888
-7.840	-0.011820
-7.835	-0.011798
-7.830	-0.011778
-7.825	-0.011712
-7.820	-0.011665
-7.815	-0.011645
-7.810	-0.011584
-7.805	-0.011544
-7.800	-0.011468
-7.795	-0.011474
-7.790	-0.011424
-7.785	-0.011383
-7.780	-0.011337
-7.775	-0.011301
-7.770	-0.011266
-7.765	-0.011218
-7.760	-0.011164
-7.755	-0.011147
-7.750	-0.011099
-7.745	-0.011060
-7.740	-0.011049
-7.735	-0.011020
-7.730	-0.010962
-7.725	-0.010943
-7.720	-0.010892
-7.715	-0.010873
-7.710	-0.010821
-7.705	-0.010783
-7.700	-0.010739
-7.695	-0.010735
-7.690	-0.010708
-7.685	-0.010639
-7.680	-0.010619
-7.675	-0.010597
-7.670	-0.010562
-7.665	-0.010501
-7.660	-0.010485
-7.655	-0.010442
-7.650	-0.010441
-7.645	-0.010392
-7.640	-0.010360
-7.635	-0.010311
-7.630	-0.010286
-7.625	-0.010261
-7.620	-0.010236
-7.615	-0.010216
-7.610	-0.010184
-7.605	-0.010126
-7.600	-0.010113
-7.595	-0.010074
-7.590	-0.010074
-7.585	-0.010030
-7.580	-0.010008
-7.575	-0.009949
-7.570	-0.009946
-7.565	-0.009947
-7.560	-0.009895
-7.555	-0.009849
-7.550	-0.009817
-7.545	-0.009817
-7.540	-0.009767
-7.535	-0.009760
-7.530	-0.009719
-7.525	-0.009685
-7.520	-0.009671
-7.515	-0.009657
-7.510	-0.009589
-7.505	-0.009591
-7.500	-0.009554
-7.495	-0.009534
-7.490	-0.009517
-7.485	-0.009469
-7.480	-0.009476
-7.475	-0.009448
-7.470	-0.009396
-7.465	-0.009370
-7.460	-0.009341
-7.455	-0.009347
-7.450	-0.009283
-7.445	-0.009274
-7.440	-0.009250
-7.435	-0.009241
-7.430	-0.009226
-7.425	-0.009186
-7.420	-0.009170
-7.415	-0.009129
-7.410	-0.009129
-7.405	-0.009104
-7.400	-0.009077
-7.395	-0.009048
-7.390	-0.009024
-7.385	-0.009004
-7.380	-0.008969
-7.375	-0.008966
-7.370	-0.008915
-7.365	-0.008927
-7.360	-0.008881
-7.355	-0.008856
-7.350	-0.008827
-7.345	-0.008809
-7.340	-0.008786
-7.335	-0.008781
-7.330	-0.008738
-7.325	-0.008711
-7.320	-0.008695
-7.315	-0.008705
-7.310	-0.008659
-7.305	-0.008632
-7.300	-0.008597
-7.295	-0.008605
-7.290	-0.008570
-7.285	-0.008579
-7.280	-0.008522
-7.275	-0.008531
-7.270	-0.008507
-7.265	-0.008466
-7.260	-0.008455
-7.255	-0.008415
-7.250	-0.008440
-7.245	-0.008418
-7.240	-0.008379
-7.235	-0.008363
-7.230	-0.008353
-7.225	-0.008311
-7.220	-0.008309
-7.215	-0.008317
-7.210	-0.008287
-7.205	-0.008253
-7.200	-0.008234
-7.195	-0.008224
-7.190	-0.008187
-7.185	-0.008187
-7.180	-0.008146
-7.175	-0.008143
-7.170	-0.008123
-7.165	-0.008099
-7.160	-0.008112
-7.155	-0.008073
-7.150	-0.008054
-7.145	-0.008025
-7.140	-0.008021
-7.135	-0.007988
-7.130	-0.007975
-7.125	-0.007966
-7.120	-0.007940
-7.115	-0.007915
-7.110	-0.007923
-7.105	-0.007905
-7.100	-0.007890
-7.095	-0.007868
-7.090	-0.007850
-7.085	-0.007835
-7.080	-0.007834
-7.075	-0.007803
-7.070	-0.007794
-7.065	-0.007763
-7.060	-0.007756
-7.055	-0.007737
-7.050	-0.007730
-7.045	-0.007720
-7.040	-0.007707
-7.035	-0.007685
-7.030	-0.007663
-7.025	-0.007642
-7.020	-0.007654
-7.015	-0.007610
-7.010	-0.007568
-7.005	-0.007580
-7.000	-0.007547
-6.995	-0.007534
-6.990	-0.007520
-6.985	-0.007520
-6.980	-0.007483
-6.975	-0.007480
-6.970	-0.007464
-6.965	-0.007465
-6.960	-0.007446
-6.955	-0.007432
-6.950	-0.007403
-6.945	-0.007408
-6.940	-0.007394
-6.935	-0.007369
-6.930	-0.007343
-6.925	-0.007336
-6.920	-0.007312
-6.915	-0.007291
-6.910	-0.007305
-6.905	-0.007290
-6.900	-0.007270
-6.895	-0.007259
-6.890	-0.007216
-6.885	-0.007194
-6.880	-0.007195
-6.875	-0.007195
-6.870	-0.007201
-6.865	-0.007152
-6.860	-0.007160
-6.855	-0.007131
-6.850	-0.007123
-6.845	-0.007113
-6.840	-0.007110
-6.835	-0.007081
-6.830	-0.007070
-6.825	-0.007055
-6.820	-0.007032
-6.815	-0.007036
-6.810	-0.006999
-6.805	-0.007007
-6.800	-0.006979
-6.795	-0.006971
-6.790	-0.006946
-6.785	-0.006934
-6.780	-0.006928
-6.775	-0.006929
-6.770	-0.006918
-6.765	-0.006889
-6.760	-0.006881
-6.755	-0.006855
-6.750	-0.006849
-6.745	-0.006832
-6.740	-0.006821
-6.735	-0.006821
-6.730	-0.006793
-6.725	-0.006779
-6.720	-0.006752
-6.715	-0.006763
-6.710	-0.006752
-6.705	-0.006751
-6.700	-0.006716
-6.695	-0.006710
-6.690	-0.006705
-6.685	-0.006667
-6.680	-0.006650
-6.675	-0.006665
-6.670	-0.006636
-6.665	-0.006636
-6.660	-0.006631
-6.655	-0.006584
-6.650	-0.006593
-6.645	-0.006600
-6.640	-0.006571
-6.635	-0.006568
-6.630	-0.006549
-6.625	-0.006530
-6.620	-0.006524
-6.615	-0.006516
-6.610	-0.006496
-6.605	-0.006501
-6.600	-0.006486
-6.595	-0.006469
-6.590	-0.006464
-6.585	-0.006439
-6.580	-0.006444
-6.575	-0.006418
-6.570	-0.006415
-6.565	-0.006422
-6.560	-0.006388
-6.555	-0.006385
-6.550	-0.006382
-6.545	-0.006367
-6.540	-0.006344
-6.535	-0.006330
-6.530	-0.006335
-6.525	-0.006371
-6.520	-0.006311
-6.515	-0.006306
-6.510	-0.006293
-6.505	-0.006283
-6.500	-0.006265
-6.495	-0.006263
-6.490	-0.006272
-6.485	-0.006249
-6.480	-0.006245
-6.475	-0.006242
-6.470	-0.006194
-6.465	-0.006204
-6.460	-0.006195
-6.455	-0.006158
-6.450	-0.006176
-6.445	-0.006154
-6.440	-0.006141
-6.435	-0.006127
-6.430	-0.006115
-6.425	-0.006116
-6.420	-0.006109
-6.415	-0.006095
-6.410	-0.006082
-6.405	-0.006083
-6.400	-0.006079
-6.395	-0.006056
-6.390	-0.006021
-6.385	-0.006018
-6.380	-0.006012
-6.375	-0.006028
-6.370	-0.006000
-6.365	-0.006013
-6.360	-0.005998
-6.355	-0.005979
-6.350	-0.005957
-6.345	-0.005959
-6.340	-0.005937
-6.335	-0.005926
-6.330	-0.005945
-6.325	-0.005919
-6.320	-0.005903
-6.315	-0.005884
-6.310	-0.005894
-6.305	-0.005897
-6.300	-0.005892
-6.295	-0.005849
-6.290	-0.005842
-6.285	-0.005851
-6.280	-0.005820
-6.275	-0.005794
-6.270	-0.005822
-6.265	-0.005810
-6.260	-0.005764
-6.255	-0.005756
-6.250	-0.005792
-6.245	-0.005770
-6.240	-0.005763
-6.235	-0.005751
-6.230	-0.005726
-6.225	-0.005710
-6.220	-0.005710
-6.215	-0.005686
-6.210	-0.005688
-6.205	-0.005702
-6.200	-0.005685
-6.195	-0.005663
-6.190	-0.005651
-6.185	-0.005645
-6.180	-0.005652
-6.175	-0.005637
-6.170	-0.005630
-6.165	-0.005626
-6.160	-0.005629
-6.155	-0.005603
-6.150	-0.005582
-6.145	-0.005563
-6.140	-0.005540
-6.135	-0.005564
-6.130	-0.005538
-6.125	-0.005563
-6.120	-0.005530
-6.115	-0.005525
-6.110	-0.005497
-6.105	-0.005501
-6.100	-0.005491
-6.095	-0.005472
-6.090	-0.005491
-6.085	-0.005473
-6.080	-0.005452
-6.075	-0.005457
-6.070	-0.005441
-6.065	-0.005419
-6.060	-0.005424
-6.055	-0.005404
-6.050	-0.005402
-6.045	-0.005387
-6.040	-0.005384
-6.035	-0.005365
-6.030	-0.005348
-6.025	-0.005337
-6.020	-0.005323
-6.015	-0.005331
-6.010	-0.005337
-6.005	-0.005337
-6.000	-0.005331
-5.995	-0.005291
-5.990	-0.005282
-5.985	-0.005271
-5.980	-0.005262
-5.975	-0.005295
-5.970	-0.005286
-5.965	-0.005270
-5.960	-0.005255
-5.955	-0.005236
-5.950	-0.005230
-5.945	-0.005221
-5.940	-0.005187
-5.935	-0.005206
-5.930	-0.005211
-5.925	-0.005201
-5.920	-0.005187
-5.915	-0.005181
-5.910	-0.005155
-5.905	-0.005168
-5.900	-0.005162
-5.895	-0.005160
-5.890	-0.005177
-5.885	-0.005133
-5.880	-0.005138
-5.875	-0.005156
-5.870	-0.005090
-5.865	-0.005099
-5.860	-0.005094
-5.855	-0.005074
-5.850	-0.005090
-5.845	-0.005087
-5.840	-0.005073
-5.835	-0.005079
-5.830	-0.005038
-5.825	-0.005032
-5.820	-0.005042
-5.815	-0.005019
-5.810	-0.005014
-5.805	-0.005026
-5.800	-0.005022
-5.795	-0.005000
-5.790	-0.004993
-5.785	-0.004980
-5.780	-0.004989
-5.775	-0.004969
-5.770	-0.004956
-5.765	-0.004948
-5.760	-0.004944
-5.755	-0.004948
-5.750	-0.004949
-5.745	-0.004944
-5.740	-0.004939
-5.735	-0.004921
-5.730	-0.004889
-5.725	-0.004890
-5.720	-0.004890
-5.715	-0.004868
-5.710	-0.004908
-5.705	-0.004850
-5.700	-0.004876
-5.695	-0.004858
-5.690	-0.004838
-5.685	-0.004832
-5.680	-0.004830
-5.675	-0.004818
-5.670	-0.004824
-5.665	-0.004830
-5.660	-0.004820
-5.655	-0.004815
-5.650	-0.004803
-5.645	-0.004788
-5.640	-0.004770
-5.635	-0.004771
-5.630	-0.004776
-5.625	-0.004766
-5.620	-0.004754
-5.615	-0.004731
-5.610	-0.004750
-5.605	-0.004751
-5.600	-0.004711
-5.595	-0.004721
-5.590	-0.004692
-5.585	-0.004692
-5.580	-0.004683
-5.575	-0.004673
-5.570	-0.004686
-5.565	-0.004688
-5.560	-0.004661
-5.555	-0.004672
-5.550	-0.004653
-5.545	-0.004628
-5.540	-0.004629
-5.535	-0.004609
-5.530	-0.004639
-5.525	-0.004630
-5.520	-0.004599
-5.515	-0.004598
-5.510	-0.004587
-5.505	-0.004590
-5.500	-0.004595
-5.495	-0.004562
-5.490	-0.004573
-5.485	-0.004545
-5.480	-0.004536
-5.475	-0.004550
-5.470	-0.004536
-5.465	-0.004548
-5.460	-0.004517
-5.455	-0.004528
-5.450	-0.004493
-5.445	-0.004512
-5.440	-0.004503
-5.435	-0.004490
-5.430	-0.004491
-5.425	-0.004493
-5.420	-0.004478
-5.415	-0.004473
-5.410	-0.004492
-5.405	-0.004468
-5.400	-0.004459
-5.395	-0.004456
-5.390	-0.004402
-5.385	-0.004421
-5.380	-0.004421
-5.375	-0.004405
-5.370	-0.004386
-5.365	-0.004383
-5.360	-0.004412
-5.355	-0.004396
-5.350	-0.004371
-5.345	-0.004377
-5.340	-0.004374
-5.335	-0.004346
-5.330	-0.004350
-5.325	-0.004356
-5.320	-0.004349
-5.315	-0.004337
-5.310	-0.004340
-5.305	-0.004339
-5.300	-0.004315
-5.295	-0.004315
-5.290	-0.004290
-5.285	-0.004294
-5.280	-0.004276
-5.275	-0.004259
-5.270	-0.004271
-5.265	-0.004278
-5.260	-0.004246
-5.255	-0.004278
-5.250	-0.004266
-5.245	-0.004256
-5.240	-0.004232
-5.235	-0.004254
-5.230	-0.004234
-5.225	-0.004214
-5.220	-0.004214
-5.215	-0.004200
-5.210	-0.004211
-5.205	-0.004202
-5.200	-0.004202
-5.195	-0.004222
-5.190	-0.004200
-5.185	-0.004165
-5.180	-0.004176
-5.175	-0.004168
-5.170	-0.004145
-5.165	-0.004146
-5.160	-0.004146
-5.155	-0.004149
-5.150	-0.004139
-5.145	-0.004154
-5.140	-0.004148
-5.135	-0.004094
-5.130	-0.004114
-5.125	-0.004089
-5.120	-0.004105
-5.115	-0.004093
-5.110	-0.004071
-5.105	-0.004084
-5.100	-0.004055
-5.095	-0.004073
-5.090	-0.004076
-5.085	-0.004046
-5.080	-0.004056
-5.075	-0.004050
-5.070	-0.004040
-5.065	-0.004036
-5.060	-0.004021
-5.055	-0.004010
-5.050	-0.004013
-5.045	-0.004014
-5.040	-0.004025
-5.035	-0.004006
-5.030	-0.004000
-5.025	-0.004005
-5.020	-0.003982
-5.015	-0.003964
-5.010	-0.003950
-5.005	-0.003961
-5.000	-0.003941
-4.995	-0.003943
-4.990	-0.003956
-4.985	-0.003932
-4.980	-0.003941
-4.975	-0.003915
-4.970	-0.003894
-4.965	-0.003903
-4.960	-0.003890
-4.955	-0.003864
-4.950	-0.003909
-4.945	-0.003896
-4.940	-0.003870
-4.935	-0.003880
-4.930	-0.003896
-4.925	-0.003861
-4.920	-0.003863
-4.915	-0.003857
-4.910	-0.003837
-4.905	-0.003811
-4.900	-0.003837
-4.895	-0.003821
-4.890	-0.003808
-4.885	-0.003809
-4.880	-0.003813
-4.875	-0.003785
-4.870	-0.003789
-4.865	-0.003789
-4.860	-0.003799
-4.855	-0.003768
-4.850	-0.003765
-4.845	-0.003769
-4.840	-0.003779
-4.835	-0.003742
-4.830	-0.003728
-4.825	-0.003743
-4.820	-0.003743
-4.815	-0.003731
-4.810	-0.003719
-4.805	-0.003744
-4.800	-0.003725
-4.795	-0.003678
-4.790	-0.003688
-4.785	-0.003683
-4.780	-0.003668
-4.775	-0.003685
-4.770	-0.003660
-4.765	-0.003671
-4.760	-0.003660
-4.755	-0.003663
-4.750	-0.003645
-4.745	-0.003641
-4.740	-0.003627
-4.735	-0.003639
-4.730	-0.003626
-4.725	-0.003607
-4.720	-0.003608
-4.715	-0.003597
-4.710	-0.003615
-4.705	-0.003615
-4.700	-0.003593
-4.695	-0.003596
-4.690	-0.003603
-4.685	-0.003598
-4.680	-0.003593
-4.675	-0.003569
-4.670	-0.003562
-4.665	-0.003547
-4.660	-0.003557
-4.655	-0.003520
-4.650	-0.003531
-4.645	-0.003538
-4.640	-0.003514
-4.635	-0.003525
-4.630	-0.003548
-4.625	-0.003528
-4.620	-0.003527
-4.615	-0.003523
-4.610	-0.003497
-4.605	-0.003481
-4.600	-0.003492
-4.595	-0.003489
-4.590	-0.003484
-4.585	-0.003465
-4.580	-0.003473
-4.575	-0.003475
-4.570	-0.003483
-4.565	-0.003469
-4.560	-0.003464
-4.555	-0.003468
-4.550	-0.003434
-4.545	-0.003433
-4.540	-0.003416
-4.535	-0.003421
-4.530	-0.003394
-4.525	-0.003437
-4.520	-0.003397
-4.515	-0.003409
-4.510	-0.003401
-4.505	-0.003400
-4.500	-0.003430
-4.495	-0.003393
-4.490	-0.003374
-4.485	-0.003375
-4.480	-0.003378
-4.475	-0.003356
-4.470	-0.003357
-4.465	-0.003330
-4.460	-0.003377
-4.455	-0.003336
-4.450	-0.003370
-4.445	-0.003334
-4.440	-0.003320
-4.435	-0.003351
-4.430	-0.003330
-4.425	-0.003342
-4.420	-0.003311
-4.415	-0.003332
-4.410	-0.003302
-4.405	-0.003309
-4.400	-0.003317
-4.395	-0.003291
-4.390	-0.003284
-4.385	-0.003284
-4.380	-0.003278
-4.375	-0.003285
-4.370	-0.003290
-4.365	-0.003274
-4.360	-0.003268
-4.355	-0.003283
-4.350	-0.003230
-4.345	-0.003254
-4.340	-0.003223
-4.335	-0.003242
-4.330	-0.003196
-4.325	-0.003207
-4.320	-0.003234
-4.315	-0.003228
-4.310	-0.003210
-4.305	-0.003210
-4.300	-0.003202
-4.295	-0.003193
-4.290	-0.003206
-4.285	-0.003202
-4.280	-0.003192
-4.275	-0.003189
-4.270	-0.003206
-4.265	-0.003184
-4.260	-0.003149
-4.255	-0.003151
-4.250	-0.003153
-4.245	-0.003154
-4.240	-0.003149
-4.235	-0.003145
-4.230	-0.003153
-4.225	-0.003153
-4.220	-0.003132
-4.215	-0.003102
-4.210	-0.003106
-4.205	-0.003141
-4.200	-0.003104
-4.195	-0.003122
-4.190	-0.003090
-4.185	-0.003081
-4.180	-0.003077
-4.175	-0.003085
-4.170	-0.003093
-4.165	-0.003054
-4.160	-0.003069
-4.155	-0.003059
-4.150	-0.003056
-4.145	-0.003058
-4.140	-0.003052
-4.135	-0.003064
-4.130	-0.003046
-4.125	-0.003027
-4.120	-0.003048
-4.115	-0.003031
-4.110	-0.003025
-4.105	-0.003025
-4.100	-0.003020
-4.095	-0.003019
-4.090	-0.003041
-4.085	-0.003000
-4.080	-0.003003
-4.075	-0.002989
-4.070	-0.002997
-4.065	-0.002988
-4.060	-0.002981
-4.055	-0.002968
-4.050	-0.002979
-4.045	-0.002975
-4.040	-0.002996
-4.035	-0.002980
-4.030	-0.002950
-4.025	-0.002970
-4.020	-0.002952
-4.015	-0.002945
-4.010	-0.002953
-4.005	-0.002944
-4.000	-0.002957
-3.995	-0.002938
-3.990	-0.002959
-3.985	-0.002950
-3.980	-0.002959
-3.975	-0.002964
-3.970	-0.002933
-3.965	-0.002947
-3.960	-0.002913
-3.955	-0.002923
-3.950	-0.002924
-3.945	-0.002910
-3.940	-0.002942
-3.935	-0.002927
-3.930	-0.002937
-3.925	-0.002932
-3.920	-0.002922
-3.915	-0.002962
-3.910	-0.002954
-3.905	-0.002944
-3.900	-0.002964
-3.895	-0.002974
-3.890	-0.002977
-3.885	-0.003007
-3.880	-0.003002
-3.875	-0.003016
-3.870	-0.003044
-3.865	-0.003054
-3.860	-0.003100
-3.855	-0.003150
-3.850	-0.003206
-3.845	-0.003286
-3.840	-0.003351
-3.835	-0.003457
-3.830	-0.003584
-3.825	-0.003764
-3.820	-0.003972
-3.815	-0.004192
-3.810	-0.004500
-3.805	-0.004845
-3.800	-0.005258
-3.795	-0.005766
-3.790	-0.006346
-3.785	-0.007023
-3.780	-0.007841
-3.775	-0.008830
-3.770	-0.009999
-3.765	-0.011231
-3.760	-0.011823
-3.755	-0.010834
-3.750	-0.008276
-3.745	-0.005447
-3.740	-0.002243
-3.735	0.002352
-3.730	0.007636
-3.725	0.009701
-3.720	0.008188
-3.715	0.005010
-3.710	0.001521
-3.705	-0.001371
-3.700	-0.003674
-3.695	-0.005354
-3.690	-0.006554
-3.685	-0.007383
-3.680	-0.008048
-3.675	-0.008633
-3.670	-0.009137
-3.665	-0.009671
-3.660	-0.010169
-3.655	-0.010702
-3.650	-0.011210
-3.645	-0.011740
-3.640	-0.012248
-3.635	-0.012715
-3.630	-0.013170
-3.625	-0.013601
-3.620	-0.013987
-3.615	-0.014276
-3.610	-0.014446
-3.605	-0.014430
-3.600	-0.013939
-3.595	-0.012477
-3.590	-0.009708
-3.585	-0.006237
-3.580	-0.002643
-3.575	0.001173
-3.570	0.005490
-3.565	0.008643
-3.560	0.009144
-3.555	0.007331
-3.550	0.004436
-3.545	0.001486
-3.540	-0.001064
-3.535	-0.002933
-3.530	-0.004221
-3.525	-0.005045
-3.520	-0.005609
-3.515	-0.005985
-3.510	-0.006331
-3.505	-0.006632
-3.500	-0.006972
-3.495	-0.007304
-3.490	-0.007697
-3.485	-0.008068
-3.480	-0.008454
-3.475	-0.008872
-3.470	-0.009316
-3.465	-0.009725
-3.460	-0.010111
-3.455	-0.010440
-3.450	-0.010767
-3.445	-0.011061
-3.440	-0.011344
-3.435	-0.011527
-3.430	-0.011566
-3.425	-0.011320
-3.420	-0.010366
-3.415	-0.008372
-3.410	-0.005257
-3.405	-0.001967
-3.400	0.001423
-3.395	0.005291
-3.390	0.008924
-3.385	0.010540
-3.380	0.009637
-3.375	0.007149
-3.370	0.004156
-3.365	0.001418
-3.360	-0.000762
-3.355	-0.002286
-3.350	-0.003276
-3.345	-0.003961
-3.340	-0.004439
-3.335	-0.004860
-3.330	-0.005158
-3.325	-0.005425
-3.320	-0.005791
-3.315	-0.006100
-3.310	-0.006484
-3.305	-0.006779
-3.300	-0.007132
-3.295	-0.007466
-3.290	-0.007833
-3.285	-0.008191
-3.280	-0.008571
-3.275	-0.008916
-3.270	-0.009276
-3.265	-0.009604
-3.260	-0.009932
-3.255	-0.010164
-3.250	-0.010334
-3.245	-0.010387
-3.240	-0.010295
-3.235	-0.009817
-3.230	-0.008478
-3.225	-0.006112
-3.220	-0.002944
-3.215	0.000182
-3.210	0.003641
-3.205	0.007217
-3.200	0.009926
-3.195	0.010470
-3.190	0.008867
-3.185	0.006286
-3.180	0.003548
-3.175	0.001176
-3.170	-0.000672
-3.165	-0.001881
-3.160	-0.002690
-3.155	-0.003264
-3.150	-0.003717
-3.145	-0.004070
-3.140	-0.004369
-3.135	-0.004632
-3.130	-0.004888
-3.125	-0.005193
-3.120	-0.005530
-3.115	-0.005876
-3.110	-0.006215
-3.105	-0.006520
-3.100	-0.006803
-3.095	-0.007138
-3.090	-0.007467
-3.085	-0.007759
-3.080	-0.008074
-3.075	-0.008375
-3.070	-0.008688
-3.065	-0.008957
-3.060	-0.009176
-3.055	-0.009377
-3.050	-0.009507
-3.045	-0.009554
-3.040	-0.009384
-3.035	-0.008729
-3.030	-0.007168
-3.025	-0.004679
-3.020	-0.001702
-3.015	0.001285
-3.010	0.004635
-3.005	0.008013
-3.000	0.010357
-2.995	0.010545
-2.990	0.008851
-2.985	0.006338
-2.980	0.003820
-2.975	0.001704
-2.970	0.000014
-2.965	-0.001162
-2.960	-0.001991
-2.955	-0.002561
-2.950	-0.003004
-2.945	-0.003302
-2.940	-0.003584
-2.935	-0.003839
-2.930	-0.004104
-2.925	-0.004358
-2.920	-0.004579
-2.915	-0.004828
-2.910	-0.005130
-2.905	-0.005418
-2.900	-0.005676
-2.895	-0.005925
-2.890	-0.006196
-2.885	-0.006505
-2.880	-0.006797
-2.875	-0.007144
-2.870	-0.007475
-2.865	-0.007774
-2.860	-0.008018
-2.855	-0.008277
-2.850	-0.008447
-2.845	-0.008606
-2.840	-0.008742
-2.835	-0.008787
-2.830	-0.008792
-2.825	-0.008576
-2.820	-0.007879
-2.815	-0.006281
-2.810	-0.003774
-2.805	-0.000937
-2.800	0.002135
-2.795	0.005407
-2.790	0.008637
-2.785	0.010587
-2.780	0.010513
-2.775	0.008838
-2.770	0.006417
-2.765	0.004072
-2.760	0.001978
-2.755	0.000443
-2.750	-0.000723
-2.745	-0.001504
-2.740	-0.001999
-2.735	-0.002355
-2.730	-0.002645
-2.725	-0.002944
-2.720	-0.003229
-2.715	-0.003511
-2.710	-0.003745
-2.705	-0.003968
-2.700	-0.004129
-2.695	-0.004303
-2.690	-0.004469
-2.685	-0.004644
-2.680	-0.004859
-2.675	-0.005154
-2.670	-0.005454
-2.665	-0.005788
-2.660	-0.006122
-2.655	-0.006387
-2.650	-0.006618
-2.645	-0.006874
-2.640	-0.007062
-2.635	-0.007214
-2.630	-0.007410
-2.625	-0.007566
-2.620	-0.007729
-2.615	-0.007850
-2.610	-0.007973
-2.605	-0.008023
-2.600	-0.007987
-2.595	-0.007866
-2.590	-0.007435
-2.585	-0.006488
-2.580	-0.004780
-2.575	-0.002467
-2.570	0.000146
-2.565	0.002911
-2.560	0.005954
-2.555	0.008726
-2.550	0.010261
-2.545	0.010028
-2.540	0.008412
-2.535	0.006314
-2.530	0.004174
-2.525	0.002369
-2.520	0.000913
-2.515	-0.000112
-2.510	-0.000855
-2.505	-0.001321
-2.500	-0.001695
-2.495	-0.002013
-2.490	-0.002330
-2.485	-0.002599
-2.480	-0.002840
-2.475	-0.003001
-2.470	-0.003118
-2.465	-0.003231
-2.460	-0.003333
-2.455	-0.003502
-2.450	-0.003694
-2.445	-0.003888
-2.440	-0.004081
-2.435	-0.004300
-2.430	-0.004495
-2.425	-0.004677
-2.420	-0.004879
-2.415	-0.005111
-2.410	-0.005332
-2.405	-0.005568
-2.400	-0.005776
-2.395	-0.006029
-2.390	-0.006268
-2.385	-0.006488
-2.380	-0.006638
-2.375	-0.006781
-2.370	-0.006925
-2.365	-0.007028
-2.360	-0.007095
-2.355	-0.007159
-2.350	-0.007145
-2.345	-0.007130
-2.340	-0.007061
-2.335	-0.006787
-2.330	-0.006079
-2.325	-0.004742
-2.320	-0.002568
-2.315	-0.000176
-2.310	0.002542
-2.305	0.005385
-2.300	0.008192
-2.295	0.009913
-2.290	0.010033
-2.285	0.008925
-2.280	0.007126
-2.275	0.005250
-2.270	0.003449
-2.265	0.002012
-2.260	0.000869
-2.255	0.000067
-2.250	-0.000513
-2.245	-0.000980
-2.240	-0.001334
-2.235	-0.001585
-2.230	-0.001827
-2.225	-0.001980
-2.220	-0.002118
-2.215	-0.002230
-2.210	-0.002334
-2.205	-0.002461
-2.200	-0.002613
-2.195	-0.002789
-2.190	-0.002934
-2.185	-0.003047
-2.180	-0.003192
-2.175	-0.003346
-2.170	-0.003518
-2.165	-0.003681
-2.160	-0.003870
-2.155	-0.004073
-2.150	-0.004260
-2.145	-0.004432
-2.140	-0.004609
-2.135	-0.004793
-2.130	-0.004982
-2.125	-0.005117
-2.120	-0.005288
-2.115	-0.005408
-2.110	-0.005561
-2.105	-0.005708
-2.100	-0.005826
-2.095	-0.005984
-2.090	-0.006084
-2.085	-0.006153
-2.080	-0.006202
-2.075	-0.006239
-2.070	-0.006269
-2.065	-0.006262
-2.060	-0.006211
-2.055	-0.006088
-2.050	-0.005932
-2.045	-0.005544
-2.040	-0.004667
-2.035	-0.003222
-2.030	-0.001212
-2.025	0.000991
-2.020	0.003475
-2.015	0.006101
-2.010	0.008390
-2.005	0.009600
-2.000	0.009532
-1.995	0.008506
-1.990	0.007010
-1.985	0.005431
-1.980	0.003933
-1.975	0.002664
-1.970	0.001560
-1.965	0.000743
-1.960	0.000083
-1.955	-0.000428
-1.950	-0.000763
-1.945	-0.000984
-1.940	-0.001146
-1.935	-0.001328
-1.930	-0.001507
-1.925	-0.001733
-1.920	-0.001911
-1.915	-0.002014
-1.910	-0.002041
-1.905	-0.002104
-1.900	-0.002184
-1.895	-0.002281
-1.890	-0.002429
-1.885	-0.002571
-1.880	-0.002668
-1.875	-0.002811
-1.870	-0.002931
-1.865	-0.003055
-1.860	-0.003163
-1.855	-0.003286
-1.850	-0.003386
-1.845	-0.003483
-1.840	-0.003615
-1.835	-0.003746
-1.830	-0.003913
-1.825	-0.004020
-1.820	-0.004133
-1.815	-0.004240
-1.810	-0.004299
-1.805	-0.004394
-1.800	-0.004463
-1.795	-0.004560
-1.790	-0.004650
-1.785	-0.004783
-1.780	-0.004864
-1.775	-0.004950
-1.770	-0.005004
-1.765	-0.005075
-1.760	-0.005149
-1.755	-0.005153
-1.750	-0.005220
-1.745	-0.005236
-1.740	-0.005269
-1.735	-0.005283
-1.730	-0.005215
-1.725	-0.005079
-1.720	-0.004957
-1.715	-0.004738
-1.710	-0.004241
-1.705	-0.003345
-1.700	-0.001955
-1.695	-0.000205
-1.690	0.001839
-1.685	0.004014
-1.680	0.006234
-1.675	0.007899
-1.670	0.008771
-1.665	0.008712
-1.660	0.007959
-1.655	0.006888
-1.650	0.005619
-1.645	0.004365
-1.640	0.003175
-1.635	0.002232
-1.630	0.001497
-1.625	0.000946
-1.620	0.000518
-1.615	0.000119
-1.610	-0.000210
-1.605	-0.000529
-1.600	-0.000707
-1.595	-0.000775
-1.590	-0.000794
-1.585	-0.000853
-1.580	-0.000996
-1.575	-0.001128
-1.570	-0.001333
-1.565	-0.001461
-1.560	-0.001515
-1.555	-0.001593
-1.550	-0.001624
-1.545	-0.001678
-1.540	-0.001730
-1.535	-0.001804
-1.530	-0.001919
-1.525	-0.001984
-1.520	-0.002023
-1.515	-0.002117
-1.510	-0.002135
-1.505	-0.002198
-1.500	-0.002247
-1.495	-0.002309
-1.490	-0.002446
-1.485	-0.002558
-1.480	-0.002636
-1.475	-0.002717
-1.470	-0.002773
-1.465	-0.002818
-1.460	-0.002912
-1.455	-0.003039
-1.450	-0.003144
-1.445	-0.003232
-1.440	-0.003337
-1.435	-0.003403
-1.430	-0.003498
-1.425	-0.003546
-1.420	-0.003576
-1.415	-0.003648
-1.410	-0.003740
-1.405	-0.003765
-1.400	-0.003789
-1.395	-0.003801
-1.390	-0.003829
-1.385	-0.003838
-1.380	-0.003817
-1.375	-0.003837
-1.370	-0.003856
-1.365	-0.003868
-1.360	-0.003917
-1.355	-0.003980
-1.350	-0.004033
-1.345	-0.004085
-1.340	-0.004081
-1.335	-0.004066
-1.330	-0.003993
-1.325	-0.003898
-1.320	-0.003828
-1.315	-0.003731
-1.310	-0.003652
-1.305	-0.003523
-1.300	-0.003326
-1.295	-0.002982
-1.290	-0.002360
-1.285	-0.001454
-1.280	-0.000303
-1.275	0.001054
-1.270	0.002623
-1.265	0.004230
-1.260	0.005716
-1.255	0.006742
-1.250	0.007273
-1.245	0.007316
-1.240	0.006963
-1.235	0.006376
-1.230	0.005650
-1.225	0.004875
-1.220	0.004093
-1.215	0.003363
-1.210	0.002629
-1.205	0.002058
-1.200	0.001617
-1.195	0.001183
-1.190	0.000844
-1.185	0.000530
-1.180	0.000274
-1.175	0.000102
-1.170	0.000024
-1.165	-0.000050
-1.160	-0.000109
-1.155	-0.000211
-1.150	-0.000319
-1.145	-0.000423
-1.140	-0.000487
-1.135	-0.000516
-1.130	-0.000580
-1.125	-0.000668
-1.120	-0.000736
-1.115	-0.000839
-1.110	-0.000899
-1.105	-0.000913
-1.100	-0.000957
-1.095	-0.000997
-1.090	-0.001047
-1.085	-0.001115
-1.080	-0.001179
-1.075	-0.001218
-1.070	-0.001219
-1.065	-0.001244
-1.060	-0.001312
-1.055	-0.001327
-1.050	-0.001306
-1.045	-0.001283
-1.040	-0.001289
-1.035	-0.001253
-1.030	-0.001296
-1.025	-0.001365
-1.020	-0.001401
-1.015	-0.001424
-1.010	-0.001407
-1.005	-0.001394
-1.000	-0.001420
-0.995	-0.001477
-0.990	-0.001550
-0.985	-0.001599
-0.980	-0.001707
-0.975	-0.001770
-0.970	-0.001822
-0.965	-0.001906
-0.960	-0.001939
-0.955	-0.001979
-0.950	-0.002031
-0.945	-0.002121
-0.940	-0.002167
-0.935	-0.002148
-0.930	-0.002101
-0.925	-0.002043
-0.920	-0.001986
-0.915	-0.001960
-0.910	-0.001951
-0.905	-0.001990
-0.900	-0.002022
-0.895	-0.002076
-0.890	-0.002113
-0.885	-0.002124
-0.880	-0.002110
-0.875	-0.002124
-0.870	-0.002111
-0.865	-0.002067
-0.860	-0.002016
-0.855	-0.001996
-0.850	-0.002018
-0.845	-0.002053
-0.840	-0.002087
-0.835	-0.002092
-0.830	-0.002103
-0.825	-0.002102
-0.820	-0.002092
-0.815	-0.002092
-0.810	-0.002057
-0.805	-0.002017
-0.800	-0.001929
-0.795	-0.001850
-0.790	-0.001782
-0.785	-0.001709
-0.780	-0.001611
-0.775	-0.001557
-0.770	-0.001518
-0.765	-0.001488
-0.760	-0.001444
-0.755	-0.001409
-0.750	-0.001392
-0.745	-0.001363
-0.740	-0.001307
-0.735	-0.001253
-0.730	-0.001193
-0.725	-0.001143
-0.720	-0.001070
-0.715	-0.001025
-0.710	-0.000975
-0.705	-0.000878
-0.700	-0.000774
-0.695	-0.000646
-0.690	-0.000499
-0.685	-0.000386
-0.680	-0.000293
-0.675	-0.000243
-0.670	-0.000170
-0.665	-0.000111
-0.660	-0.000042
-0.655	0.000076
-0.650	0.000292
-0.645	0.000591
-0.640	0.001092
-0.635	0.001904
-0.630	0.003076
-0.625	0.004705
-0.620	0.006865
-0.615	0.009608
-0.610	0.012793
-0.605	0.016051
-0.600	0.019347
-0.595	0.022404
-0.590	0.024937
-0.585	0.026813
-0.580	0.027939
-0.575	0.028453
-0.570	0.028310
-0.565	0.027736
-0.560	0.026744
-0.555	0.025498
-0.550	0.024066
-0.545	0.022592
-0.540	0.021039
-0.535	0.019526
-0.530	0.017977
-0.525	0.016523
-0.520	0.015095
-0.515	0.013841
-0.510	0.012734
-0.505	0.011830
-0.500	0.011069
-0.495	0.010482
-0.490	0.009908
-0.485	0.009373
-0.480	0.008843
-0.475	0.008417
-0.470	0.007970
-0.465	0.007543
-0.460	0.007181
-0.455	0.006958
-0.450	0.006808
-0.445	0.006692
-0.440	0.006398
-0.435	0.006073
-0.430	0.005730
-0.425	0.005550
-0.420	0.005521
-0.415	0.005535
-0.410	0.005440
-0.405	0.005238
-0.400	0.005018
-0.395	0.004840
-0.390	0.004644
-0.385	0.004500
-0.380	0.004318
-0.375	0.004096
-0.370	0.003979
-0.365	0.004055
-0.360	0.004226
-0.355	0.004424
-0.350	0.004535
-0.345	0.004534
-0.340	0.004485
-0.335	0.004409
-0.330	0.004504
-0.325	0.004851
-0.320	0.005446
-0.315	0.005793
-0.310	0.005495
-0.305	0.004517
-0.300	0.003385
-0.295	0.002739
-0.290	0.002456
-0.285	0.002238
-0.280	0.002283
-0.275	0.002835
-0.270	0.003789
-0.265	0.004500
-0.260	0.004537
-0.255	0.004149
-0.250	0.003896
-0.245	0.003975
-0.240	0.004052
-0.235	0.003820
-0.230	0.003674
-0.225	0.003842
-0.220	0.004065
-0.215	0.003463
-0.210	0.001933
-0.205	0.001179
-0.200	0.001787
-0.195	0.002608
-0.190	0.001336
-0.185	-0.000771
-0.180	-0.000471
-0.175	0.001449
-0.170	0.002048
-0.165	0.000240
-0.160	-0.001548
-0.155	-0.001204
-0.150	-0.001717
-0.145	-0.003503
-0.140	-0.004175
-0.135	-0.001716
-0.130	0.000392
-0.125	-0.001083
-0.120	-0.004250
-0.115	-0.004774
-0.110	-0.003708
-0.105	-0.007760
-0.100	-0.005637
-0.095	-0.000735
-0.090	-0.005168
-0.085	-0.004551
-0.080	-0.009823
-0.075	-0.005857
-0.070	-0.001475
-0.065	-0.003154
-0.060	-0.003952
-0.055	-0.003425
-0.050	-0.004995
-0.045	-0.001337
-0.040	-0.003144
-0.035	-0.005616
-0.030	0.006504
-0.025	-0.003798
-0.020	-0.004565
-0.015	0.003265
-0.010	-0.002019
-0.005	0.000550
0.000	0.002021
0.005	0.000936
0.010	-0.003396
0.015	0.000368
0.020	-0.000780
0.025	0.002926
0.030	0.002135
0.035	0.001749
0.040	0.004911
0.045	0.003272
0.050	-0.002972
0.055	0.005824
0.060	0.003948
0.065	0.003707
0.070	0.005234
0.075	0.005074
0.080	0.005880
0.085	0.004613
0.090	0.004536
0.095	0.004702
0.100	0.004252
0.105	0.003756
0.110	0.002790
0.115	0.003141
0.120	0.005420
0.125	0.002077
0.130	0.002766
0.135	0.004845
0.140	0.004190
0.145	0.002922
0.150	0.000493
0.155	0.000124
0.160	0.000212
0.165	0.001111
0.170	0.000939
0.175	-0.000306
0.180	-0.000649
0.185	-0.001767
0.190	-0.002706
0.195	-0.001663
0.200	-0.000256
0.205	-0.000363
0.210	-0.001742
0.215	-0.002924
0.220	-0.003708
0.225	-0.003527
0.230	-0.003193
0.235	-0.003151
0.240	-0.002748
0.245	-0.002577
0.250	-0.003626
0.255	-0.004777
0.260	-0.004546
0.265	-0.003614
0.270	-0.003242
0.275	-0.003567
0.280	-0.004227
0.285	-0.004698
0.290	-0.004765
0.295	-0.004194
0.300	-0.003651
0.305	-0.003607
0.310	-0.003897
0.315	-0.004215
0.320	-0.004628
0.325	-0.004889
0.330	-0.004959
0.335	-0.004679
0.340	-0.004213
0.345	-0.003830
0.350	-0.003706
0.355	-0.003942
0.360	-0.004514
0.365	-0.005092
0.370	-0.005368
0.375	-0.005270
0.380	-0.004948
0.385	-0.004632
0.390	-0.004370
0.395	-0.004216
0.400	-0.004306
0.405	-0.004795
0.410	-0.005501
0.415	-0.006189
0.420	-0.006727
0.425	-0.007107
0.430	-0.007320
0.435	-0.007406
0.440	-0.007438
0.445	-0.007358
0.450	-0.007192
0.455	-0.006984
0.460	-0.006808
0.465	-0.006747
0.470	-0.006900
0.475	-0.007173
0.480	-0.007561
0.485	-0.008007
0.490	-0.008457
0.495	-0.008890
0.500	-0.009388
0.505	-0.010027
0.510	-0.010845
0.515	-0.011805
0.520	-0.012884
0.525	-0.014022
0.530	-0.015162
0.535	-0.016285
0.540	-0.017458
0.545	-0.018678
0.550	-0.020100
0.555	-0.021672
0.560	-0.023335
0.565	-0.024992
0.570	-0.026506
0.575	-0.027638
0.580	-0.028362
0.585	-0.028421
0.590	-0.027821
0.595	-0.026513
0.600	-0.024500
0.605	-0.021902
0.610	-0.018932
0.615	-0.015823
0.620	-0.012565
0.625	-0.009511
0.630	-0.006630
0.635	-0.004367
0.640	-0.002667
0.645	-0.001527
0.650	-0.000791
0.655	-0.000374
0.660	-0.000158
0.665	-0.000030
0.670	0.000033
0.675	0.000102
0.680	0.000161
0.685	0.000205
0.690	0.000279
0.695	0.000377
0.700	0.000485
0.705	0.000618
0.710	0.000686
0.715	0.000765
0.720	0.000854
0.725	0.000913
0.730	0.001015
0.735	0.001099
0.740	0.001163
0.745	0.001267
0.750	0.001359
0.755	0.001419
0.760	0.001470
0.765	0.001529
0.770	0.001583
0.775	0.001602
0.780	0.001621
0.785	0.001645
0.790	0.001631
0.795	0.001620
0.800	0.001648
0.805	0.001678
0.810	0.001719
0.815	0.001758
0.820	0.001826
0.825	0.001831
0.830	0.001865
0.835	0.001949
0.840	0.002039
0.845	0.002107
0.850	0.002165
0.855	0.002177
0.860	0.002204
0.865	0.002198
0.870	0.002164
0.875	0.002129
0.880	0.002082
0.885	0.001999
0.890	0.001956
0.895	0.001960
0.900	0.002022
0.905	0.002057
0.910	0.002118
0.915	0.002142
0.920	0.002106
0.925	0.002047
0.930	0.001970
0.935	0.001900
0.940	0.001850
0.945	0.001806
0.950	0.001816
0.955	0.001810
0.960	0.001822
0.965	0.001818
0.970	0.001748
0.975	0.001680
0.980	0.001638
0.985	0.001598
0.990	0.001572
0.995	0.001558
1.000	0.001608
1.005	0.001647
1.010	0.001745
1.015	0.001804
1.020	0.001759
1.025	0.001691
1.030	0.001593
1.035	0.001500
1.040	0.001415
1.045	0.001347
1.050	0.001269
1.055	0.001234
1.060	0.001199
1.065	0.001140
1.070	0.001067
1.075	0.000958
1.080	0.000963
1.085	0.001002
1.090	0.001076
1.095	0.001096
1.100	0.001057
1.105	0.001012
1.110	0.000944
1.115	0.000890
1.120	0.000841
1.125	0.000772
1.130	0.000684
1.135	0.000610
1.140	0.000512
1.145	0.000389
1.150	0.000330
1.155	0.000311
1.160	0.000262
1.165	0.000232
1.170	0.000188
1.175	0.000085
1.180	-0.000121
1.185	-0.000322
1.190	-0.000518
1.195	-0.000763
1.200	-0.001054
1.205	-0.001442
1.210	-0.001902
1.215	-0.002433
1.220	-0.003009
1.225	-0.003663
1.230	-0.004413
1.235	-0.005144
1.240	-0.005825
1.245	-0.006434
1.250	-0.006901
1.255	-0.007027
1.260	-0.006759
1.265	-0.005996
1.270	-0.004811
1.275	-0.003382
1.280	-0.001796
1.285	-0.000304
1.290	0.001087
1.295	0.002137
1.300	0.002795
1.305	0.003134
1.310	0.003297
1.315	0.003407
1.320	0.003500
1.325	0.003603
1.330	0.003766
1.335	0.003907
1.340	0.004015
1.345	0.004069
1.350	0.004097
1.355	0.004109
1.360	0.004085
1.365	0.004050
1.370	0.004013
1.375	0.003970
1.380	0.003942
1.385	0.003884
1.390	0.003884
1.395	0.003838
1.400	0.003838
1.405	0.003778
1.410	0.003704
1.415	0.003626
1.420	0.003538
1.425	0.003431
1.430	0.003375
1.435	0.003359
1.440	0.003384
1.445	0.003390
1.450	0.003339
1.455	0.003281
1.460	0.003190
1.465	0.003062
1.470	0.002967
1.475	0.002840
1.480	0.002705
1.485	0.002567
1.490	0.002448
1.495	0.002344
1.500	0.002254
1.505	0.002175
1.510	0.002063
1.515	0.001953
1.520	0.001913
1.525	0.001859
1.530	0.001796
1.535	0.001781
1.540	0.001781
1.545	0.001795
1.550	0.001786
1.555	0.001761
1.560	0.001689
1.565	0.001610
1.570	0.001512
1.575	0.001443
1.580	0.001360
1.585	0.001198
1.590	0.001016
1.595	0.000824
1.600	0.000687
1.605	0.000544
1.610	0.000357
1.615	0.000097
1.620	-0.000164
1.625	-0.000547
1.630	-0.000974
1.635	-0.001460
1.640	-0.002031
1.645	-0.002812
1.650	-0.003826
1.655	-0.004981
1.660	-0.006202
1.665	-0.007267
1.670	-0.008064
1.675	-0.008305
1.680	-0.007834
1.685	-0.006684
1.690	-0.005037
1.695	-0.003157
1.700	-0.001047
1.705	0.001092
1.710	0.002962
1.715	0.004069
1.720	0.004634
1.725	0.004927
1.730	0.005098
1.735	0.005196
1.740	0.005253
1.745	0.005290
1.750	0.005278
1.755	0.005229
1.760	0.005173
1.765	0.005131
1.770	0.005058
1.775	0.004999
1.780	0.004920
1.785	0.004836
1.790	0.004776
1.795	0.004673
1.800	0.004571
1.805	0.004472
1.810	0.004344
1.815	0.004250
1.820	0.004143
1.825	0.004050
1.830	0.003944
1.835	0.003854
1.840	0.003802
1.845	0.003723
1.850	0.003630
1.855	0.003505
1.860	0.003382
1.865	0.003264
1.870	0.003145
1.875	0.002998
1.880	0.002887
1.885	0.002778
1.890	0.002678
1.895	0.002512
1.900	0.002415
1.905	0.002301
1.910	0.002163
1.915	0.002011
1.920	0.001902
1.925	0.001715
1.930	0.001526
1.935	0.001328
1.940	0.001101
1.945	0.000870
1.950	0.000708
1.955	0.000497
1.960	0.000256
1.965	-0.000147
1.970	-0.000751
1.975	-0.001557
1.980	-0.002555
1.985	-0.003774
1.990	-0.005189
1.995	-0.006630
2.000	-0.007924
2.005	-0.008761
2.010	-0.008777
2.015	-0.007919
2.020	-0.006453
2.025	-0.004508
2.030	-0.002061
2.035	0.000608
2.040	0.003084
2.045	0.004721
2.050	0.005552
2.055	0.005887
2.060	0.006082
2.065	0.006156
2.070	0.006163
2.075	0.006142
2.080	0.006130
2.085	0.006033
2.090	0.005961
2.095	0.005907
2.100	0.005837
2.105	0.005780
2.110	0.005709
2.115	0.005601
2.120	0.005465
2.125	0.005319
2.130	0.005153
2.135	0.005017
2.140	0.004849
2.145	0.004631
2.150	0.004410
2.155	0.004236
2.160	0.004024
2.165	0.003837
2.170	0.003616
2.175	0.003449
2.180	0.003284
2.185	0.003145
2.190	0.003035
2.195	0.002937
2.200	0.002790
2.205	0.002651
2.210	0.002509
2.215	0.002321
2.220	0.002162
2.225	0.002030
2.230	0.001919
2.235	0.001806
2.240	0.001645
2.245	0.001423
2.250	0.001069
2.255	0.000612
2.260	-0.000082
2.265	-0.000937
2.270	-0.002032
2.275	-0.003465
2.280	-0.005207
2.285	-0.006903
2.290	-0.008399
2.295	-0.009106
2.300	-0.008854
2.305	-0.007660
2.310	-0.005807
2.315	-0.003357
2.320	-0.000314
2.325	0.002807
2.330	0.005188
2.335	0.006364
2.340	0.006834
2.345	0.007018
2.350	0.007096
2.355	0.007083
2.360	0.007045
2.365	0.006929
2.370	0.006870
2.375	0.006764
2.380	0.006668
2.385	0.006531
2.390	0.006365
2.395	0.006194
2.400	0.006006
2.405	0.005771
2.410	0.005557
2.415	0.005320
2.420	0.005094
2.425	0.004867
2.430	0.004652
2.435	0.004448
2.440	0.004207
2.445	0.004000
2.450	0.003807
2.455	0.003597
2.460	0.003407
2.465	0.003223
2.470	0.003044
2.475	0.002924
2.480	0.002847
2.485	0.002757
2.490	0.002637
2.495	0.002432
2.500	0.002154
2.505	0.001789
2.510	0.001278
2.515	0.000672
2.520	-0.000114
2.525	-0.001179
2.530	-0.002633
2.535	-0.004326
2.540	-0.006172
2.545	-0.007831
2.550	-0.008960
2.555	-0.009076
2.560	-0.008133
2.565	-0.006519
2.570	-0.004164
2.575	-0.001232
2.580	0.002242
2.585	0.005175
2.590	0.006908
2.595	0.007621
2.600	0.007868
2.605	0.007971
2.610	0.007961
2.615	0.007916
2.620	0.007808
2.625	0.007667
2.630	0.007476
2.635	0.007271
2.640	0.007039
2.645	0.006777
2.650	0.006550
2.655	0.006350
2.660	0.006099
2.665	0.005819
2.670	0.005548
2.675	0.005268
2.680	0.005030
2.685	0.004797
2.690	0.004551
2.695	0.004336
2.700	0.004147
2.705	0.003942
2.710	0.003704
2.715	0.003503
2.720	0.003289
2.725	0.003096
2.730	0.002889
2.735	0.002617
2.740	0.002284
2.745	0.001880
2.750	0.001294
2.755	0.000417
2.760	-0.000855
2.765	-0.002437
2.770	-0.004393
2.775	-0.006420
2.780	-0.008237
2.785	-0.009244
2.790	-0.009002
2.795	-0.007714
2.800	-0.005688
2.805	-0.002848
2.810	0.000941
2.815	0.004611
2.820	0.007169
2.825	0.008302
2.830	0.008713
2.835	0.008763
2.840	0.008731
2.845	0.008592
2.850	0.008451
2.855	0.008265
2.860	0.008038
2.865	0.007810
2.870	0.007503
2.875	0.007199
2.880	0.006895
2.885	0.006588
2.890	0.006308
2.895	0.006059
2.900	0.005793
2.905	0.005531
2.910	0.005276
2.915	0.005037
2.920	0.004792
2.925	0.004492
2.930	0.004210
2.935	0.003972
2.940	0.003740
2.945	0.003475
2.950	0.003209
2.955	0.002878
2.960	0.002393
2.965	0.001679
2.970	0.000571
2.975	-0.000851
2.980	-0.002677
2.985	-0.004766
2.990	-0.006900
2.995	-0.008527
3.000	-0.009138
3.005	-0.008519
3.010	-0.006894
3.015	-0.004554
3.020	-0.001270
3.025	0.002736
3.030	0.006385
3.035	0.008442
3.040	0.009223
3.045	0.009375
3.050	0.009356
3.055	0.009259
3.060	0.009088
3.065	0.008897
3.070	0.008651
3.075	0.008401
3.080	0.008068
3.085	0.007784
3.090	0.007516
3.095	0.007220
3.100	0.006951
3.105	0.006619
3.110	0.006276
3.115	0.005970
3.120	0.005627
3.125	0.005300
3.130	0.005000
3.135	0.004735
3.140	0.004495
3.145	0.004272
3.150	0.003928
3.155	0.003588
3.160	0.002982
3.165	0.002161
3.170	0.000980
3.175	-0.000519
3.180	-0.002450
3.185	-0.004682
3.190	-0.006948
3.195	-0.008520
3.200	-0.008892
3.205	-0.008000
3.210	-0.006132
3.215	-0.003561
3.220	-0.000008
3.225	0.004206
3.230	0.007783
3.235	0.009626
3.240	0.010208
3.245	0.010272
3.250	0.010159
3.255	0.010013
3.260	0.009797
3.265	0.009550
3.270	0.009244
3.275	0.008958
3.280	0.008593
3.285	0.008263
3.290	0.007900
3.295	0.007565
3.300	0.007212
3.305	0.006838
3.310	0.006461
3.315	0.006148
3.320	0.005829
3.325	0.005538
3.330	0.005246
3.335	0.004928
3.340	0.004524
3.345	0.004058
3.350	0.003357
3.355	0.002464
3.360	0.001168
3.365	-0.000558
3.370	-0.002805
3.375	-0.005167
3.380	-0.007344
3.385	-0.008558
3.390	-0.008321
3.395	-0.006990
3.400	-0.004819
3.405	-0.001699
3.410	0.002577
3.415	0.006856
3.420	0.009807
3.425	0.011095
3.430	0.011442
3.435	0.011451
3.440	0.011304
3.445	0.011095
3.450	0.010815
3.455	0.010513
3.460	0.010115
3.465	0.009719
3.470	0.009295
3.475	0.008900
3.480	0.008463
3.485	0.008088
3.490	0.007670
3.495	0.007268
3.500	0.006932
3.505	0.006633
3.510	0.006285
3.515	0.005907
3.520	0.005452
3.525	0.004869
3.530	0.004032
3.535	0.002848
3.540	0.001151
3.545	-0.000958
3.550	-0.003450
3.555	-0.005647
3.560	-0.007070
3.565	-0.007084
3.570	-0.005709
3.575	-0.003543
3.580	-0.000370
3.585	0.003919
3.590	0.008662
3.595	0.012124
3.600	0.013788
3.605	0.014252
3.610	0.014315
3.615	0.014109
3.620	0.013831
3.625	0.013450
3.630	0.013035
3.635	0.012567
3.640	0.012056
3.645	0.011559
3.650	0.011028
3.655	0.010539
3.660	0.010018
3.665	0.009493
3.670	0.008977
3.675	0.008405
3.680	0.007776
3.685	0.007024
3.690	0.005998
3.695	0.004693
3.700	0.002956
3.705	0.000723
3.710	-0.002050
3.715	-0.004765
3.720	-0.006868
3.725	-0.007223
3.730	-0.005738
3.735	-0.003561
3.740	-0.000967
3.745	0.002845
3.750	0.007477
3.755	0.011287
3.760	0.012357
3.765	0.011401
3.770	0.010052
3.775	0.008881
3.780	0.007876
3.785	0.007083
3.790	0.006379
3.795	0.005793
3.800	0.005293
3.805	0.004878
3.810	0.004520
3.815	0.004237
3.820	0.003957
3.825	0.003773
3.830	0.003606
3.835	0.003463
3.840	0.003346
3.845	0.003257
3.850	0.003179
3.855	0.003138
3.860	0.003069
3.865	0.003024
3.870	0.003024
3.875	0.002995
3.880	0.002984
3.885	0.002955
3.890	0.002960
3.895	0.002920
3.900	0.002942
3.905	0.002917
3.910	0.002918
3.915	0.002926
3.920	0.002898
3.925	0.002893
3.930	0.002902
3.935	0.002914
3.940	0.002916
3.945	0.002905
3.950	0.002894
3.955	0.002925
3.960	0.002922
3.965	0.002924
3.970	0.002930
3.975	0.002912
3.980	0.002915
3.985	0.002925
3.990	0.002921
3.995	0.002960
4.000	0.002939
4.005	0.002938
4.010	0.002935
4.015	0.002927
4.020	0.002949
4.025	0.002934
4.030	0.002934
4.035	0.002943
4.040	0.002959
4.045	0.002955
4.050	0.002952
4.055	0.002970
4.060	0.002943
4.065	0.002968
4.070	0.002960
4.075	0.002961
4.080	0.002970
4.085	0.002964
4.090	0.002959
4.095	0.002955
4.100	0.002950
4.105	0.002974
4.110	0.002972
4.115	0.002985
4.120	0.002985
4.125	0.003001
4.130	0.003029
4.135	0.003030
4.140	0.003039
4.145	0.003039
4.150	0.003043
4.155	0.003034
4.160	0.003060
4.165	0.003060
4.170	0.003072
4.175	0.003081
4.180	0.003074
4.185	0.003059
4.190	0.003068
4.195	0.003084
4.200	0.003073
4.205	0.003065
4.210	0.003109
4.215	0.003099
4.220	0.003098
4.225	0.003116
4.230	0.003093
4.235	0.003111
4.240	0.003114
4.245	0.003109
4.250	0.003113
4.255	0.003144
4.260	0.003113
4.265	0.003128
4.270	0.003122
4.275	0.003118
4.280	0.003127
4.285	0.003118
4.290	0.003138
4.295	0.003123
4.300	0.003159
4.305	0.003184
4.310	0.003189
4.315	0.003196
4.320	0.003185
4.325	0.003199
4.330	0.003217
4.335	0.003197
4.340	0.003216
4.345	0.003226
4.350	0.003248
4.355	0.003232
4.360	0.003253
4.365	0.003268
4.370	0.003265
4.375	0.003276
4.380	0.003255
4.385	0.003270
4.390	0.003274
4.395	0.003263
4.400	0.003273
4.405	0.003268
4.410	0.003279
4.415	0.003288
4.420	0.003293
4.425	0.003297
4.430	0.003298
4.435	0.003301
4.440	0.003280
4.445	0.003305
4.450	0.003301
4.455	0.003303
4.460	0.003331
4.465	0.003327
4.470	0.003355
4.475	0.003326
4.480	0.003360
4.485	0.003365
4.490	0.003387
4.495	0.003380
4.500	0.003390
4.505	0.003392
4.510	0.003415
4.515	0.003402
4.520	0.003412
4.525	0.003398
4.530	0.003407
4.535	0.003433
4.540	0.003430
4.545	0.003443
4.550	0.003414
4.555	0.003446
4.560	0.003444
4.565	0.003440
4.570	0.003449
4.575	0.003450
4.580	0.003440
4.585	0.003475
4.590	0.003474
4.595	0.003486
4.600	0.003476
4.605	0.003505
4.610	0.003506
4.615	0.003518
4.620	0.003474
4.625	0.003503
4.630	0.003523
4.635	0.003506
4.640	0.003515
4.645	0.003507
4.650	0.003544
4.655	0.003549
4.660	0.003529
4.665	0.003539
4.670	0.003525
4.675	0.003566
4.680	0.003576
4.685	0.003557
4.690	0.003571
4.695	0.003561
4.700	0.003567
4.705	0.003592
4.710	0.003600
4.715	0.003583
4.720	0.003612
4.725	0.003587
4.730	0.003609
4.735	0.003626
4.740	0.003626
4.745	0.003631
4.750	0.003637
4.755	0.003638
4.760	0.003649
4.765	0.003639
4.770	0.003665
4.775	0.003673
4.780	0.003661
4.785	0.003665
4.790	0.003677
4.795	0.003673
4.800	0.003696
4.805	0.003699
4.810	0.003679
4.815	0.003692
4.820	0.003716
4.825	0.003704
4.830	0.003743
4.835	0.003723
4.840	0.003733
4.845	0.003723
4.850	0.003743
4.855	0.003736
4.860	0.003756
4.865	0.003757
4.870	0.003757
4.875	0.003779
4.880	0.003760
4.885	0.003779
4.890	0.003774
4.895	0.003773
4.900	0.003793
4.905	0.003787
4.910	0.003802
4.915	0.003816
4.920	0.003810
4.925	0.003815
4.930	0.003820
4.935	0.003839
4.940	0.003832
4.945	0.003846
4.950	0.003861
4.955	0.003833
4.960	0.003854
4.965	0.003856
4.970	0.003857
4.975	0.003874
4.980	0.003885
4.985	0.003885
4.990	0.003903
4.995	0.003909
5.000	0.003918
5.005	0.003889
5.010	0.003945
5.015	0.003928
5.020	0.003942
5.025	0.003916
5.030	0.003953
5.035	0.003967
5.040	0.003948
5.045	0.003953
5.050	0.003955
5.055	0.003966
5.060	0.003983
5.065	0.004004
5.070	0.003992
5.075	0.004002
5.080	0.003991
5.085	0.004007
5.090	0.004014
5.095	0.004021
5.100	0.004001
5.105	0.004027
5.110	0.004035
5.115	0.004023
5.120	0.004062
5.125	0.004042
5.130	0.004067
5.135	0.004051
5.140	0.004065
5.145	0.004094
5.150	0.004078
5.155	0.004074
5.160	0.004086
5.165	0.004094
5.170	0.004112
5.175	0.004131
5.180	0.004111
5.185	0.004110
5.190	0.004120
5.195	0.004108
5.200	0.004152
5.205	0.004138
5.210	0.004168
5.215	0.004160
5.220	0.004177
5.225	0.004171
5.230	0.004192
5.235	0.004190
5.240	0.004189
5.245	0.004199
5.250	0.004188
5.255	0.004221
5.260	0.004214
5.265	0.004234
5.270	0.004228
5.275	0.004224
5.280	0.004229
5.285	0.004254
5.290	0.004251
5.295	0.004263
5.300	0.004250
5.305	0.004254
5.310	0.004287
5.315	0.004299
5.320	0.004294
5.325	0.004308
5.330	0.004295
5.335	0.004304
5.340	0.004333
5.345	0.004319
5.350	0.004318
5.355	0.004344
5.360	0.004346
5.365	0.004350
5.370	0.004361
5.375	0.004367
5.380	0.004377
5.385	0.004377
5.390	0.004381
5.395	0.004397
5.400	0.004392
5.405	0.004426
5.410	0.004416
5.415	0.004417
5.420	0.004429
5.425	0.004432
5.430	0.004447
5.435	0.004450
5.440	0.004443
5.445	0.004486
5.450	0.004471
5.455	0.004476
5.460	0.004488
5.465	0.004476
5.470	0.004496
5.475	0.004500
5.480	0.004532
5.485	0.004515
5.490	0.004524
5.495	0.004530
5.500	0.004540
5.505	0.004534
5.510	0.004541
5.515	0.004563
5.520	0.004551
5.525	0.004560
5.530	0.004560
5.535	0.004594
5.540	0.004587
5.545	0.004611
5.550	0.004630
5.555	0.004631
5.560	0.004629
5.565	0.004643
5.570	0.004643
5.575	0.004632
5.580	0.004652
5.585	0.004667
5.590	0.004675
5.595	0.004665
5.600	0.004678
5.605	0.004701
5.610	0.004699
5.615	0.004709
5.620	0.004714
5.625	0.004707
5.630	0.004735
5.635	0.004716
5.640	0.004753
5.645	0.004732
5.650	0.004749
5.655	0.004759
5.660	0.004760
5.665	0.004763
5.670	0.004775
5.675	0.004768
5.680	0.004793
5.685	0.004792
5.690	0.004814
5.695	0.004830
5.700	0.004834
5.705	0.004816
5.710	0.004835
5.715	0.004856
5.720	0.004855
5.725	0.004854
5.730	0.004875
5.735	0.004895
5.740	0.004909
5.745	0.004887
5.750	0.004901
5.755	0.004905
5.760	0.004910
5.765	0.004923
5.770	0.004922
5.775	0.004947
5.780	0.004939
5.785	0.004963
5.790	0.004961
5.795	0.004984
5.800	0.004971
5.805	0.004984
5.810	0.004996
5.815	0.005016
5.820	0.005029
5.825	0.005016
5.830	0.005037
5.835	0.005051
5.840	0.005050
5.845	0.005037
5.850	0.005065
5.855	0.005051
5.860	0.005067
5.865	0.005081
5.870	0.005091
5.875	0.005114
5.880	0.005091
5.885	0.005118
5.890	0.005127
5.895	0.005119
5.900	0.005125
5.905	0.005145
5.910	0.005161
5.915	0.005177
5.920	0.005163
5.925	0.005159
5.930	0.005181
5.935	0.005179
5.940	0.005215
5.945	0.005200
5.950	0.005207
5.955	0.005215
5.960	0.005218
5.965	0.005261
5.970	0.005276
5.975	0.005249
5.980	0.005292
5.985	0.005272
5.990	0.005291
5.995	0.005296
6.000	0.005298
6.005	0.005330
6.010	0.005322
6.015	0.005329
6.020	0.005342
6.025	0.005365
6.030	0.005349
6.035	0.005366
6.040	0.005379
6.045	0.005384
6.050	0.005390
6.055	0.005396
6.060	0.005425
6.065	0.005424
6.070	0.005421
6.075	0.005453
6.080	0.005454
6.085	0.005444
6.090	0.005461
6.095	0.005479
6.100	0.005472
6.105	0.005486
6.110	0.005494
6.115	0.005523
6.120	0.005533
6.125	0.005523
6.130	0.005550
6.135	0.005559
6.140	0.005552
6.145	0.005561
6.150	0.005562
6.155	0.005576
6.160	0.005581
6.165	0.005593
6.170	0.005619
6.175	0.005609
6.180	0.005619
6.185	0.005646
6.190	0.005632
6.195	0.005658
6.200	0.005663
6.205	0.005676
6.210	0.005675
6.215	0.005705
6.220	0.005705
6.225	0.005705
6.230	0.005710
6.235	0.005735
6.240	0.005740
6.245	0.005744
6.250	0.005758
6.255	0.005775
6.260	0.005761
6.265	0.005796
6.270	0.005818
6.275	0.005810
6.280	0.005804
6.285	0.005829
6.290	0.005837
6.295	0.005824
6.300	0.005869
6.305	0.005865
6.310	0.005890
6.315	0.005892
6.320	0.005910
6.325	0.005913
6.330	0.005916
6.335	0.005936
6.340	0.005930
6.345	0.005950
6.350	0.005939
6.355	0.005968
6.360	0.005987
6.365	0.005989
6.370	0.005977
6.375	0.006015
6.380	0.006015
6.385	0.006033
6.390	0.006046
6.395	0.006039
6.400	0.006054
6.405	0.006056
6.410	0.006062
6.415	0.006071
6.420	0.006081
6.425	0.006123
6.430	0.006113
6.435	0.006146
6.440	0.006132
6.445	0.006151
6.450	0.006167
6.455	0.006186
6.460	0.006168
6.465	0.006189
6.470	0.006219
6.475	0.006212
6.480	0.006219
6.485	0.006246
6.490	0.006257
6.495	0.006258
6.500	0.006253
6.505	0.006255
6.510	0.006300
6.515	0.006267
6.520	0.006319
6.525	0.006311
6.530	0.006344
6.535	0.006346
6.540	0.006360
6.545	0.006363
6.550	0.006380
6.555	0.006383
6.560	0.006399
6.565	0.006436
6.570	0.006417
6.575	0.006435
6.580	0.006432
6.585	0.006458
6.590	0.006483
6.595	0.006481
6.600	0.006479
6.605	0.006484
6.610	0.006502
6.615	0.006531
6.620	0.006553
6.625	0.006551
6.630	0.006589
6.635	0.006589
6.640	0.006596
6.645	0.006572
6.650	0.006604
6.655	0.006607
6.660	0.006629
6.665	0.006633
6.670	0.006668
6.675	0.006682
6.680	0.006669
6.685	0.006672
6.690	0.006681
6.695	0.006721
6.700	0.006720
6.705	0.006723
6.710	0.006752
6.715	0.006754
6.720	0.006771
6.725	0.006800
6.730	0.006815
6.735	0.006833
6.740	0.006813
6.745	0.006851
6.750	0.006847
6.755	0.006861
6.760	0.006894
6.765	0.006885
6.770	0.006907
6.775	0.006925
6.780	0.006941
6.785	0.006943
6.790	0.006993
6.795	0.006979
6.800	0.006964
6.805	0.006997
6.810	0.007014
6.815	0.007044
6.820	0.007053
6.825	0.007063
6.830	0.007065
6.835	0.007075
6.840	0.007089
6.845	0.007109
6.850	0.007106
6.855	0.007128
6.860	0.007152
6.865	0.007156
6.870	0.007198
6.875	0.007208
6.880	0.007224
6.885	0.007208
6.890	0.007227
6.895	0.007258
6.900	0.007256
6.905	0.007268
6.910	0.007295
6.915	0.007302
6.920	0.007316
6.925	0.007319
6.930	0.007346
6.935	0.007374
6.940	0.007386
6.945	0.007371
6.950	0.007402
6.955	0.007423
6.960	0.007431
6.965	0.007461
6.970	0.007477
6.975	0.007473
6.980	0.007503
6.985	0.007498
6.990	0.007533
6.995	0.007531
7.000	0.007569
7.005	0.007594
7.010	0.007591
7.015	0.007605
7.020	0.007622
7.025	0.007617
7.030	0.007666
7.035	0.007657
7.040	0.007673
7.045	0.007704
7.050	0.007712
7.055	0.007716
7.060	0.007752
7.065	0.007775
7.070	0.007787
7.075	0.007792
7.080	0.007822
7.085	0.007822
7.090	0.007879
7.095	0.007870
7.100	0.007879
7.105	0.007876
7.110	0.007920
7.115	0.007923
7.120	0.007956
7.125	0.007963
7.130	0.007979
7.135	0.007992
7.140	0.008014
7.145	0.008036
7.150	0.008064
7.155	0.008075
7.160	0.008094
7.165	0.008106
7.170	0.008125
7.175	0.008134
7.180	0.008165
7.185	0.008169
7.190	0.008189
7.195	0.008221
7.200	0.008239
7.205	0.008250
7.210	0.008263
7.215	0.008271
7.220	0.008304
7.225	0.008318
7.230	0.008327
7.235	0.008342
7.240	0.008378
7.245	0.008382
7.250	0.008408
7.255	0.008425
7.260	0.008454
7.265	0.008459
7.270	0.008492
7.275	0.008510
7.280	0.008525
7.285	0.008565
7.290	0.008563
7.295	0.008595
7.300	0.008603
7.305	0.008623
7.310	0.008650
7.315	0.008674
7.320	0.008693
7.325	0.008701
7.330	0.008733
7.335	0.008747
7.340	0.008768
7.345	0.008812
7.350	0.008816
7.355	0.008825
7.360	0.008852
7.365	0.008875
7.370	0.008931
7.375	0.008928
7.380	0.008951
7.385	0.008978
7.390	0.009017
7.395	0.008998
7.400	0.009026
7.405	0.009063
7.410	0.009093
7.415	0.009097
7.420	0.009128
7.425	0.009148
7.430	0.009180
7.435	0.009185
7.440	0.009210
7.445	0.009248
7.450	0.009271
7.455	0.009313
7.460	0.009310
7.465	0.009343
7.470	0.009363
7.475	0.009397
7.480	0.009428
7.485	0.009447
7.490	0.009480
7.495	0.009500
7.500	0.009514
7.505	0.009541
7.510	0.009558
7.515	0.009592
7.520	0.009617
7.525	0.009658
7.530	0.009674
7.535	0.009702
7.540	0.009741
7.545	0.009758
7.550	0.009775
7.555	0.009817
7.560	0.009826
7.565	0.009867
7.570	0.009874
7.575	0.009905
7.580	0.009952
7.585	0.009953
7.590	0.009999
7.595	0.010016
7.600	0.010056
7.605	0.010077
7.610	0.010104
7.615	0.010136
7.620	0.010179
7.625	0.010219
7.630	0.010220
7.635	0.010264
7.640	0.010300
7.645	0.010309
7.650	0.010321
7.655	0.010351
7.660	0.010365
7.665	0.010416
7.670	0.010458
7.675	0.010485
7.680	0.010530
7.685	0.010557
7.690	0.010597
7.695	0.010619
7.700	0.010651
7.705	0.010686
7.710	0.010698
7.715	0.010747
7.720	0.010786
7.725	0.010811
7.730	0.010847
7.735	0.010898
7.740	0.010910
7.745	0.010948
7.750	0.011002
7.755	0.011023
7.760	0.011053
7.765	0.011090
7.770	0.011132
7.775	0.011161
7.780	0.011212
7.785	0.011243
7.790	0.011284
7.795	0.011298
7.800	0.011350
7.805	0.011400
7.810	0.011423
7.815	0.011458
7.820	0.011475
7.825	0.011537
7.830	0.011597
7.835	0.011615
7.840	0.011650
7.845	0.011690
7.850	0.011757
7.855	0.011784
7.860	0.011846
7.865	0.011859
7.870	0.011908
7.875	0.011950
7.880	0.011994
7.885	0.012067
7.890	0.012090
7.895	0.012134
7.900	0.012194
7.905	0.012211
7.910	0.012264
7.915	0.012314
7.920	0.012369
7.925	0.012381
7.930	0.012459
7.935	0.012470
7.940	0.012499
7.945	0.012589
7.950	0.012641
7.955	0.012684
7.960	0.012732
7.965	0.012781
7.970	0.012844
7.975	0.012867
7.980	0.012931
7.985	0.012984
7.990	0.013018
7.995	0.013100
8.000	0.013179
8.005	0.013194
8.010	0.013257
8.015	0.013309
8.020	0.013369
8.025	0.013448
8.030	0.013509
8.035	0.013541
8.040	0.013591
8.045	0.013655
8.050	0.013731
8.055	0.013769
8.060	0.013838
8.065	0.013925
8.070	0.013990
8.075	0.014059
8.080	0.014113
8.085	0.014185
8.090	0.014250
8.095	0.014298
8.100	0.014362
8.105	0.014446
8.110	0.014521
8.115	0.014557
8.120	0.014654
8.125	0.014740
8.130	0.014768
8.135	0.014856
8.140	0.014938
8.145	0.015011
8.150	0.015110
8.155	0.015185
8.160	0.015271
8.165	0.015335
8.170	0.015442
8.175	0.015513
8.180	0.015594
8.185	0.015666
8.190	0.015776
8.195	0.015849
8.200	0.015943
8.205	0.016010
8.210	0.016135
8.215	0.016241
8.220	0.016318
8.225	0.016399
8.230	0.016528
8.235	0.016613
8.240	0.016668
8.245	0.016795
8.250	0.016901
8.255	0.017002
8.260	0.017115
8.265	0.017211
8.270	0.017321
8.275	0.017423
8.280	0.017556
8.285	0.017683
8.290	0.017773
8.295	0.017889
8.300	0.018020
8.305	0.018124
8.310	0.018255
8.315	0.018395
8.320	0.018522
8.325	0.018655
8.330	0.018811
8.335	0.018946
8.340	0.019083
8.345	0.019226
8.350	0.019357
8.355	0.019527
8.360	0.019668
8.365	0.019822
8.370	0.020000
8.375	0.020163
8.380	0.020339
8.385	0.020517
8.390	0.020673
8.395	0.020860
8.400	0.021059
8.405	0.021246
8.410	0.021428
8.415	0.021610
8.420	0.021841
8.425	0.022068
8.430	0.022278
8.435	0.022520
8.440	0.022767
8.445	0.022987
8.450	0.023240
8.455	0.023511
8.460	0.023817
8.465	0.024073
8.470	0.024398
8.475	0.024708
8.480	0.025023
8.485	0.025345
8.490	0.025695
8.495	0.026071
8.500	0.026444
8.505	0.026823
8.510	0.027250
8.515	0.027686
8.520	0.028109
8.525	0.028642
8.530	0.029121
8.535	0.029644
8.540	0.030211
8.545	0.030767
8.550	0.031393
8.555	0.032080
8.560	0.032862
8.565	0.033573
8.570	0.034352
8.575	0.035340
8.580	0.036444
8.585	0.037515
8.590	0.038733
8.595	0.040088
8.600	0.041549
8.605	0.042957
8.610	0.044290
8.615	0.045838
8.620	0.047890
8.625	0.050465
8.630	0.053591
8.635	0.057667
8.640	0.063215
8.645	0.071161
8.650	0.082237
8.655	0.091493
8.660	0.095977
8.665	0.098171
8.670	0.094466
8.675	0.083947
8.680	0.067672
8.685	0.050338
8.690	0.033030
8.695	0.018266
8.700	0.007044
8.705	0.001748
8.710	0.000395
8.715	0.000202
8.720	0.000168
8.725	0.000148
8.730	0.000098
8.735	0.000108
8.740	0.000094
8.745	0.000079
8.750	0.000069
8.755	0.000074
8.760	0.000049
8.765	0.000069
8.770	0.000084
8.775	0.000079
8.780	0.000064
8.785	0.000044
8.790	0.000049
8.795	0.000054
8.800	0.000049
8.805	0.000054
8.810	0.000069
8.815	0.000049
8.820	0.000049
8.825	0.000039
8.830	0.000044
8.835	0.000040
8.840	0.000030
8.845	0.000040
8.850	0.000030
8.855	0.000040
8.860	0.000060
8.865	0.000040
8.870	0.000045
8.875	0.000050
8.880	0.000035
8.885	0.000030
8.890	0.000020
8.895	0.000060
8.900	0.000050
8.905	0.000045
8.910	0.000065
8.915	0.000055
8.920	0.000050
8.925	0.000050
8.930	0.000035
8.935	0.000045
8.940	0.000070
8.945	0.000040
8.950	0.000015
8.955	0.000045
8.960	0.000050
8.965	0.000035
8.970	0.000030
8.975	0.000030
8.980	0.000035
8.985	0.000025
8.990	0.000050
8.995	0.000041
9.000	0.000045
9.005	0.000040
9.010	0.000036
9.015	0.000050
9.020	0.000035
9.025	0.000035
9.030	0.000055
9.035	0.000060
9.040	0.000035
9.045	0.000075
9.050	0.000036
9.055	0.000041
9.060	0.000031
9.065	0.000036
9.070	0.000036
9.075	0.000031
9.080	0.000016
9.085	0.000006
9.090	0.000041
9.095	0.000046
9.100	0.000046
9.105	0.000056
9.110	0.000036
9.115	0.000036
9.120	0.000051
9.125	0.000051
9.130	0.000026
9.135	0.000051
9.140	0.000036
9.145	0.000031
9.150	0.000036
9.155	0.000056
9.160	0.000031
9.165	0.000031
9.170	0.000047
9.175	0.000032
9.180	0.000016
9.185	0.000002
9.190	0.000037
9.195	0.000057
9.200	0.000027
9.205	0.000052
9.210	0.000057
9.215	0.000067
9.220	0.000042
9.225	0.000042
9.230	0.000042
9.235	0.000057
9.240	0.000027
9.245	0.000062
9.250	0.000067
9.255	0.000052
9.260	0.000052
9.265	0.000052
9.270	0.000022
9.275	0.000022
9.280	0.000052
9.285	0.000047
9.290	0.000071
9.295	0.000042
9.300	0.000057
9.305	0.000047
9.310	0.000047
9.315	0.000057
9.320	0.000052
9.325	0.000072
9.330	0.000077
9.335	0.000057
9.340	0.000062
9.345	0.000067
9.350	0.000043
9.355	0.000072
9.360	0.000077
9.365	0.000072
9.370	0.000092
9.375	0.000107
9.380	0.000131
9.385	0.000156
9.390	0.000161
9.395	0.000161
9.400	0.000156
9.405	0.000122
9.410	0.000087
9.415	0.000038
9.420	0.000043
9.425	0.000043
9.430	0.000018
9.435	0.000023
9.440	-0.000001
9.445	-0.000001
9.450	-0.000021
9.455	-0.000011
9.460	0.000019
9.465	0.000009
9.470	-0.000011
9.475	-0.000001
9.480	-0.000006
9.485	0.000009
9.490	0.000009
9.495	0.000009
9.500	-0.000031
9.505	-0.000011
9.510	-0.000011
9.515	-0.000016
9.520	-0.000021
9.525	-0.000006
9.530	0.000004
9.535	-0.000021
9.540	-0.000026
9.545	-0.000021
9.550	0.000009
9.555	-0.000011
9.560	-0.000041
9.565	-0.000006
9.570	-0.000005
9.575	0.000019
9.580	-0.000016
9.585	-0.000016
9.590	-0.000005
9.595	0.000009
9.600	-0.000021
9.605	-0.000031
9.610	-0.000025
9.615	-0.000000
9.620	-0.000016
9.625	-0.000021
9.630	0.000010
9.635	0.000005
9.640	0.000010
9.645	-0.000005
9.650	-0.000000
9.655	0.000005
9.660	-0.000010
9.665	-0.000025
9.670	-0.000010
9.675	0.000005
9.680	-0.000025
9.685	-0.000015
9.690	0.000000
9.695	-0.000010
9.700	-0.000015
9.705	-0.000005
9.710	-0.000010
9.715	-0.000005
9.720	0.000015
9.725	0.000005
9.730	0.000005
9.735	-0.000019
9.740	-0.000034
9.745	0.000000
9.750	0.000005
9.755	-0.000019
9.760	-0.000044
9.765	-0.000015
9.770	0.000001
9.775	-0.000014
9.780	-0.000015
9.785	-0.000010
9.790	-0.000024
9.795	-0.000019
9.800	-0.000019
9.805	-0.000004
9.810	-0.000009
9.815	-0.000024
9.820	0.000005
9.825	-0.000004
9.830	-0.000014
9.835	-0.000044
9.840	-0.000024
9.845	-0.000004
9.850	0.000001
9.855	-0.000009
9.860	-0.000044
9.865	-0.000004
9.870	-0.000014
9.875	0.000016
9.880	-0.000009
9.885	0.000001
9.890	-0.000004
9.895	-0.000004
9.900	-0.000024
9.905	-0.000019
9.910	-0.000004
9.915	-0.000019
9.920	-0.000024
9.925	-0.000024
9.930	-0.000023
9.935	-0.000033
9.940	-0.000019
9.945	-0.000024
9.950	-0.000008
9.955	-0.000023
9.960	-0.000014
9.965	-0.000029
9.970	-0.000028
9.975	-0.000003
9.980	-0.000029
9.985	-0.000009
9.990	-0.000018
9.995	-0.000003
10.000	-0.000034
10.005	-0.000029
10.010	-0.000023
10.015	-0.000028
10.020	-0.000004
10.025	-0.000024
10.030	-0.000014
10.035	-0.000013
10.040	-0.000023
10.045	-0.000013
10.050	-0.000033
10.055	-0.000023
10.060	-0.000023
10.065	-0.000008
10.070	-0.000038
10.075	-0.000018
10.080	0.000002
10.085	-0.000018
10.090	-0.000028
10.095	0.000002
10.100	-0.000003
10.105	0.000007
10.110	-0.000028
10.115	0.000002
10.120	-0.000003
10.125	-0.000038
10.130	-0.000013
10.135	-0.000038
10.140	-0.000033
10.145	-0.000013
10.150	-0.000023
10.155	-0.000023
10.160	-0.000008
10.165	-0.000023
10.170	-0.000033
10.175	-0.000028
10.180	-0.000008
10.185	-0.000008
10.190	-0.000018
10.195	-0.000023
10.200	-0.000017
10.205	-0.000008
10.210	-0.000008
10.215	-0.000032
10.220	-0.000008
10.225	-0.000008
10.230	-0.000027
10.235	-0.000018
10.240	-0.000027
10.245	0.000003
10.250	-0.000032
10.255	-0.000032
10.260	-0.000002
10.265	-0.000022
10.270	-0.000012
10.275	-0.000032
10.280	-0.000032
10.285	-0.000007
10.290	-0.000022
10.295	0.000008
10.300	-0.000037
10.305	0.000003
10.310	0.000003
10.315	-0.000017
10.320	-0.000022
10.325	-0.000022
10.330	-0.000027
10.335	-0.000042
10.340	-0.000007
10.345	-0.000027
10.350	-0.000007
10.355	-0.000022
10.360	-0.000007
10.365	-0.000036
10.370	-0.000007
10.375	-0.000022
10.380	-0.000016
10.385	-0.000031
10.390	-0.000046
10.395	-0.000032
10.400	-0.000006
10.405	-0.000016
10.410	0.000003
10.415	0.000003
10.420	-0.000061
10.425	-0.000026
10.430	-0.000036
10.435	-0.000021
10.440	-0.000021
10.445	-0.000031
10.450	-0.000016
10.455	-0.000021
10.460	-0.000011
10.465	-0.000006
10.470	-0.000001
10.475	-0.000016
10.480	-0.000001
10.485	-0.000001
10.490	-0.000006
10.495	-0.000051
10.500	-0.000001
10.505	-0.000006
10.510	-0.000036
10.515	-0.000001
10.520	-0.000006
10.525	-0.000016
10.530	-0.000021
10.535	-0.000011
10.540	-0.000016
10.545	-0.000006
10.550	-0.000016
10.555	-0.000011
10.560	-0.000011
10.565	-0.000011
10.570	-0.000021
10.575	-0.000025
10.580	-0.000026
10.585	-0.000026
10.590	-0.000016
10.595	-0.000025
10.600	-0.000026
10.605	-0.000006
10.610	-0.000010
10.615	0.000014
10.620	-0.000026
10.625	-0.000031
10.630	-0.000040
10.635	-0.000020
10.640	-0.000016
10.645	-0.000035
10.650	-0.000030
10.655	-0.000025
10.660	-0.000015
10.665	-0.000030
10.670	-0.000010
10.675	-0.000015
10.680	-0.000050
10.685	-0.000030
10.690	-0.000020
10.695	-0.000030
10.700	-0.000045
10.705	-0.000025
10.710	-0.000040
10.715	-0.000025
10.720	-0.000050
10.725	-0.000040
10.730	-0.000020
10.735	-0.000025
10.740	-0.000040
10.745	-0.000045
10.750	-0.000024
10.755	-0.000029
10.760	-0.000020
10.765	-0.000015
10.770	-0.000009
10.775	-0.000009
10.780	-0.000034
10.785	-0.000034
10.790	-0.000014
10.795	-0.000024
10.800	-0.000049
10.805	-0.000039
10.810	-0.000024
10.815	0.000006
10.820	-0.000024
10.825	-0.000019
10.830	-0.000014
10.835	-0.000039
10.840	-0.000029
10.845	-0.000029
10.850	-0.000004
10.855	-0.000019
10.860	-0.000024
10.865	-0.000034
10.870	-0.000038
10.875	-0.000024
10.880	-0.000039
10.885	-0.000014
10.890	-0.000014
10.895	-0.000038
10.900	0.000001
10.905	-0.000049
10.910	-0.000019
10.915	-0.000039
10.920	-0.000004
10.925	-0.000009
10.930	-0.000058
10.935	-0.000029
10.940	-0.000023
10.945	-0.000023
10.950	-0.000014
10.955	-0.000033
10.960	-0.000008
10.965	-0.000023
10.970	-0.000033
10.975	-0.000023
10.980	-0.000008
10.985	-0.000028
10.990	-0.000003
10.995	-0.000003
11.000	-0.000042
11.005	-0.000003
11.010	-0.000008
11.015	0.000022
11.020	-0.000018
11.025	-0.000003
11.030	-0.000003
11.035	-0.000023
11.040	-0.000018
11.045	-0.000013
11.050	0.000012
11.055	-0.000037
11.060	-0.000013
11.065	-0.000018
11.070	-0.000003
11.075	0.000002
11.080	-0.000018
11.085	-0.000008
11.090	-0.000012
11.095	-0.000013
11.100	-0.000033
11.105	-0.000022
11.110	-0.000002
11.115	0.000017
11.120	-0.000007
11.125	-0.000017
11.130	0.000003
11.135	-0.000007
11.140	-0.000047
11.145	-0.000052
11.150	-0.000012
11.155	-0.000002
11.160	-0.000028
11.165	-0.000032
11.170	-0.000017
11.175	-0.000017
11.180	-0.000023
11.185	-0.000027
11.190	-0.000017
11.195	-0.000022
11.200	-0.000042
11.205	-0.000047
11.210	-0.000027
11.215	-0.000022
11.220	-0.000017
11.225	-0.000017
11.230	-0.000017
11.235	-0.000042
11.240	-0.000022
11.245	-0.000032
11.250	-0.000027
11.255	-0.000022
11.260	0.000008
11.265	-0.000027
11.270	-0.000022
11.275	-0.000007
11.280	-0.000042
11.285	-0.000002
11.290	-0.000027
11.295	-0.000007
11.300	-0.000041
11.305	-0.000032
11.310	-0.000042
11.315	-0.000032
11.320	-0.000036
11.325	-0.000011
11.330	-0.000036
11.335	-0.000026
11.340	-0.000011
11.345	-0.000006
11.350	-0.000021
11.355	-0.000016
11.360	-0.000016
11.365	-0.000026
11.370	-0.000007
11.375	-0.000011
11.380	-0.000021
11.385	-0.000016
11.390	-0.000021
11.395	-0.000011
11.400	-0.000011
11.405	-0.000006
11.410	-0.000011
11.415	-0.000021
11.420	-0.000011
11.425	-0.000006
11.430	-0.000026
11.435	-0.000026
11.440	-0.000020
11.445	-0.000016
11.450	-0.000031
11.455	-0.000030
11.460	-0.000020
11.465	-0.000030
11.470	-0.000021
11.475	-0.000011
11.480	-0.000015
11.485	-0.000015
11.490	-0.000026
11.495	-0.000036
11.500	-0.000030
11.505	-0.000015
11.510	-0.000031
11.515	-0.000046
11.520	0.000004
11.525	-0.000030
11.530	-0.000040
11.535	-0.000050
11.540	-0.000015
11.545	-0.000030
11.550	-0.000025
11.555	-0.000020
11.560	-0.000035
11.565	-0.000030
11.570	-0.000005
11.575	-0.000040
11.580	-0.000015
11.585	-0.000040
11.590	-0.000025
11.595	-0.000025
11.600	-0.000020
11.605	-0.000005
11.610	-0.000040
11.615	-0.000030
11.620	-0.000025
11.625	0.000004
11.630	-0.000055
11.635	-0.000045
11.640	-0.000035
11.645	-0.000025
11.650	-0.000030
11.655	-0.000040
11.660	-0.000035
11.665	-0.000025
11.670	-0.000030
11.675	-0.000035
11.680	-0.000025
11.685	-0.000045
11.690	-0.000029
11.695	-0.000049
11.700	-0.000025
11.705	-0.000015
11.710	-0.000034
11.715	-0.000020
11.720	-0.000025
11.725	-0.000025
11.730	-0.000049
11.735	-0.000025
11.740	-0.000019
11.745	-0.000025
11.750	-0.000029
11.755	-0.000029
11.760	-0.000029
11.765	-0.000044
11.770	-0.000019
11.775	-0.000009
11.780	-0.000039
11.785	-0.000034
11.790	-0.000034
11.795	-0.000009
11.800	-0.000039
11.805	-0.000054
11.810	-0.000034
11.815	-0.000039
11.820	-0.000049
11.825	-0.000019
11.830	-0.000039
11.835	-0.000024
11.840	-0.000034
11.845	0.000006
11.850	-0.000054
11.855	-0.000039
11.860	-0.000019
11.865	-0.000044
11.870	-0.000059
11.875	-0.000044
11.880	-0.000029
11.885	-0.000019
11.890	-0.000004
11.895	-0.000013
11.900	-0.000004
11.905	-0.000048
11.910	-0.000028
11.915	-0.000043
11.920	-0.000019
11.925	-0.000018
11.930	-0.000018
11.935	-0.000008
11.940	-0.000014
11.945	-0.000023
11.950	-0.000033
11.955	-0.000018
11.960	-0.000008
11.965	-0.000023
11.970	-0.000013
11.975	-0.000013
11.980	-0.000043
11.985	-0.000018
11.990	-0.000018
11.995	-0.000013
12.000	-0.000023
12.005	-0.000028
12.010	-0.000003
12.015	-0.000032
12.020	-0.000018
12.025	-0.000042
12.030	-0.000032
12.035	-0.000012
12.040	-0.000023
12.045	-0.000013
12.050	-0.000002
12.055	-0.000022
12.060	-0.000018
12.065	-0.000023
12.070	-0.000022
12.075	-0.000007
12.080	-0.000027
12.085	-0.000027
12.090	-0.000007
12.095	0.000008
12.100	-0.000023
12.105	-0.000042
12.110	-0.000022
12.115	-0.000007
12.120	-0.000017
12.125	-0.000042
12.130	-0.000022
12.135	-0.000017
12.140	-0.000022
12.145	-0.000027
12.150	-0.000012
12.155	-0.000012
12.160	-0.000017
12.165	-0.000012
12.170	-0.000002
12.175	-0.000041
12.180	-0.000002
12.185	-0.000017
12.190	-0.000007
12.195	-0.000012
12.200	-0.000022
12.205	-0.000037
12.210	-0.000016
12.215	-0.000026
12.220	-0.000047
12.225	-0.000027
12.230	-0.000007
12.235	-0.000017
12.240	-0.000027
12.245	-0.000007
12.250	-0.000011
12.255	-0.000011
12.260	-0.000016
12.265	-0.000016
12.270	-0.000011
12.275	-0.000006
12.280	-0.000016
12.285	-0.000031
12.290	-0.000016
12.295	-0.000011
12.300	-0.000031
12.305	-0.000031
12.310	-0.000021
12.315	-0.000036
12.320	-0.000036
12.325	-0.000026
12.330	-0.000016
12.335	-0.000041
12.340	-0.000036
12.345	-0.000031
12.350	-0.000021
12.355	-0.000021
12.360	-0.000036
12.365	-0.000031
12.370	0.000004
12.375	-0.000026
12.380	-0.000031
12.385	-0.000031
12.390	-0.000026
12.395	-0.000056
12.400	-0.000016
12.405	-0.000006
12.410	-0.000046
12.415	-0.000041
12.420	-0.000041
12.425	-0.000036
12.430	-0.000036
12.435	-0.000031
12.440	-0.000046
12.445	-0.000041
12.450	-0.000016
12.455	-0.000016
12.460	-0.000046
12.465	-0.000026
12.470	-0.000020
12.475	-0.000020
12.480	-0.000055
12.485	-0.000036
12.490	0.000005
12.495	-0.000020
12.500	-0.000035
12.505	-0.000045
12.510	-0.000010
12.515	-0.000020
12.520	-0.000055
12.525	-0.000020
12.530	-0.000010
12.535	-0.000020
12.540	-0.000035
12.545	-0.000035
12.550	-0.000025
12.555	-0.000025
12.560	-0.000050
12.565	-0.000025
12.570	-0.000035
12.575	-0.000035
12.580	-0.000050
12.585	-0.000040
12.590	-0.000020
12.595	-0.000035
12.600	-0.000045
12.605	-0.000030
12.610	-0.000030
12.615	-0.000015
12.620	-0.000040
12.625	-0.000040
12.630	-0.000024
12.635	-0.000019
12.640	-0.000040
12.645	-0.000034
12.650	-0.000009
12.655	-0.000010
12.660	-0.000020
12.665	-0.000030
12.670	-0.000034
12.675	-0.000024
12.680	-0.000039
12.685	-0.000039
12.690	-0.000009
12.695	-0.000024
12.700	-0.000030
12.705	-0.000030
12.710	-0.000024
12.715	-0.000044
12.720	-0.000044
12.725	-0.000029
12.730	-0.000019
12.735	-0.000024
12.740	-0.000034
12.745	-0.000034
12.750	-0.000009
12.755	-0.000014
12.760	-0.000019
12.765	-0.000034
12.770	-0.000023
12.775	-0.000028
12.780	-0.000004
12.785	-0.000049
12.790	-0.000009
12.795	-0.000019
12.800	-0.000034
12.805	-0.000034
12.810	-0.000043
12.815	-0.000038
12.820	-0.000044
12.825	-0.000033
12.830	-0.000013
12.835	-0.000028
12.840	-0.000048
12.845	-0.000038
12.850	-0.000008
12.855	0.000001
12.860	-0.000014
12.865	-0.000033
12.870	-0.000023
12.875	-0.000043
12.880	-0.000053
12.885	-0.000063
12.890	-0.000043
12.895	-0.000053
12.900	-0.000023
12.905	-0.000033
12.910	-0.000033
12.915	-0.000033
12.920	-0.000058
12.925	-0.000023
12.930	-0.000063
12.935	-0.000048
12.940	-0.000048
12.945	-0.000053
12.950	-0.000057
12.955	-0.000038
12.960	-0.000053
12.965	-0.000043
12.970	-0.000033
12.975	-0.000067
12.980	-0.000033
12.985	-0.000048
12.990	-0.000072
12.995	-0.000038
13.000	-0.000047
13.005	-0.000057
13.010	-0.000072
13.015	-0.000043
13.020	-0.000042
13.025	-0.000052
13.030	-0.000048
13.035	-0.000042
13.040	-0.000027
13.045	-0.000032
13.050	-0.000038
13.055	-0.000023
13.060	-0.000017
13.065	-0.000027
13.070	-0.000008
13.075	-0.000023
13.080	-0.000012
13.085	-0.000017
13.090	-0.000028
13.095	-0.000033
13.100	-0.000012
13.105	-0.000002
13.110	-0.000047
13.115	-0.000042
13.120	-0.000042
13.125	-0.000022
13.130	-0.000037
13.135	-0.000037
13.140	-0.000012
13.145	-0.000036
13.150	-0.000047
13.155	-0.000041
13.160	-0.000012
13.165	-0.000027
13.170	-0.000017
13.175	-0.000037
13.180	-0.000002
13.185	-0.000007
13.190	-0.000046
13.195	-0.000031
13.200	-0.000021
13.205	-0.000026
13.210	-0.000027
13.215	-0.000031
13.220	-0.000026
13.225	-0.000027
13.230	-0.000017
13.235	-0.000022
13.240	-0.000007
13.245	-0.000031
13.250	-0.000037
13.255	-0.000056
13.260	-0.000041
13.265	-0.000041
13.270	-0.000026
13.275	-0.000046
13.280	-0.000031
13.285	-0.000016
13.290	-0.000031
13.295	-0.000036
13.300	-0.000016
13.305	-0.000016
13.310	-0.000036
13.315	-0.000031
13.320	-0.000021
13.325	-0.000006
13.330	-0.000041
13.335	-0.000031
13.340	-0.000031
13.345	-0.000031
13.350	-0.000016
13.355	-0.000041
13.360	-0.000040
13.365	-0.000045
13.370	-0.000021
13.375	-0.000031
13.380	-0.000021
13.385	-0.000040
13.390	-0.000041
13.395	-0.000011
13.400	-0.000006
13.405	-0.000030
13.410	-0.000006
13.415	-0.000040
13.420	-0.000025
13.425	-0.000030
13.430	-0.000036
13.435	-0.000046
13.440	-0.000025
13.445	-0.000011
13.450	-0.000030
13.455	-0.000045
13.460	-0.000035
13.465	-0.000045
13.470	-0.000050
13.475	-0.000050
13.480	-0.000036
13.485	-0.000035
13.490	-0.000035
13.495	-0.000030
13.500	-0.000020
13.505	-0.000070
13.510	-0.000030
13.515	-0.000030
13.520	-0.000020
13.525	-0.000035
13.530	-0.000015
13.535	-0.000045
13.540	-0.000030
13.545	-0.000045
13.550	-0.000005
13.555	-0.000020
13.560	-0.000020
13.565	-0.000030
13.570	-0.000015
13.575	-0.000015
13.580	-0.000020
13.585	-0.000025
13.590	-0.000005
13.595	-0.000035
13.600	-0.000040
13.605	-0.000045
13.610	-0.000005
13.615	-0.000025
13.620	-0.000030
13.625	-0.000030
13.630	-0.000019
13.635	-0.000029
13.640	-0.000054
13.645	-0.000020
13.650	-0.000019
13.655	-0.000029
13.660	-0.000035
13.665	-0.000034
13.670	0.000001
13.675	-0.000019
13.680	-0.000049
13.685	-0.000044
13.690	-0.000019
13.695	-0.000024
13.700	-0.000039
