PK2650 Deflection Data
Z Position (mm)	50.000	W Position (deg)	120.00
Preform ID	Diameter (mm)	Time Stamp	Start Time	Operator	Serial Number
test	18	22-Mar-23 22:58:02	22-Mar-23 23:04:36	[no user]	56941311
Radius (mm)	Deflection
-13.685	-0.000003
-13.680	0.000017
-13.675	0.000017
-13.670	0.000012
-13.665	-0.000017
-13.660	0.000013
-13.655	0.000013
-13.650	0.000018
-13.645	0.000013
-13.640	-0.000002
-13.635	-0.000002
-13.630	0.000008
-13.625	0.000028
-13.620	0.000003
-13.615	-0.000007
-13.610	0.000008
-13.605	0.000013
-13.600	0.000023
-13.595	0.000023
-13.590	0.000008
-13.585	0.000013
-13.580	0.000008
-13.575	-0.000012
-13.570	0.000008
-13.565	-0.000006
-13.560	0.000008
-13.555	-0.000007
-13.550	0.000023
-13.545	0.000014
-13.540	0.000023
-13.535	0.000028
-13.530	-0.000011
-13.525	0.000043
-13.520	-0.000006
-13.515	0.000033
-13.510	0.000029
-13.505	0.000019
-13.500	0.000004
-13.495	0.000019
-13.490	0.000039
-13.485	0.000024
-13.480	0.000019
-13.475	0.000024
-13.470	0.000019
-13.465	0.000034
-13.460	0.000024
-13.455	0.000029
-13.450	-0.000006
-13.445	0.000029
-13.440	0.000014
-13.435	0.000034
-13.430	0.000034
-13.425	0.000014
-13.420	0.000014
-13.415	0.000019
-13.410	0.000034
-13.405	0.000014
-13.400	0.000019
-13.395	0.000029
-13.390	0.000024
-13.385	0.000004
-13.380	-0.000006
-13.375	0.000029
-13.370	0.000009
-13.365	0.000009
-13.360	0.000024
-13.355	0.000010
-13.350	0.000029
-13.345	0.000029
-13.340	-0.000015
-13.335	0.000025
-13.330	0.000010
-13.325	0.000015
-13.320	0.000020
-13.315	0.000025
-13.310	0.000020
-13.305	-0.000015
-13.300	-0.000000
-13.295	0.000040
-13.290	-0.000000
-13.285	0.000010
-13.280	0.000010
-13.275	-0.000000
-13.270	0.000010
-13.265	0.000005
-13.260	0.000020
-13.255	0.000010
-13.250	-0.000010
-13.245	0.000020
-13.240	0.000035
-13.235	-0.000015
-13.230	0.000025
-13.225	-0.000009
-13.220	-0.000014
-13.215	0.000005
-13.210	-0.000009
-13.205	0.000011
-13.200	0.000020
-13.195	0.000030
-13.190	0.000016
-13.185	0.000036
-13.180	0.000016
-13.175	0.000006
-13.170	0.000011
-13.165	0.000031
-13.160	0.000036
-13.155	0.000026
-13.150	0.000006
-13.145	0.000026
-13.140	0.000011
-13.135	0.000011
-13.130	0.000031
-13.125	0.000036
-13.120	0.000026
-13.115	0.000036
-13.110	0.000021
-13.105	0.000031
-13.100	0.000011
-13.095	0.000031
-13.090	0.000031
-13.085	0.000026
-13.080	0.000056
-13.075	0.000036
-13.070	0.000016
-13.065	0.000046
-13.060	0.000051
-13.055	0.000011
-13.050	0.000012
-13.045	0.000002
-13.040	0.000012
-13.035	0.000007
-13.030	0.000022
-13.025	0.000022
-13.020	0.000027
-13.015	0.000032
-13.010	0.000047
-13.005	0.000042
-13.000	0.000017
-12.995	0.000022
-12.990	0.000017
-12.985	0.000022
-12.980	0.000002
-12.975	0.000017
-12.970	0.000032
-12.965	0.000027
-12.960	0.000022
-12.955	0.000022
-12.950	0.000047
-12.945	0.000032
-12.940	0.000027
-12.935	0.000022
-12.930	0.000012
-12.925	0.000037
-12.920	0.000017
-12.915	0.000022
-12.910	0.000022
-12.905	0.000008
-12.900	0.000013
-12.895	0.000032
-12.890	0.000038
-12.885	0.000023
-12.880	0.000038
-12.875	0.000023
-12.870	0.000043
-12.865	0.000008
-12.860	0.000023
-12.855	0.000013
-12.850	0.000023
-12.845	0.000018
-12.840	0.000033
-12.835	-0.000002
-12.830	0.000033
-12.825	0.000033
-12.820	0.000043
-12.815	0.000018
-12.810	0.000013
-12.805	0.000023
-12.800	0.000008
-12.795	0.000033
-12.790	0.000008
-12.785	0.000008
-12.780	-0.000002
-12.775	0.000038
-12.770	0.000013
-12.765	-0.000007
-12.760	0.000008
-12.755	0.000008
-12.750	0.000008
-12.745	0.000008
-12.740	0.000013
-12.735	0.000033
-12.730	0.000019
-12.725	0.000018
-12.720	0.000043
-12.715	0.000014
-12.710	0.000019
-12.705	-0.000001
-12.700	0.000009
-12.695	0.000019
-12.690	0.000014
-12.685	0.000004
-12.680	-0.000011
-12.675	0.000024
-12.670	0.000029
-12.665	0.000019
-12.660	0.000009
-12.655	0.000009
-12.650	0.000014
-12.645	0.000024
-12.640	-0.000001
-12.635	-0.000006
-12.630	-0.000001
-12.625	0.000004
-12.620	0.000009
-12.615	0.000014
-12.610	0.000019
-12.605	0.000009
-12.600	-0.000005
-12.595	0.000010
-12.590	-0.000005
-12.585	0.000019
-12.580	0.000009
-12.575	0.000039
-12.570	0.000010
-12.565	0.000009
-12.560	0.000009
-12.555	0.000025
-12.550	0.000025
-12.545	0.000020
-12.540	0.000015
-12.535	0.000005
-12.530	-0.000000
-12.525	0.000040
-12.520	0.000015
-12.515	0.000030
-12.510	0.000015
-12.505	0.000005
-12.500	0.000015
-12.495	0.000050
-12.490	0.000000
-12.485	0.000010
-12.480	0.000010
-12.475	0.000000
-12.470	0.000020
-12.465	0.000000
-12.460	0.000015
-12.455	0.000010
-12.450	0.000020
-12.445	0.000000
-12.440	0.000015
-12.435	0.000010
-12.430	0.000020
-12.425	0.000020
-12.420	0.000015
-12.415	0.000016
-12.410	0.000015
-12.405	-0.000009
-12.400	0.000015
-12.395	0.000021
-12.390	0.000016
-12.385	0.000016
-12.380	0.000001
-12.375	0.000011
-12.370	0.000001
-12.365	0.000006
-12.360	0.000001
-12.355	-0.000014
-12.350	0.000016
-12.345	0.000026
-12.340	0.000016
-12.335	0.000006
-12.330	0.000041
-12.325	0.000016
-12.320	0.000016
-12.315	0.000011
-12.310	0.000026
-12.305	0.000036
-12.300	0.000007
-12.295	0.000021
-12.290	0.000036
-12.285	0.000017
-12.280	0.000036
-12.275	0.000022
-12.270	0.000032
-12.265	0.000017
-12.260	0.000046
-12.255	0.000012
-12.250	0.000032
-12.245	0.000022
-12.240	0.000032
-12.235	0.000022
-12.230	0.000027
-12.225	0.000007
-12.220	0.000022
-12.215	0.000012
-12.210	0.000012
-12.205	0.000007
-12.200	-0.000013
-12.195	0.000012
-12.190	-0.000003
-12.185	0.000002
-12.180	-0.000013
-12.175	0.000007
-12.170	0.000012
-12.165	-0.000003
-12.160	0.000002
-12.155	-0.000008
-12.150	-0.000028
-12.145	0.000007
-12.140	0.000002
-12.135	0.000002
-12.130	-0.000003
-12.125	0.000012
-12.120	0.000022
-12.115	-0.000003
-12.110	0.000012
-12.105	0.000023
-12.100	0.000018
-12.095	-0.000012
-12.090	0.000003
-12.085	0.000033
-12.080	0.000003
-12.075	0.000013
-12.070	0.000018
-12.065	-0.000002
-12.060	0.000008
-12.055	0.000018
-12.050	0.000018
-12.045	0.000003
-12.040	0.000008
-12.035	0.000013
-12.030	0.000028
-12.025	0.000003
-12.020	-0.000007
-12.015	0.000008
-12.010	0.000003
-12.005	0.000008
-12.000	0.000003
-11.995	0.000028
-11.990	0.000009
-11.985	0.000008
-11.980	0.000003
-11.975	0.000019
-11.970	0.000019
-11.965	-0.000006
-11.960	0.000008
-11.955	-0.000006
-11.950	0.000009
-11.945	-0.000011
-11.940	-0.000011
-11.935	0.000009
-11.930	0.000004
-11.925	0.000014
-11.920	-0.000026
-11.915	0.000004
-11.910	-0.000006
-11.905	0.000004
-11.900	-0.000006
-11.895	-0.000001
-11.890	-0.000021
-11.885	-0.000006
-11.880	-0.000016
-11.875	0.000009
-11.870	-0.000001
-11.865	-0.000001
-11.860	-0.000016
-11.855	-0.000005
-11.850	0.000009
-11.845	-0.000026
-11.840	-0.000020
-11.835	0.000005
-11.830	0.000019
-11.825	-0.000001
-11.820	-0.000000
-11.815	-0.000000
-11.810	0.000010
-11.805	-0.000000
-11.800	-0.000015
-11.795	-0.000000
-11.790	-0.000015
-11.785	-0.000000
-11.780	-0.000015
-11.775	-0.000020
-11.770	-0.000010
-11.765	-0.000010
-11.760	-0.000020
-11.755	-0.000005
-11.750	-0.000010
-11.745	-0.000020
-11.740	-0.000005
-11.735	0.000010
-11.730	-0.000005
-11.725	0.000015
-11.720	-0.000005
-11.715	0.000010
-11.710	0.000005
-11.705	0.000000
-11.700	-0.000024
-11.695	0.000011
-11.690	0.000010
-11.685	0.000005
-11.680	-0.000004
-11.675	-0.000009
-11.670	-0.000014
-11.665	-0.000004
-11.660	0.000011
-11.655	0.000001
-11.650	0.000001
-11.645	0.000001
-11.640	-0.000004
-11.635	0.000016
-11.630	0.000011
-11.625	0.000001
-11.620	0.000006
-11.615	0.000001
-11.610	-0.000004
-11.605	0.000001
-11.600	-0.000033
-11.595	-0.000009
-11.590	0.000001
-11.585	0.000001
-11.580	0.000001
-11.575	-0.000004
-11.570	0.000021
-11.565	-0.000004
-11.560	-0.000008
-11.555	-0.000013
-11.550	-0.000003
-11.545	-0.000003
-11.540	-0.000008
-11.535	0.000002
-11.530	0.000002
-11.525	0.000001
-11.520	-0.000018
-11.515	-0.000013
-11.510	-0.000008
-11.505	-0.000003
-11.500	-0.000013
-11.495	0.000022
-11.490	-0.000008
-11.485	-0.000003
-11.480	-0.000028
-11.475	-0.000003
-11.470	-0.000018
-11.465	-0.000003
-11.460	0.000002
-11.455	0.000007
-11.450	-0.000003
-11.445	-0.000013
-11.440	-0.000018
-11.435	0.000012
-11.430	-0.000013
-11.425	-0.000013
-11.420	-0.000013
-11.415	0.000007
-11.410	-0.000008
-11.405	-0.000028
-11.400	-0.000008
-11.395	-0.000033
-11.390	-0.000013
-11.385	-0.000002
-11.380	0.000017
-11.375	0.000002
-11.370	0.000002
-11.365	0.000008
-11.360	-0.000012
-11.355	0.000003
-11.350	0.000018
-11.345	0.000008
-11.340	-0.000022
-11.335	0.000018
-11.330	0.000008
-11.325	0.000008
-11.320	0.000003
-11.315	0.000008
-11.310	0.000003
-11.305	-0.000002
-11.300	0.000003
-11.295	-0.000007
-11.290	0.000018
-11.285	0.000003
-11.280	-0.000012
-11.275	-0.000012
-11.270	-0.000022
-11.265	-0.000002
-11.260	-0.000012
-11.255	-0.000002
-11.250	-0.000022
-11.245	-0.000017
-11.240	-0.000022
-11.235	-0.000027
-11.230	-0.000037
-11.225	-0.000027
-11.220	-0.000007
-11.215	-0.000022
-11.210	-0.000007
-11.205	-0.000006
-11.200	-0.000031
-11.195	-0.000011
-11.190	-0.000026
-11.185	0.000004
-11.180	-0.000026
-11.175	-0.000026
-11.170	-0.000016
-11.165	0.000004
-11.160	-0.000021
-11.155	-0.000001
-11.150	-0.000041
-11.145	-0.000021
-11.140	-0.000026
-11.135	-0.000016
-11.130	-0.000006
-11.125	-0.000021
-11.120	-0.000016
-11.115	-0.000026
-11.110	-0.000006
-11.105	-0.000016
-11.100	-0.000025
-11.095	-0.000006
-11.090	-0.000020
-11.085	-0.000011
-11.080	-0.000035
-11.075	-0.000030
-11.070	-0.000001
-11.065	-0.000021
-11.060	-0.000055
-11.055	-0.000010
-11.050	-0.000040
-11.045	-0.000016
-11.040	-0.000020
-11.035	-0.000020
-11.030	-0.000015
-11.025	-0.000030
-11.020	-0.000035
-11.015	-0.000010
-11.010	-0.000040
-11.005	-0.000040
-11.000	-0.000040
-10.995	-0.000020
-10.990	-0.000020
-10.985	-0.000035
-10.980	-0.000045
-10.975	-0.000025
-10.970	-0.000035
-10.965	-0.000030
-10.960	-0.000050
-10.955	-0.000039
-10.950	-0.000034
-10.945	-0.000050
-10.940	-0.000059
-10.935	-0.000044
-10.930	-0.000039
-10.925	-0.000035
-10.920	-0.000059
-10.915	-0.000024
-10.910	-0.000034
-10.905	-0.000045
-10.900	-0.000049
-10.895	-0.000034
-10.890	-0.000024
-10.885	-0.000044
-10.880	-0.000069
-10.875	-0.000014
-10.870	-0.000039
-10.865	-0.000044
-10.860	-0.000049
-10.855	-0.000039
-10.850	-0.000069
-10.845	-0.000064
-10.840	-0.000039
-10.835	-0.000029
-10.830	-0.000049
-10.825	-0.000034
-10.820	-0.000034
-10.815	-0.000039
-10.810	-0.000034
-10.805	-0.000054
-10.800	-0.000044
-10.795	-0.000034
-10.790	-0.000063
-10.785	-0.000079
-10.780	-0.000059
-10.775	-0.000043
-10.770	-0.000043
-10.765	-0.000049
-10.760	-0.000053
-10.755	-0.000053
-10.750	-0.000063
-10.745	-0.000063
-10.740	-0.000083
-10.735	-0.000058
-10.730	-0.000063
-10.725	-0.000078
-10.720	-0.000048
-10.715	-0.000038
-10.710	-0.000053
-10.705	-0.000053
-10.700	-0.000038
-10.695	-0.000043
-10.690	-0.000063
-10.685	-0.000058
-10.680	-0.000063
-10.675	-0.000068
-10.670	-0.000073
-10.665	-0.000063
-10.660	-0.000067
-10.655	-0.000073
-10.650	-0.000063
-10.645	-0.000062
-10.640	-0.000062
-10.635	-0.000058
-10.630	-0.000058
-10.625	-0.000032
-10.620	-0.000047
-10.615	-0.000048
-10.610	-0.000058
-10.605	-0.000062
-10.600	-0.000062
-10.595	-0.000082
-10.590	-0.000092
-10.585	-0.000087
-10.580	-0.000077
-10.575	-0.000087
-10.570	-0.000072
-10.565	-0.000082
-10.560	-0.000062
-10.555	-0.000067
-10.550	-0.000072
-10.545	-0.000082
-10.540	-0.000102
-10.535	-0.000077
-10.530	-0.000087
-10.525	-0.000092
-10.520	-0.000072
-10.515	-0.000062
-10.510	-0.000087
-10.505	-0.000082
-10.500	-0.000097
-10.495	-0.000056
-10.490	-0.000066
-10.485	-0.000087
-10.480	-0.000086
-10.475	-0.000076
-10.470	-0.000091
-10.465	-0.000086
-10.460	-0.000062
-10.455	-0.000066
-10.450	-0.000076
-10.445	-0.000101
-10.440	-0.000086
-10.435	-0.000086
-10.430	-0.000066
-10.425	-0.000091
-10.420	-0.000076
-10.415	-0.000091
-10.410	-0.000101
-10.405	-0.000096
-10.400	-0.000081
-10.395	-0.000081
-10.390	-0.000081
-10.385	-0.000076
-10.380	-0.000071
-10.375	-0.000086
-10.370	-0.000086
-10.365	-0.000076
-10.360	-0.000086
-10.355	-0.000071
-10.350	-0.000096
-10.345	-0.000076
-10.340	-0.000071
-10.335	-0.000076
-10.330	-0.000056
-10.325	-0.000066
-10.320	-0.000066
-10.315	-0.000056
-10.310	-0.000071
-10.305	-0.000071
-10.300	-0.000080
-10.295	-0.000075
-10.290	-0.000070
-10.285	-0.000075
-10.280	-0.000080
-10.275	-0.000085
-10.270	-0.000070
-10.265	-0.000075
-10.260	-0.000075
-10.255	-0.000075
-10.250	-0.000090
-10.245	-0.000080
-10.240	-0.000090
-10.235	-0.000090
-10.230	-0.000070
-10.225	-0.000090
-10.220	-0.000095
-10.215	-0.000085
-10.210	-0.000055
-10.205	-0.000100
-10.200	-0.000105
-10.195	-0.000050
-10.190	-0.000105
-10.185	-0.000065
-10.180	-0.000110
-10.175	-0.000120
-10.170	-0.000100
-10.165	-0.000150
-10.160	-0.000149
-10.155	-0.000124
-10.150	-0.000109
-10.145	-0.000100
-10.140	-0.000089
-10.135	-0.000109
-10.130	-0.000109
-10.125	-0.000094
-10.120	-0.000084
-10.115	-0.000094
-10.110	-0.000074
-10.105	-0.000084
-10.100	-0.000094
-10.095	-0.000129
-10.090	-0.000094
-10.085	-0.000094
-10.080	-0.000069
-10.075	-0.000109
-10.070	-0.000094
-10.065	-0.000084
-10.060	-0.000104
-10.055	-0.000109
-10.050	-0.000119
-10.045	-0.000094
-10.040	-0.000089
-10.035	-0.000099
-10.030	-0.000104
-10.025	-0.000089
-10.020	-0.000098
-10.015	-0.000094
-10.010	-0.000089
-10.005	-0.000098
-10.000	-0.000098
-9.995	-0.000119
-9.990	-0.000109
-9.985	-0.000098
-9.980	-0.000083
-9.975	-0.000094
-9.970	-0.000098
-9.965	-0.000078
-9.960	-0.000098
-9.955	-0.000089
-9.950	-0.000108
-9.945	-0.000083
-9.940	-0.000113
-9.935	-0.000109
-9.930	-0.000113
-9.925	-0.000133
-9.920	-0.000123
-9.915	-0.000128
-9.910	-0.000138
-9.905	-0.000088
-9.900	-0.000108
-9.895	-0.000103
-9.890	-0.000128
-9.885	-0.000088
-9.880	-0.000123
-9.875	-0.000118
-9.870	-0.000108
-9.865	-0.000103
-9.860	-0.000118
-9.855	-0.000133
-9.850	-0.000113
-9.845	-0.000103
-9.840	-0.000098
-9.835	-0.000118
-9.830	-0.000098
-9.825	-0.000122
-9.820	-0.000098
-9.815	-0.000113
-9.810	-0.000133
-9.805	-0.000108
-9.800	-0.000127
-9.795	-0.000137
-9.790	-0.000113
-9.785	-0.000132
-9.780	-0.000107
-9.775	-0.000107
-9.770	-0.000122
-9.765	-0.000087
-9.760	-0.000082
-9.755	-0.000117
-9.750	-0.000117
-9.745	-0.000107
-9.740	-0.000117
-9.735	-0.000087
-9.730	-0.000112
-9.725	-0.000092
-9.720	-0.000117
-9.715	-0.000117
-9.710	-0.000117
-9.705	-0.000087
-9.700	-0.000102
-9.695	-0.000102
-9.690	-0.000112
-9.685	-0.000111
-9.680	-0.000107
-9.675	-0.000122
-9.670	-0.000097
-9.665	-0.000126
-9.660	-0.000106
-9.655	-0.000107
-9.650	-0.000101
-9.645	-0.000106
-9.640	-0.000096
-9.635	-0.000097
-9.630	-0.000116
-9.625	-0.000111
-9.620	-0.000111
-9.615	-0.000101
-9.610	-0.000116
-9.605	-0.000096
-9.600	-0.000106
-9.595	-0.000111
-9.590	-0.000101
-9.585	-0.000096
-9.580	-0.000120
-9.575	-0.000125
-9.570	-0.000101
-9.565	-0.000106
-9.560	-0.000096
-9.555	-0.000101
-9.550	-0.000106
-9.545	-0.000121
-9.540	-0.000115
-9.535	-0.000105
-9.530	-0.000115
-9.525	-0.000120
-9.520	-0.000115
-9.515	-0.000110
-9.510	-0.000100
-9.505	-0.000136
-9.500	-0.000126
-9.495	-0.000115
-9.490	-0.000110
-9.485	-0.000126
-9.480	-0.000116
-9.475	-0.000110
-9.470	-0.000110
-9.465	-0.000131
-9.460	-0.000111
-9.455	-0.000100
-9.450	-0.000085
-9.445	-0.000110
-9.440	-0.000125
-9.435	-0.000115
-9.430	-0.000115
-9.425	-0.000110
-9.420	-0.000105
-9.415	-0.000110
-9.410	-0.000120
-9.405	-0.000125
-9.400	-0.000140
-9.395	-0.000110
-9.390	-0.000105
-9.385	-0.000135
-9.380	-0.000130
-9.375	-0.000110
-9.370	-0.000135
-9.365	-0.000145
-9.360	-0.000115
-9.355	-0.000140
-9.350	-0.000110
-9.345	-0.000115
-9.340	-0.000120
-9.335	-0.000125
-9.330	-0.000120
-9.325	-0.000140
-9.320	-0.000125
-9.315	-0.000120
-9.310	-0.000115
-9.305	-0.000110
-9.300	-0.000120
-9.295	-0.000135
-9.290	-0.000135
-9.285	-0.000144
-9.280	-0.000114
-9.275	-0.000120
-9.270	-0.000125
-9.265	-0.000149
-9.260	-0.000120
-9.255	-0.000110
-9.250	-0.000110
-9.245	-0.000119
-9.240	-0.000104
-9.235	-0.000125
-9.230	-0.000129
-9.225	-0.000114
-9.220	-0.000124
-9.215	-0.000129
-9.210	-0.000104
-9.205	-0.000119
-9.200	-0.000124
-9.195	-0.000109
-9.190	-0.000119
-9.185	-0.000129
-9.180	-0.000124
-9.175	-0.000129
-9.170	-0.000124
-9.165	-0.000139
-9.160	-0.000139
-9.155	-0.000154
-9.150	-0.000139
-9.145	-0.000119
-9.140	-0.000124
-9.135	-0.000129
-9.130	-0.000134
-9.125	-0.000129
-9.120	-0.000134
-9.115	-0.000139
-9.110	-0.000124
-9.105	-0.000114
-9.100	-0.000129
-9.095	-0.000109
-9.090	-0.000139
-9.085	-0.000123
-9.080	-0.000104
-9.075	-0.000144
-9.070	-0.000134
-9.065	-0.000143
-9.060	-0.000138
-9.055	-0.000139
-9.050	-0.000128
-9.045	-0.000133
-9.040	-0.000138
-9.035	-0.000148
-9.030	-0.000138
-9.025	-0.000118
-9.020	-0.000128
-9.015	-0.000118
-9.010	-0.000138
-9.005	-0.000123
-9.000	-0.000118
-8.995	-0.000108
-8.990	-0.000148
-8.985	-0.000123
-8.980	-0.000132
-8.975	-0.000133
-8.970	-0.000113
-8.965	-0.000122
-8.960	-0.000132
-8.955	-0.000138
-8.950	-0.000143
-8.945	-0.000117
-8.940	-0.000118
-8.935	-0.000138
-8.930	-0.000098
-8.925	-0.000127
-8.920	-0.000142
-8.915	-0.000143
-8.910	-0.000142
-8.905	-0.000117
-8.900	-0.000137
-8.895	-0.000117
-8.890	-0.000122
-8.885	-0.000157
-8.880	-0.000122
-8.875	-0.000132
-8.870	-0.000152
-8.865	-0.000132
-8.860	-0.000152
-8.855	-0.000127
-8.850	-0.000142
-8.845	-0.000132
-8.840	-0.000132
-8.835	-0.000132
-8.830	-0.000117
-8.825	-0.000132
-8.820	-0.000141
-8.815	-0.000136
-8.810	-0.000131
-8.805	-0.000126
-8.800	-0.000111
-8.795	-0.000121
-8.790	-0.000141
-8.785	-0.000136
-8.780	-0.000151
-8.775	-0.000131
-8.770	-0.000137
-8.765	-0.000151
-8.760	-0.000156
-8.755	-0.000176
-8.750	-0.000151
-8.745	-0.000151
-8.740	-0.000161
-8.735	-0.000171
-8.730	-0.000186
-8.725	-0.000206
-8.720	-0.000216
-8.715	-0.000271
-8.710	-0.000336
-8.705	-0.000465
-8.700	-0.001096
-8.695	-0.003267
-8.690	-0.008123
-8.685	-0.015996
-8.680	-0.026605
-8.675	-0.039476
-8.670	-0.055436
-8.665	-0.074909
-8.660	-0.090089
-8.655	-0.099522
-8.650	-0.102855
-8.645	-0.101386
-8.640	-0.091169
-8.635	-0.075413
-8.630	-0.066437
-8.625	-0.060835
-8.620	-0.056165
-8.615	-0.052543
-8.610	-0.049828
-8.605	-0.047546
-8.600	-0.045694
-8.595	-0.044308
-8.590	-0.042963
-8.585	-0.041344
-8.580	-0.039843
-8.575	-0.038149
-8.570	-0.037133
-8.565	-0.036340
-8.560	-0.035370
-8.555	-0.034389
-8.550	-0.033585
-8.545	-0.032862
-8.540	-0.032135
-8.535	-0.031444
-8.530	-0.030823
-8.525	-0.030209
-8.520	-0.029681
-8.515	-0.029124
-8.510	-0.028620
-8.505	-0.028154
-8.500	-0.027685
-8.495	-0.027265
-8.490	-0.026849
-8.485	-0.026437
-8.480	-0.026098
-8.475	-0.025696
-8.470	-0.025367
-8.465	-0.025041
-8.460	-0.024722
-8.455	-0.024423
-8.450	-0.024091
-8.445	-0.023821
-8.440	-0.023592
-8.435	-0.023287
-8.430	-0.023029
-8.425	-0.022787
-8.420	-0.022600
-8.415	-0.022354
-8.410	-0.022141
-8.405	-0.021903
-8.400	-0.021707
-8.395	-0.021509
-8.390	-0.021329
-8.385	-0.021105
-8.380	-0.020961
-8.375	-0.020782
-8.370	-0.020611
-8.365	-0.020424
-8.360	-0.020272
-8.355	-0.020085
-8.350	-0.019943
-8.345	-0.019779
-8.340	-0.019631
-8.335	-0.019487
-8.330	-0.019327
-8.325	-0.019168
-8.320	-0.019005
-8.315	-0.018904
-8.310	-0.018732
-8.305	-0.018609
-8.300	-0.018452
-8.295	-0.018331
-8.290	-0.018182
-8.285	-0.018105
-8.280	-0.017981
-8.275	-0.017840
-8.270	-0.017731
-8.265	-0.017630
-8.260	-0.017519
-8.255	-0.017440
-8.250	-0.017335
-8.245	-0.017195
-8.240	-0.017126
-8.235	-0.017015
-8.230	-0.016905
-8.225	-0.016819
-8.220	-0.016695
-8.215	-0.016595
-8.210	-0.016498
-8.205	-0.016394
-8.200	-0.016304
-8.195	-0.016197
-8.190	-0.016127
-8.185	-0.016049
-8.180	-0.015946
-8.175	-0.015859
-8.170	-0.015780
-8.165	-0.015682
-8.160	-0.015607
-8.155	-0.015528
-8.150	-0.015432
-8.145	-0.015362
-8.140	-0.015282
-8.135	-0.015200
-8.130	-0.015116
-8.125	-0.015056
-8.120	-0.014974
-8.115	-0.014919
-8.110	-0.014834
-8.105	-0.014762
-8.100	-0.014694
-8.095	-0.014610
-8.090	-0.014545
-8.085	-0.014491
-8.080	-0.014416
-8.075	-0.014353
-8.070	-0.014286
-8.065	-0.014229
-8.060	-0.014150
-8.055	-0.014063
-8.050	-0.014031
-8.045	-0.013969
-8.040	-0.013892
-8.035	-0.013858
-8.030	-0.013735
-8.025	-0.013718
-8.020	-0.013679
-8.015	-0.013596
-8.010	-0.013540
-8.005	-0.013492
-8.000	-0.013403
-7.995	-0.013352
-7.990	-0.013312
-7.985	-0.013267
-7.980	-0.013177
-7.975	-0.013173
-7.970	-0.013102
-7.965	-0.013038
-7.960	-0.013007
-7.955	-0.012997
-7.950	-0.012966
-7.945	-0.012926
-7.940	-0.012912
-7.935	-0.012856
-7.930	-0.012798
-7.925	-0.012759
-7.920	-0.012730
-7.915	-0.012644
-7.910	-0.012598
-7.905	-0.012555
-7.900	-0.012504
-7.895	-0.012451
-7.890	-0.012375
-7.885	-0.012319
-7.880	-0.012301
-7.875	-0.012237
-7.870	-0.012180
-7.865	-0.012150
-7.860	-0.012122
-7.855	-0.012059
-7.850	-0.012001
-7.845	-0.011949
-7.840	-0.011914
-7.835	-0.011859
-7.830	-0.011816
-7.825	-0.011797
-7.820	-0.011763
-7.815	-0.011671
-7.810	-0.011654
-7.805	-0.011620
-7.800	-0.011565
-7.795	-0.011513
-7.790	-0.011464
-7.785	-0.011445
-7.780	-0.011423
-7.775	-0.011354
-7.770	-0.011341
-7.765	-0.011280
-7.760	-0.011249
-7.755	-0.011230
-7.750	-0.011153
-7.745	-0.011131
-7.740	-0.011130
-7.735	-0.011056
-7.730	-0.011010
-7.725	-0.010972
-7.720	-0.010968
-7.715	-0.010905
-7.710	-0.010887
-7.705	-0.010839
-7.700	-0.010830
-7.695	-0.010761
-7.690	-0.010728
-7.685	-0.010717
-7.680	-0.010698
-7.675	-0.010652
-7.670	-0.010621
-7.665	-0.010582
-7.660	-0.010563
-7.655	-0.010531
-7.650	-0.010470
-7.645	-0.010452
-7.640	-0.010395
-7.635	-0.010386
-7.630	-0.010356
-7.625	-0.010298
-7.620	-0.010305
-7.615	-0.010267
-7.610	-0.010228
-7.605	-0.010202
-7.600	-0.010161
-7.595	-0.010147
-7.590	-0.010105
-7.585	-0.010080
-7.580	-0.010039
-7.575	-0.010015
-7.570	-0.009973
-7.565	-0.009948
-7.560	-0.009926
-7.555	-0.009934
-7.550	-0.009879
-7.545	-0.009834
-7.540	-0.009817
-7.535	-0.009784
-7.530	-0.009778
-7.525	-0.009747
-7.520	-0.009708
-7.515	-0.009666
-7.510	-0.009664
-7.505	-0.009642
-7.500	-0.009604
-7.495	-0.009570
-7.490	-0.009532
-7.485	-0.009513
-7.480	-0.009527
-7.475	-0.009465
-7.470	-0.009457
-7.465	-0.009416
-7.460	-0.009393
-7.455	-0.009368
-7.450	-0.009330
-7.445	-0.009317
-7.440	-0.009285
-7.435	-0.009263
-7.430	-0.009263
-7.425	-0.009220
-7.420	-0.009183
-7.415	-0.009160
-7.410	-0.009148
-7.405	-0.009129
-7.400	-0.009085
-7.395	-0.009065
-7.390	-0.009040
-7.385	-0.009007
-7.380	-0.009013
-7.375	-0.008990
-7.370	-0.008937
-7.365	-0.008912
-7.360	-0.008904
-7.355	-0.008883
-7.350	-0.008871
-7.345	-0.008863
-7.340	-0.008823
-7.335	-0.008784
-7.330	-0.008767
-7.325	-0.008748
-7.320	-0.008751
-7.315	-0.008703
-7.310	-0.008687
-7.305	-0.008638
-7.300	-0.008665
-7.295	-0.008626
-7.290	-0.008618
-7.285	-0.008574
-7.280	-0.008573
-7.275	-0.008544
-7.270	-0.008537
-7.265	-0.008509
-7.260	-0.008489
-7.255	-0.008437
-7.250	-0.008449
-7.245	-0.008425
-7.240	-0.008403
-7.235	-0.008376
-7.230	-0.008361
-7.225	-0.008335
-7.220	-0.008319
-7.215	-0.008303
-7.210	-0.008299
-7.205	-0.008271
-7.200	-0.008248
-7.195	-0.008211
-7.190	-0.008220
-7.185	-0.008205
-7.180	-0.008161
-7.175	-0.008143
-7.170	-0.008112
-7.165	-0.008110
-7.160	-0.008087
-7.155	-0.008063
-7.150	-0.008037
-7.145	-0.008044
-7.140	-0.008023
-7.135	-0.008000
-7.130	-0.007955
-7.125	-0.007951
-7.120	-0.007951
-7.115	-0.007926
-7.110	-0.007911
-7.105	-0.007887
-7.100	-0.007867
-7.095	-0.007850
-7.090	-0.007844
-7.085	-0.007820
-7.080	-0.007845
-7.075	-0.007777
-7.070	-0.007742
-7.065	-0.007750
-7.060	-0.007734
-7.055	-0.007730
-7.050	-0.007696
-7.045	-0.007684
-7.040	-0.007665
-7.035	-0.007647
-7.030	-0.007640
-7.025	-0.007609
-7.020	-0.007611
-7.015	-0.007588
-7.010	-0.007574
-7.005	-0.007575
-7.000	-0.007531
-6.995	-0.007526
-6.990	-0.007482
-6.985	-0.007467
-6.980	-0.007467
-6.975	-0.007435
-6.970	-0.007403
-6.965	-0.007401
-6.960	-0.007401
-6.955	-0.007385
-6.950	-0.007401
-6.945	-0.007362
-6.940	-0.007346
-6.935	-0.007344
-6.930	-0.007281
-6.925	-0.007310
-6.920	-0.007305
-6.915	-0.007284
-6.910	-0.007250
-6.905	-0.007255
-6.900	-0.007243
-6.895	-0.007224
-6.890	-0.007204
-6.885	-0.007192
-6.880	-0.007181
-6.875	-0.007132
-6.870	-0.007135
-6.865	-0.007126
-6.860	-0.007112
-6.855	-0.007101
-6.850	-0.007062
-6.845	-0.007082
-6.840	-0.007038
-6.835	-0.007067
-6.830	-0.007025
-6.825	-0.007037
-6.820	-0.006967
-6.815	-0.006973
-6.810	-0.006970
-6.805	-0.006934
-6.800	-0.006950
-6.795	-0.006928
-6.790	-0.006922
-6.785	-0.006887
-6.780	-0.006881
-6.775	-0.006879
-6.770	-0.006860
-6.765	-0.006846
-6.760	-0.006831
-6.755	-0.006840
-6.750	-0.006813
-6.745	-0.006789
-6.740	-0.006780
-6.735	-0.006751
-6.730	-0.006730
-6.725	-0.006739
-6.720	-0.006734
-6.715	-0.006717
-6.710	-0.006719
-6.705	-0.006739
-6.700	-0.006695
-6.695	-0.006663
-6.690	-0.006656
-6.685	-0.006649
-6.680	-0.006639
-6.675	-0.006615
-6.670	-0.006583
-6.665	-0.006578
-6.660	-0.006574
-6.655	-0.006571
-6.650	-0.006561
-6.645	-0.006556
-6.640	-0.006525
-6.635	-0.006504
-6.630	-0.006500
-6.625	-0.006489
-6.620	-0.006490
-6.615	-0.006478
-6.610	-0.006469
-6.605	-0.006461
-6.600	-0.006465
-6.595	-0.006419
-6.590	-0.006427
-6.585	-0.006398
-6.580	-0.006372
-6.575	-0.006399
-6.570	-0.006369
-6.565	-0.006355
-6.560	-0.006350
-6.555	-0.006326
-6.550	-0.006308
-6.545	-0.006297
-6.540	-0.006304
-6.535	-0.006281
-6.530	-0.006284
-6.525	-0.006262
-6.520	-0.006258
-6.515	-0.006226
-6.510	-0.006238
-6.505	-0.006216
-6.500	-0.006218
-6.495	-0.006190
-6.490	-0.006166
-6.485	-0.006184
-6.480	-0.006165
-6.475	-0.006161
-6.470	-0.006128
-6.465	-0.006136
-6.460	-0.006115
-6.455	-0.006091
-6.450	-0.006096
-6.445	-0.006085
-6.440	-0.006054
-6.435	-0.006058
-6.430	-0.006074
-6.425	-0.006045
-6.420	-0.006037
-6.415	-0.006039
-6.410	-0.006003
-6.405	-0.006000
-6.400	-0.005974
-6.395	-0.005980
-6.390	-0.005981
-6.385	-0.005969
-6.380	-0.005947
-6.375	-0.005915
-6.370	-0.005944
-6.365	-0.005907
-6.360	-0.005915
-6.355	-0.005896
-6.350	-0.005902
-6.345	-0.005885
-6.340	-0.005867
-6.335	-0.005840
-6.330	-0.005830
-6.325	-0.005806
-6.320	-0.005833
-6.315	-0.005832
-6.310	-0.005817
-6.305	-0.005811
-6.300	-0.005787
-6.295	-0.005759
-6.290	-0.005754
-6.285	-0.005740
-6.280	-0.005733
-6.275	-0.005755
-6.270	-0.005735
-6.265	-0.005736
-6.260	-0.005708
-6.255	-0.005690
-6.250	-0.005694
-6.245	-0.005669
-6.240	-0.005667
-6.235	-0.005672
-6.230	-0.005677
-6.225	-0.005653
-6.220	-0.005625
-6.215	-0.005609
-6.210	-0.005595
-6.205	-0.005598
-6.200	-0.005630
-6.195	-0.005615
-6.190	-0.005596
-6.185	-0.005571
-6.180	-0.005578
-6.175	-0.005544
-6.170	-0.005546
-6.165	-0.005520
-6.160	-0.005524
-6.155	-0.005536
-6.150	-0.005529
-6.145	-0.005515
-6.140	-0.005493
-6.135	-0.005475
-6.130	-0.005485
-6.125	-0.005475
-6.120	-0.005481
-6.115	-0.005452
-6.110	-0.005456
-6.105	-0.005427
-6.100	-0.005433
-6.095	-0.005404
-6.090	-0.005425
-6.085	-0.005396
-6.080	-0.005398
-6.075	-0.005388
-6.070	-0.005377
-6.065	-0.005392
-6.060	-0.005342
-6.055	-0.005346
-6.050	-0.005333
-6.045	-0.005298
-6.040	-0.005326
-6.035	-0.005328
-6.030	-0.005319
-6.025	-0.005300
-6.020	-0.005305
-6.015	-0.005285
-6.010	-0.005260
-6.005	-0.005271
-6.000	-0.005257
-5.995	-0.005274
-5.990	-0.005248
-5.985	-0.005254
-5.980	-0.005250
-5.975	-0.005222
-5.970	-0.005204
-5.965	-0.005217
-5.960	-0.005197
-5.955	-0.005194
-5.950	-0.005200
-5.945	-0.005189
-5.940	-0.005189
-5.935	-0.005158
-5.930	-0.005154
-5.925	-0.005137
-5.920	-0.005124
-5.915	-0.005139
-5.910	-0.005128
-5.905	-0.005124
-5.900	-0.005099
-5.895	-0.005085
-5.890	-0.005088
-5.885	-0.005065
-5.880	-0.005079
-5.875	-0.005079
-5.870	-0.005066
-5.865	-0.005053
-5.860	-0.005049
-5.855	-0.005019
-5.850	-0.005010
-5.845	-0.005004
-5.840	-0.004995
-5.835	-0.005004
-5.830	-0.005010
-5.825	-0.004972
-5.820	-0.004980
-5.815	-0.004968
-5.810	-0.004953
-5.805	-0.004962
-5.800	-0.004958
-5.795	-0.004923
-5.790	-0.004917
-5.785	-0.004927
-5.780	-0.004907
-5.775	-0.004915
-5.770	-0.004891
-5.765	-0.004894
-5.760	-0.004883
-5.755	-0.004896
-5.750	-0.004869
-5.745	-0.004874
-5.740	-0.004851
-5.735	-0.004867
-5.730	-0.004837
-5.725	-0.004836
-5.720	-0.004832
-5.715	-0.004839
-5.710	-0.004806
-5.705	-0.004811
-5.700	-0.004799
-5.695	-0.004781
-5.690	-0.004767
-5.685	-0.004751
-5.680	-0.004780
-5.675	-0.004771
-5.670	-0.004770
-5.665	-0.004776
-5.660	-0.004768
-5.655	-0.004739
-5.650	-0.004714
-5.645	-0.004715
-5.640	-0.004688
-5.635	-0.004701
-5.630	-0.004711
-5.625	-0.004684
-5.620	-0.004692
-5.615	-0.004672
-5.610	-0.004673
-5.605	-0.004668
-5.600	-0.004661
-5.595	-0.004622
-5.590	-0.004651
-5.585	-0.004622
-5.580	-0.004625
-5.575	-0.004619
-5.570	-0.004606
-5.565	-0.004610
-5.560	-0.004607
-5.555	-0.004598
-5.550	-0.004581
-5.545	-0.004578
-5.540	-0.004559
-5.535	-0.004549
-5.530	-0.004575
-5.525	-0.004555
-5.520	-0.004557
-5.515	-0.004555
-5.510	-0.004536
-5.505	-0.004541
-5.500	-0.004515
-5.495	-0.004513
-5.490	-0.004510
-5.485	-0.004502
-5.480	-0.004483
-5.475	-0.004506
-5.470	-0.004472
-5.465	-0.004483
-5.460	-0.004483
-5.455	-0.004481
-5.450	-0.004454
-5.445	-0.004458
-5.440	-0.004451
-5.435	-0.004426
-5.430	-0.004437
-5.425	-0.004421
-5.420	-0.004442
-5.415	-0.004432
-5.410	-0.004414
-5.405	-0.004413
-5.400	-0.004418
-5.395	-0.004389
-5.390	-0.004368
-5.385	-0.004363
-5.380	-0.004341
-5.375	-0.004342
-5.370	-0.004379
-5.365	-0.004370
-5.360	-0.004358
-5.355	-0.004325
-5.350	-0.004329
-5.345	-0.004340
-5.340	-0.004306
-5.335	-0.004301
-5.330	-0.004296
-5.325	-0.004300
-5.320	-0.004297
-5.315	-0.004316
-5.310	-0.004287
-5.305	-0.004265
-5.300	-0.004286
-5.295	-0.004252
-5.290	-0.004258
-5.285	-0.004260
-5.280	-0.004231
-5.275	-0.004242
-5.270	-0.004228
-5.265	-0.004238
-5.260	-0.004217
-5.255	-0.004208
-5.250	-0.004208
-5.245	-0.004209
-5.240	-0.004206
-5.235	-0.004192
-5.230	-0.004192
-5.225	-0.004188
-5.220	-0.004161
-5.215	-0.004175
-5.210	-0.004158
-5.205	-0.004166
-5.200	-0.004137
-5.195	-0.004177
-5.190	-0.004152
-5.185	-0.004132
-5.180	-0.004129
-5.175	-0.004123
-5.170	-0.004113
-5.165	-0.004109
-5.160	-0.004087
-5.155	-0.004086
-5.150	-0.004086
-5.145	-0.004080
-5.140	-0.004097
-5.135	-0.004070
-5.130	-0.004050
-5.125	-0.004060
-5.120	-0.004055
-5.115	-0.004051
-5.110	-0.004042
-5.105	-0.004058
-5.100	-0.004026
-5.095	-0.004010
-5.090	-0.004011
-5.085	-0.004000
-5.080	-0.003997
-5.075	-0.004025
-5.070	-0.004020
-5.065	-0.004004
-5.060	-0.003985
-5.055	-0.003982
-5.050	-0.003966
-5.045	-0.003972
-5.040	-0.003960
-5.035	-0.003949
-5.030	-0.003950
-5.025	-0.003935
-5.020	-0.003945
-5.015	-0.003923
-5.010	-0.003928
-5.005	-0.003916
-5.000	-0.003913
-4.995	-0.003900
-4.990	-0.003920
-4.985	-0.003886
-4.980	-0.003907
-4.975	-0.003876
-4.970	-0.003871
-4.965	-0.003868
-4.960	-0.003844
-4.955	-0.003880
-4.950	-0.003866
-4.945	-0.003825
-4.940	-0.003844
-4.935	-0.003840
-4.930	-0.003831
-4.925	-0.003831
-4.920	-0.003815
-4.915	-0.003801
-4.910	-0.003815
-4.905	-0.003802
-4.900	-0.003786
-4.895	-0.003782
-4.890	-0.003798
-4.885	-0.003782
-4.880	-0.003764
-4.875	-0.003786
-4.870	-0.003775
-4.865	-0.003752
-4.860	-0.003751
-4.855	-0.003722
-4.850	-0.003741
-4.845	-0.003717
-4.840	-0.003731
-4.835	-0.003734
-4.830	-0.003745
-4.825	-0.003719
-4.820	-0.003735
-4.815	-0.003730
-4.810	-0.003700
-4.805	-0.003680
-4.800	-0.003692
-4.795	-0.003676
-4.790	-0.003678
-4.785	-0.003678
-4.780	-0.003661
-4.775	-0.003666
-4.770	-0.003654
-4.765	-0.003655
-4.760	-0.003657
-4.755	-0.003646
-4.750	-0.003612
-4.745	-0.003627
-4.740	-0.003639
-4.735	-0.003622
-4.730	-0.003626
-4.725	-0.003600
-4.720	-0.003588
-4.715	-0.003602
-4.710	-0.003608
-4.705	-0.003579
-4.700	-0.003596
-4.695	-0.003562
-4.690	-0.003559
-4.685	-0.003539
-4.680	-0.003542
-4.675	-0.003536
-4.670	-0.003546
-4.665	-0.003556
-4.660	-0.003538
-4.655	-0.003539
-4.650	-0.003540
-4.645	-0.003537
-4.640	-0.003514
-4.635	-0.003513
-4.630	-0.003493
-4.625	-0.003488
-4.620	-0.003507
-4.615	-0.003496
-4.610	-0.003486
-4.605	-0.003484
-4.600	-0.003472
-4.595	-0.003467
-4.590	-0.003482
-4.585	-0.003459
-4.580	-0.003477
-4.575	-0.003433
-4.570	-0.003423
-4.565	-0.003436
-4.560	-0.003439
-4.555	-0.003398
-4.550	-0.003423
-4.545	-0.003412
-4.540	-0.003425
-4.535	-0.003414
-4.530	-0.003392
-4.525	-0.003389
-4.520	-0.003376
-4.515	-0.003373
-4.510	-0.003379
-4.505	-0.003373
-4.500	-0.003378
-4.495	-0.003372
-4.490	-0.003373
-4.485	-0.003357
-4.480	-0.003342
-4.475	-0.003364
-4.470	-0.003343
-4.465	-0.003350
-4.460	-0.003330
-4.455	-0.003340
-4.450	-0.003295
-4.445	-0.003311
-4.440	-0.003314
-4.435	-0.003287
-4.430	-0.003326
-4.425	-0.003301
-4.420	-0.003282
-4.415	-0.003290
-4.410	-0.003305
-4.405	-0.003286
-4.400	-0.003280
-4.395	-0.003256
-4.390	-0.003267
-4.385	-0.003233
-4.380	-0.003235
-4.375	-0.003229
-4.370	-0.003234
-4.365	-0.003225
-4.360	-0.003218
-4.355	-0.003224
-4.350	-0.003224
-4.345	-0.003225
-4.340	-0.003235
-4.335	-0.003208
-4.330	-0.003204
-4.325	-0.003214
-4.320	-0.003196
-4.315	-0.003155
-4.310	-0.003169
-4.305	-0.003179
-4.300	-0.003165
-4.295	-0.003182
-4.290	-0.003157
-4.285	-0.003176
-4.280	-0.003129
-4.275	-0.003180
-4.270	-0.003146
-4.265	-0.003161
-4.260	-0.003144
-4.255	-0.003140
-4.250	-0.003105
-4.245	-0.003122
-4.240	-0.003115
-4.235	-0.003117
-4.230	-0.003122
-4.225	-0.003106
-4.220	-0.003083
-4.215	-0.003090
-4.210	-0.003091
-4.205	-0.003089
-4.200	-0.003109
-4.195	-0.003095
-4.190	-0.003080
-4.185	-0.003070
-4.180	-0.003095
-4.175	-0.003062
-4.170	-0.003056
-4.165	-0.003072
-4.160	-0.003032
-4.155	-0.003045
-4.150	-0.003035
-4.145	-0.003045
-4.140	-0.003031
-4.135	-0.003050
-4.130	-0.003045
-4.125	-0.003035
-4.120	-0.003064
-4.115	-0.003034
-4.110	-0.003015
-4.105	-0.003016
-4.100	-0.003009
-4.095	-0.003002
-4.090	-0.003002
-4.085	-0.002993
-4.080	-0.003002
-4.075	-0.002984
-4.070	-0.002973
-4.065	-0.002963
-4.060	-0.002965
-4.055	-0.002996
-4.050	-0.002981
-4.045	-0.002990
-4.040	-0.003001
-4.035	-0.002974
-4.030	-0.002975
-4.025	-0.002966
-4.020	-0.002974
-4.015	-0.002946
-4.010	-0.002943
-4.005	-0.002919
-4.000	-0.002937
-3.995	-0.002937
-3.990	-0.002946
-3.985	-0.002941
-3.980	-0.002937
-3.975	-0.002960
-3.970	-0.002959
-3.965	-0.002954
-3.960	-0.002990
-3.955	-0.002989
-3.950	-0.002999
-3.945	-0.003014
-3.940	-0.002999
-3.935	-0.003011
-3.930	-0.003001
-3.925	-0.002996
-3.920	-0.003000
-3.915	-0.003031
-3.910	-0.003045
-3.905	-0.003054
-3.900	-0.003081
-3.895	-0.003101
-3.890	-0.003117
-3.885	-0.003182
-3.880	-0.003203
-3.875	-0.003282
-3.870	-0.003366
-3.865	-0.003481
-3.860	-0.003614
-3.855	-0.003790
-3.850	-0.003955
-3.845	-0.004215
-3.840	-0.004506
-3.835	-0.004868
-3.830	-0.005232
-3.825	-0.005727
-3.820	-0.006272
-3.815	-0.006978
-3.810	-0.007749
-3.805	-0.008713
-3.800	-0.009764
-3.795	-0.010800
-3.790	-0.011079
-3.785	-0.009816
-3.780	-0.007592
-3.775	-0.005320
-3.770	-0.002932
-3.765	0.000087
-3.760	0.004385
-3.755	0.007828
-3.750	0.008119
-3.745	0.006024
-3.740	0.003052
-3.735	0.000076
-3.730	-0.002425
-3.725	-0.004349
-3.720	-0.005803
-3.715	-0.006842
-3.710	-0.007587
-3.705	-0.008175
-3.700	-0.008754
-3.695	-0.009234
-3.690	-0.009706
-3.685	-0.010174
-3.680	-0.010658
-3.675	-0.011156
-3.670	-0.011631
-3.665	-0.012109
-3.660	-0.012564
-3.655	-0.012986
-3.650	-0.013346
-3.645	-0.013681
-3.640	-0.013918
-3.635	-0.013976
-3.630	-0.013697
-3.625	-0.012600
-3.620	-0.010467
-3.615	-0.007494
-3.610	-0.004386
-3.605	-0.001220
-3.600	0.002071
-3.595	0.005578
-3.590	0.007868
-3.585	0.008009
-3.580	0.006264
-3.575	0.003678
-3.570	0.001073
-3.565	-0.001190
-3.560	-0.002892
-3.555	-0.004150
-3.550	-0.005029
-3.545	-0.005622
-3.540	-0.006016
-3.535	-0.006318
-3.530	-0.006609
-3.525	-0.006906
-3.520	-0.007201
-3.515	-0.007556
-3.510	-0.007911
-3.505	-0.008280
-3.500	-0.008666
-3.495	-0.009046
-3.490	-0.009431
-3.485	-0.009822
-3.480	-0.010189
-3.475	-0.010517
-3.470	-0.010787
-3.465	-0.011049
-3.460	-0.011167
-3.455	-0.011196
-3.450	-0.010888
-3.445	-0.009859
-3.440	-0.007791
-3.435	-0.004887
-3.430	-0.002006
-3.425	0.000967
-3.420	0.004095
-3.415	0.007295
-3.410	0.009249
-3.405	0.009155
-3.400	0.007327
-3.395	0.004753
-3.390	0.002229
-3.385	0.000029
-3.380	-0.001625
-3.375	-0.002874
-3.370	-0.003707
-3.365	-0.004322
-3.360	-0.004778
-3.355	-0.005140
-3.350	-0.005454
-3.345	-0.005716
-3.340	-0.005955
-3.335	-0.006202
-3.330	-0.006471
-3.325	-0.006832
-3.320	-0.007198
-3.315	-0.007567
-3.310	-0.007918
-3.305	-0.008275
-3.300	-0.008629
-3.295	-0.008947
-3.290	-0.009230
-3.285	-0.009511
-3.280	-0.009753
-3.275	-0.009938
-3.270	-0.010063
-3.265	-0.010019
-3.260	-0.009685
-3.255	-0.008660
-3.250	-0.006771
-3.245	-0.004065
-3.240	-0.001324
-3.235	0.001598
-3.230	0.004698
-3.225	0.007707
-3.220	0.009563
-3.215	0.009452
-3.210	0.007666
-3.205	0.005188
-3.200	0.002775
-3.195	0.000656
-3.190	-0.000960
-3.185	-0.002136
-3.180	-0.002916
-3.175	-0.003512
-3.170	-0.003931
-3.165	-0.004263
-3.160	-0.004507
-3.155	-0.004722
-3.150	-0.004949
-3.145	-0.005209
-3.140	-0.005476
-3.135	-0.005798
-3.130	-0.006105
-3.125	-0.006413
-3.120	-0.006746
-3.115	-0.007036
-3.110	-0.007336
-3.105	-0.007633
-3.100	-0.007914
-3.095	-0.008159
-3.090	-0.008394
-3.085	-0.008626
-3.080	-0.008845
-3.075	-0.009038
-3.070	-0.009160
-3.065	-0.009211
-3.060	-0.009039
-3.055	-0.008339
-3.050	-0.006804
-3.045	-0.004403
-3.040	-0.001762
-3.035	0.000996
-3.030	0.003922
-3.025	0.007005
-3.020	0.009316
-3.015	0.009959
-3.010	0.008755
-3.005	0.006535
-3.000	0.004190
-2.995	0.001988
-2.990	0.000238
-2.985	-0.001057
-2.980	-0.002005
-2.975	-0.002684
-2.970	-0.003188
-2.965	-0.003506
-2.960	-0.003762
-2.955	-0.003972
-2.950	-0.004158
-2.945	-0.004390
-2.940	-0.004573
-2.935	-0.004794
-2.930	-0.005034
-2.925	-0.005317
-2.920	-0.005628
-2.915	-0.005892
-2.910	-0.006140
-2.905	-0.006368
-2.900	-0.006581
-2.895	-0.006809
-2.890	-0.007087
-2.885	-0.007335
-2.880	-0.007612
-2.875	-0.007852
-2.870	-0.008105
-2.865	-0.008319
-2.860	-0.008493
-2.855	-0.008607
-2.850	-0.008593
-2.845	-0.008433
-2.840	-0.007849
-2.835	-0.006446
-2.830	-0.004238
-2.825	-0.001609
-2.820	0.000964
-2.815	0.003806
-2.810	0.006703
-2.805	0.009169
-2.800	0.010067
-2.795	0.009206
-2.790	0.007332
-2.785	0.005027
-2.780	0.002914
-2.775	0.001107
-2.770	-0.000219
-2.765	-0.001208
-2.760	-0.001901
-2.755	-0.002382
-2.750	-0.002676
-2.745	-0.002945
-2.740	-0.003110
-2.735	-0.003308
-2.730	-0.003508
-2.725	-0.003739
-2.720	-0.003940
-2.715	-0.004120
-2.710	-0.004299
-2.705	-0.004459
-2.700	-0.004637
-2.695	-0.004814
-2.690	-0.005061
-2.685	-0.005304
-2.680	-0.005562
-2.675	-0.005835
-2.670	-0.006087
-2.665	-0.006311
-2.660	-0.006592
-2.655	-0.006859
-2.650	-0.007085
-2.645	-0.007277
-2.640	-0.007474
-2.635	-0.007619
-2.630	-0.007736
-2.625	-0.007836
-2.620	-0.007908
-2.615	-0.007894
-2.610	-0.007711
-2.605	-0.007232
-2.600	-0.006064
-2.595	-0.004092
-2.590	-0.001784
-2.585	0.000708
-2.580	0.003398
-2.575	0.006372
-2.570	0.008787
-2.565	0.009973
-2.560	0.009497
-2.555	0.007848
-2.550	0.005792
-2.545	0.003776
-2.540	0.002007
-2.535	0.000610
-2.530	-0.000409
-2.525	-0.001137
-2.520	-0.001564
-2.515	-0.001950
-2.510	-0.002210
-2.505	-0.002469
-2.500	-0.002724
-2.495	-0.002899
-2.490	-0.003072
-2.485	-0.003156
-2.480	-0.003244
-2.475	-0.003303
-2.470	-0.003410
-2.465	-0.003563
-2.460	-0.003709
-2.455	-0.003850
-2.450	-0.004012
-2.445	-0.004207
-2.440	-0.004417
-2.435	-0.004698
-2.430	-0.004977
-2.425	-0.005244
-2.420	-0.005511
-2.415	-0.005810
-2.410	-0.006033
-2.405	-0.006240
-2.400	-0.006395
-2.395	-0.006483
-2.390	-0.006587
-2.385	-0.006682
-2.380	-0.006770
-2.375	-0.006881
-2.370	-0.006944
-2.365	-0.007016
-2.360	-0.007008
-2.355	-0.006937
-2.350	-0.006711
-2.345	-0.006215
-2.340	-0.005195
-2.335	-0.003521
-2.330	-0.001461
-2.325	0.000823
-2.320	0.003275
-2.315	0.006007
-2.310	0.008410
-2.305	0.009760
-2.300	0.009594
-2.295	0.008275
-2.290	0.006458
-2.285	0.004513
-2.280	0.002880
-2.275	0.001513
-2.270	0.000528
-2.265	-0.000191
-2.260	-0.000712
-2.255	-0.001159
-2.250	-0.001498
-2.245	-0.001782
-2.240	-0.001959
-2.235	-0.002113
-2.230	-0.002260
-2.225	-0.002358
-2.220	-0.002420
-2.215	-0.002432
-2.210	-0.002487
-2.205	-0.002581
-2.200	-0.002693
-2.195	-0.002855
-2.190	-0.003021
-2.185	-0.003246
-2.180	-0.003503
-2.175	-0.003756
-2.170	-0.003998
-2.165	-0.004218
-2.160	-0.004378
-2.155	-0.004529
-2.150	-0.004696
-2.145	-0.004839
-2.140	-0.004971
-2.135	-0.005123
-2.130	-0.005273
-2.125	-0.005374
-2.120	-0.005455
-2.115	-0.005513
-2.110	-0.005619
-2.105	-0.005702
-2.100	-0.005789
-2.095	-0.005865
-2.090	-0.005930
-2.085	-0.005979
-2.080	-0.006038
-2.075	-0.006051
-2.070	-0.006065
-2.065	-0.005997
-2.060	-0.005895
-2.055	-0.005565
-2.050	-0.004883
-2.045	-0.003633
-2.040	-0.001866
-2.035	0.000220
-2.030	0.002425
-2.025	0.004872
-2.020	0.007205
-2.015	0.008931
-2.010	0.009422
-2.005	0.008717
-2.000	0.007379
-1.995	0.005740
-1.990	0.004278
-1.985	0.002983
-1.980	0.001918
-1.975	0.001031
-1.970	0.000313
-1.965	-0.000306
-1.960	-0.000734
-1.955	-0.001019
-1.950	-0.001206
-1.945	-0.001293
-1.940	-0.001332
-1.935	-0.001426
-1.930	-0.001529
-1.925	-0.001660
-1.920	-0.001779
-1.915	-0.001952
-1.910	-0.002149
-1.905	-0.002335
-1.900	-0.002533
-1.895	-0.002693
-1.890	-0.002825
-1.885	-0.002919
-1.880	-0.003000
-1.875	-0.003057
-1.870	-0.003107
-1.865	-0.003141
-1.860	-0.003156
-1.855	-0.003164
-1.850	-0.003233
-1.845	-0.003340
-1.840	-0.003473
-1.835	-0.003619
-1.830	-0.003766
-1.825	-0.003944
-1.820	-0.004097
-1.815	-0.004257
-1.810	-0.004381
-1.805	-0.004466
-1.800	-0.004589
-1.795	-0.004674
-1.790	-0.004728
-1.785	-0.004814
-1.780	-0.004835
-1.775	-0.004899
-1.770	-0.004926
-1.765	-0.004988
-1.760	-0.005037
-1.755	-0.005108
-1.750	-0.005170
-1.745	-0.005194
-1.740	-0.005165
-1.735	-0.005128
-1.730	-0.005069
-1.725	-0.004982
-1.720	-0.004786
-1.715	-0.004358
-1.710	-0.003594
-1.705	-0.002365
-1.700	-0.000850
-1.695	0.001005
-1.690	0.003046
-1.685	0.005261
-1.680	0.007153
-1.675	0.008317
-1.670	0.008516
-1.665	0.007931
-1.660	0.006923
-1.655	0.005753
-1.650	0.004567
-1.645	0.003444
-1.640	0.002447
-1.635	0.001560
-1.630	0.000935
-1.625	0.000497
-1.620	0.000276
-1.615	0.000104
-1.610	-0.000048
-1.605	-0.000220
-1.600	-0.000436
-1.595	-0.000643
-1.590	-0.000883
-1.585	-0.001109
-1.580	-0.001324
-1.575	-0.001502
-1.570	-0.001629
-1.565	-0.001658
-1.560	-0.001678
-1.555	-0.001666
-1.550	-0.001651
-1.545	-0.001649
-1.540	-0.001670
-1.535	-0.001698
-1.530	-0.001733
-1.525	-0.001798
-1.520	-0.001876
-1.515	-0.001986
-1.510	-0.002075
-1.505	-0.002188
-1.500	-0.002286
-1.495	-0.002426
-1.490	-0.002530
-1.485	-0.002602
-1.480	-0.002687
-1.475	-0.002768
-1.470	-0.002846
-1.465	-0.002927
-1.460	-0.003015
-1.455	-0.003075
-1.450	-0.003158
-1.445	-0.003258
-1.440	-0.003334
-1.435	-0.003432
-1.430	-0.003487
-1.425	-0.003568
-1.420	-0.003574
-1.415	-0.003647
-1.410	-0.003691
-1.405	-0.003740
-1.400	-0.003812
-1.395	-0.003834
-1.390	-0.003863
-1.385	-0.003911
-1.380	-0.003895
-1.375	-0.003910
-1.370	-0.003851
-1.365	-0.003781
-1.360	-0.003739
-1.355	-0.003699
-1.350	-0.003700
-1.345	-0.003710
-1.340	-0.003762
-1.335	-0.003780
-1.330	-0.003852
-1.325	-0.003863
-1.320	-0.003814
-1.315	-0.003775
-1.310	-0.003624
-1.305	-0.003477
-1.300	-0.003277
-1.295	-0.002951
-1.290	-0.002426
-1.285	-0.001660
-1.280	-0.000641
-1.275	0.000634
-1.270	0.002058
-1.265	0.003647
-1.260	0.005148
-1.255	0.006346
-1.250	0.006970
-1.245	0.007088
-1.240	0.006820
-1.235	0.006219
-1.230	0.005457
-1.225	0.004672
-1.220	0.004040
-1.215	0.003376
-1.210	0.002794
-1.205	0.002266
-1.200	0.001755
-1.195	0.001283
-1.190	0.000840
-1.185	0.000515
-1.180	0.000215
-1.175	0.000028
-1.170	-0.000090
-1.165	-0.000159
-1.160	-0.000218
-1.155	-0.000252
-1.150	-0.000282
-1.145	-0.000330
-1.140	-0.000375
-1.135	-0.000454
-1.130	-0.000562
-1.125	-0.000669
-1.120	-0.000753
-1.115	-0.000827
-1.110	-0.000882
-1.105	-0.000950
-1.100	-0.001024
-1.095	-0.001103
-1.090	-0.001161
-1.085	-0.001220
-1.080	-0.001259
-1.075	-0.001283
-1.070	-0.001303
-1.065	-0.001304
-1.060	-0.001323
-1.055	-0.001317
-1.050	-0.001357
-1.045	-0.001387
-1.040	-0.001425
-1.035	-0.001472
-1.030	-0.001389
-1.025	-0.001311
-1.020	-0.001193
-1.015	-0.001143
-1.010	-0.001222
-1.005	-0.001325
-1.000	-0.001408
-0.995	-0.001517
-0.990	-0.001542
-0.985	-0.001571
-0.980	-0.001576
-0.975	-0.001584
-0.970	-0.001617
-0.965	-0.001621
-0.960	-0.001729
-0.955	-0.001803
-0.950	-0.001882
-0.945	-0.001925
-0.940	-0.001980
-0.935	-0.002024
-0.930	-0.002045
-0.925	-0.002015
-0.920	-0.002039
-0.915	-0.002011
-0.910	-0.001993
-0.905	-0.002063
-0.900	-0.002086
-0.895	-0.002094
-0.890	-0.002109
-0.885	-0.002101
-0.880	-0.002090
-0.875	-0.002060
-0.870	-0.002070
-0.865	-0.002090
-0.860	-0.002085
-0.855	-0.002087
-0.850	-0.002072
-0.845	-0.002071
-0.840	-0.002091
-0.835	-0.002083
-0.830	-0.002083
-0.825	-0.002074
-0.820	-0.002059
-0.815	-0.001999
-0.810	-0.001945
-0.805	-0.001887
-0.800	-0.001823
-0.795	-0.001783
-0.790	-0.001763
-0.785	-0.001715
-0.780	-0.001665
-0.775	-0.001648
-0.770	-0.001599
-0.765	-0.001560
-0.760	-0.001531
-0.755	-0.001490
-0.750	-0.001422
-0.745	-0.001373
-0.740	-0.001313
-0.735	-0.001303
-0.730	-0.001263
-0.725	-0.001212
-0.720	-0.001133
-0.715	-0.001103
-0.710	-0.001010
-0.705	-0.000896
-0.700	-0.000788
-0.695	-0.000681
-0.690	-0.000602
-0.685	-0.000563
-0.680	-0.000504
-0.675	-0.000445
-0.670	-0.000406
-0.665	-0.000351
-0.660	-0.000297
-0.655	-0.000214
-0.650	-0.000106
-0.645	0.000085
-0.640	0.000366
-0.635	0.000842
-0.630	0.001562
-0.625	0.002573
-0.620	0.004000
-0.615	0.006000
-0.610	0.008456
-0.605	0.011394
-0.600	0.014538
-0.595	0.017720
-0.590	0.020712
-0.585	0.023451
-0.580	0.025519
-0.575	0.026877
-0.570	0.027549
-0.565	0.027543
-0.560	0.026990
-0.555	0.026005
-0.550	0.024687
-0.545	0.023190
-0.540	0.021666
-0.535	0.020184
-0.530	0.018825
-0.525	0.017530
-0.520	0.016427
-0.515	0.015339
-0.510	0.014240
-0.505	0.013173
-0.500	0.012150
-0.495	0.011228
-0.490	0.010476
-0.485	0.009924
-0.480	0.009609
-0.475	0.009390
-0.470	0.009179
-0.465	0.008919
-0.460	0.008506
-0.455	0.007983
-0.450	0.007388
-0.445	0.006824
-0.440	0.006350
-0.435	0.005963
-0.430	0.005656
-0.425	0.005410
-0.420	0.005202
-0.415	0.005067
-0.410	0.005046
-0.405	0.005071
-0.400	0.005198
-0.395	0.005362
-0.390	0.005496
-0.385	0.005458
-0.380	0.005350
-0.375	0.005326
-0.370	0.005418
-0.365	0.005495
-0.360	0.005289
-0.355	0.004729
-0.350	0.004108
-0.345	0.003856
-0.340	0.004127
-0.335	0.004686
-0.330	0.005064
-0.325	0.005098
-0.320	0.004579
-0.315	0.003712
-0.310	0.003146
-0.305	0.003115
-0.300	0.003481
-0.295	0.003912
-0.290	0.004176
-0.285	0.004359
-0.280	0.004505
-0.275	0.004620
-0.270	0.004357
-0.265	0.003802
-0.260	0.003504
-0.255	0.003590
-0.250	0.003992
-0.245	0.004378
-0.240	0.004211
-0.235	0.003559
-0.230	0.003190
-0.225	0.003256
-0.220	0.003332
-0.215	0.003294
-0.210	0.003032
-0.205	0.002686
-0.200	0.002842
-0.195	0.003508
-0.190	0.003063
-0.185	0.001315
-0.180	0.000265
-0.175	0.000963
-0.170	0.001667
-0.165	0.001125
-0.160	0.001074
-0.155	0.001594
-0.150	0.001485
-0.145	-0.001199
-0.140	-0.003885
-0.135	-0.003917
-0.130	-0.003963
-0.125	-0.002674
-0.120	-0.002086
-0.115	-0.002037
-0.110	-0.001748
-0.105	-0.002975
-0.100	-0.007730
-0.095	-0.006023
-0.090	-0.002065
-0.085	-0.001657
-0.080	-0.002827
-0.075	-0.004402
-0.070	-0.005888
-0.065	-0.004187
-0.060	-0.004980
-0.055	-0.003058
-0.050	-0.002795
-0.045	-0.002320
-0.040	-0.003507
-0.035	-0.002450
-0.030	-0.003737
-0.025	-0.003277
-0.020	0.000139
-0.015	0.001624
-0.010	-0.000590
-0.005	-0.004447
0.000	0.000090
0.005	-0.000740
0.010	0.001069
0.015	0.000887
0.020	0.000873
0.025	-0.003051
0.030	-0.000242
0.035	0.003687
0.040	0.002885
0.045	0.002046
0.050	0.001959
0.055	-0.000172
0.060	0.006109
0.065	0.003184
0.070	0.001467
0.075	0.002454
0.080	0.007765
0.085	0.002561
0.090	0.004622
0.095	0.002775
0.100	0.000994
0.105	0.006261
0.110	0.009123
0.115	0.004705
0.120	0.003321
0.125	0.004487
0.130	0.003977
0.135	0.001874
0.140	0.003166
0.145	0.005243
0.150	0.002623
0.155	0.001004
0.160	0.000815
0.165	0.001302
0.170	0.001760
0.175	0.001492
0.180	0.001211
0.185	-0.000231
0.190	-0.001673
0.195	-0.001218
0.200	-0.000508
0.205	-0.000981
0.210	-0.002129
0.215	-0.001772
0.220	-0.000853
0.225	-0.000907
0.230	-0.000953
0.235	-0.000876
0.240	-0.001763
0.245	-0.003243
0.250	-0.004538
0.255	-0.005246
0.260	-0.005233
0.265	-0.004647
0.270	-0.003848
0.275	-0.003233
0.280	-0.003076
0.285	-0.003215
0.290	-0.003614
0.295	-0.003922
0.300	-0.003945
0.305	-0.004125
0.310	-0.004463
0.315	-0.004584
0.320	-0.004496
0.325	-0.004371
0.330	-0.004305
0.335	-0.004171
0.340	-0.004094
0.345	-0.004378
0.350	-0.004881
0.355	-0.005210
0.360	-0.005249
0.365	-0.005132
0.370	-0.005074
0.375	-0.004929
0.380	-0.004485
0.385	-0.003977
0.390	-0.003693
0.395	-0.003807
0.400	-0.004118
0.405	-0.004464
0.410	-0.004698
0.415	-0.004838
0.420	-0.004928
0.425	-0.005166
0.430	-0.005547
0.435	-0.006099
0.440	-0.006634
0.445	-0.007020
0.450	-0.007232
0.455	-0.007260
0.460	-0.007207
0.465	-0.007072
0.470	-0.006934
0.475	-0.006963
0.480	-0.007272
0.485	-0.007734
0.490	-0.008241
0.495	-0.008685
0.500	-0.009051
0.505	-0.009258
0.510	-0.009480
0.515	-0.009712
0.520	-0.010107
0.525	-0.010701
0.530	-0.011427
0.535	-0.012384
0.540	-0.013401
0.545	-0.014613
0.550	-0.015763
0.555	-0.017016
0.560	-0.018310
0.565	-0.019685
0.570	-0.021175
0.575	-0.022803
0.580	-0.024467
0.585	-0.026111
0.590	-0.027364
0.595	-0.028173
0.600	-0.028386
0.605	-0.027953
0.610	-0.026724
0.615	-0.024654
0.620	-0.021844
0.625	-0.018652
0.630	-0.015348
0.635	-0.011987
0.640	-0.008888
0.645	-0.006143
0.650	-0.003991
0.655	-0.002371
0.660	-0.001340
0.665	-0.000681
0.670	-0.000363
0.675	-0.000156
0.680	-0.000083
0.685	0.000001
0.690	0.000084
0.695	0.000143
0.700	0.000217
0.705	0.000281
0.710	0.000359
0.715	0.000433
0.720	0.000521
0.725	0.000619
0.730	0.000762
0.735	0.000890
0.740	0.000973
0.745	0.001076
0.750	0.001180
0.755	0.001269
0.760	0.001304
0.765	0.001367
0.770	0.001412
0.775	0.001450
0.780	0.001469
0.785	0.001510
0.790	0.001544
0.795	0.001562
0.800	0.001538
0.805	0.001564
0.810	0.001599
0.815	0.001676
0.820	0.001804
0.825	0.001903
0.830	0.001961
0.835	0.002060
0.840	0.002070
0.845	0.002068
0.850	0.002044
0.855	0.001983
0.860	0.001984
0.865	0.001989
0.870	0.001999
0.875	0.002043
0.880	0.002072
0.885	0.002107
0.890	0.002112
0.895	0.002154
0.900	0.002135
0.905	0.002076
0.910	0.002037
0.915	0.002020
0.920	0.002011
0.925	0.002012
0.930	0.001956
0.935	0.001911
0.940	0.001877
0.945	0.001858
0.950	0.001926
0.955	0.001977
0.960	0.001996
0.965	0.001982
0.970	0.001934
0.975	0.001901
0.980	0.001866
0.985	0.001854
0.990	0.001816
0.995	0.001777
1.000	0.001693
1.005	0.001662
1.010	0.001595
1.015	0.001570
1.020	0.001541
1.025	0.001492
1.030	0.001532
1.035	0.001511
1.040	0.001447
1.045	0.001354
1.050	0.001270
1.055	0.001220
1.060	0.001196
1.065	0.001158
1.070	0.001187
1.075	0.001225
1.080	0.001270
1.085	0.001276
1.090	0.001290
1.095	0.001255
1.100	0.001200
1.105	0.001113
1.110	0.001059
1.115	0.000985
1.120	0.000892
1.125	0.000809
1.130	0.000769
1.135	0.000779
1.140	0.000764
1.145	0.000789
1.150	0.000725
1.155	0.000583
1.160	0.000441
1.165	0.000288
1.170	0.000185
1.175	0.000161
1.180	0.000166
1.185	0.000215
1.190	0.000185
1.195	0.000033
1.200	-0.000193
1.205	-0.000497
1.210	-0.000753
1.215	-0.000974
1.220	-0.001230
1.225	-0.001563
1.230	-0.002004
1.235	-0.002659
1.240	-0.003469
1.245	-0.004369
1.250	-0.005174
1.255	-0.005951
1.260	-0.006588
1.265	-0.007039
1.270	-0.007209
1.275	-0.006987
1.280	-0.006361
1.285	-0.005214
1.290	-0.003770
1.295	-0.002117
1.300	-0.000502
1.305	0.000999
1.310	0.002172
1.315	0.002883
1.320	0.003238
1.325	0.003414
1.330	0.003514
1.335	0.003590
1.340	0.003680
1.345	0.003779
1.350	0.003841
1.355	0.003872
1.360	0.003940
1.365	0.003938
1.370	0.003900
1.375	0.003876
1.380	0.003881
1.385	0.003865
1.390	0.003857
1.395	0.003839
1.400	0.003810
1.405	0.003809
1.410	0.003824
1.415	0.003828
1.420	0.003803
1.425	0.003826
1.430	0.003810
1.435	0.003775
1.440	0.003716
1.445	0.003628
1.450	0.003563
1.455	0.003413
1.460	0.003314
1.465	0.003168
1.470	0.003058
1.475	0.002954
1.480	0.002840
1.485	0.002722
1.490	0.002684
1.495	0.002657
1.500	0.002628
1.505	0.002641
1.510	0.002643
1.515	0.002588
1.520	0.002514
1.525	0.002416
1.530	0.002268
1.535	0.002099
1.540	0.001952
1.545	0.001781
1.550	0.001697
1.555	0.001701
1.560	0.001696
1.565	0.001721
1.570	0.001730
1.575	0.001710
1.580	0.001593
1.585	0.001446
1.590	0.001254
1.595	0.001176
1.600	0.001058
1.605	0.000984
1.610	0.000940
1.615	0.000897
1.620	0.000862
1.625	0.000748
1.630	0.000483
1.635	0.000099
1.640	-0.000333
1.645	-0.000834
1.650	-0.001350
1.655	-0.001957
1.660	-0.002729
1.665	-0.003689
1.670	-0.004776
1.675	-0.005907
1.680	-0.007000
1.685	-0.007891
1.690	-0.008289
1.695	-0.008088
1.700	-0.007131
1.705	-0.005560
1.710	-0.003573
1.715	-0.001340
1.720	0.000874
1.725	0.002773
1.730	0.003982
1.735	0.004628
1.740	0.004864
1.745	0.005030
1.750	0.005081
1.755	0.005134
1.760	0.005156
1.765	0.005132
1.770	0.005107
1.775	0.005109
1.780	0.005082
1.785	0.005050
1.790	0.005052
1.795	0.005076
1.800	0.005061
1.805	0.005005
1.810	0.004949
1.815	0.004865
1.820	0.004759
1.825	0.004622
1.830	0.004458
1.835	0.004304
1.840	0.004132
1.845	0.003933
1.850	0.003747
1.855	0.003623
1.860	0.003505
1.865	0.003391
1.870	0.003302
1.875	0.003249
1.880	0.003209
1.885	0.003088
1.890	0.002949
1.895	0.002775
1.900	0.002584
1.905	0.002452
1.910	0.002328
1.915	0.002279
1.920	0.002230
1.925	0.002202
1.930	0.002182
1.935	0.002149
1.940	0.002051
1.945	0.001917
1.950	0.001706
1.955	0.001475
1.960	0.001218
1.965	0.000967
1.970	0.000697
1.975	0.000407
1.980	0.000018
1.985	-0.000521
1.990	-0.001208
1.995	-0.002084
2.000	-0.003172
2.005	-0.004429
2.010	-0.005777
2.015	-0.007229
2.020	-0.008377
2.025	-0.008967
2.030	-0.008705
2.035	-0.007527
2.040	-0.005662
2.045	-0.003274
2.050	-0.000641
2.055	0.002131
2.060	0.004239
2.065	0.005428
2.070	0.005871
2.075	0.006114
2.080	0.006236
2.085	0.006276
2.090	0.006288
2.095	0.006254
2.100	0.006205
2.105	0.006101
2.110	0.005985
2.115	0.005877
2.120	0.005759
2.125	0.005645
2.130	0.005558
2.135	0.005464
2.140	0.005330
2.145	0.005159
2.150	0.004985
2.155	0.004814
2.160	0.004618
2.165	0.004419
2.170	0.004249
2.175	0.004070
2.180	0.003906
2.185	0.003726
2.190	0.003608
2.195	0.003490
2.200	0.003391
2.205	0.003261
2.210	0.003111
2.215	0.002962
2.220	0.002754
2.225	0.002546
2.230	0.002382
2.235	0.002187
2.240	0.002040
2.245	0.001897
2.250	0.001776
2.255	0.001565
2.260	0.001319
2.265	0.000969
2.270	0.000536
2.275	-0.000004
2.280	-0.000687
2.285	-0.001595
2.290	-0.002771
2.295	-0.004282
2.300	-0.005911
2.305	-0.007541
2.310	-0.008734
2.315	-0.009086
2.320	-0.008365
2.325	-0.006734
2.330	-0.004544
2.335	-0.001683
2.340	0.001473
2.345	0.004332
2.350	0.005953
2.355	0.006691
2.360	0.006967
2.365	0.007094
2.370	0.007117
2.375	0.007097
2.380	0.007023
2.385	0.006908
2.390	0.006784
2.395	0.006635
2.400	0.006479
2.405	0.006317
2.410	0.006174
2.415	0.006012
2.420	0.005794
2.425	0.005585
2.430	0.005381
2.435	0.005220
2.440	0.005057
2.445	0.004878
2.450	0.004652
2.455	0.004424
2.460	0.004201
2.465	0.003935
2.470	0.003749
2.475	0.003550
2.480	0.003406
2.485	0.003294
2.490	0.003129
2.495	0.002966
2.500	0.002856
2.505	0.002687
2.510	0.002490
2.515	0.002164
2.520	0.001826
2.525	0.001452
2.530	0.001009
2.535	0.000400
2.540	-0.000431
2.545	-0.001596
2.550	-0.003013
2.555	-0.004803
2.560	-0.006709
2.565	-0.008430
2.570	-0.009285
2.575	-0.009004
2.580	-0.007684
2.585	-0.005450
2.590	-0.002663
2.595	0.000818
2.600	0.004168
2.605	0.006443
2.610	0.007432
2.615	0.007777
2.620	0.007879
2.625	0.007896
2.630	0.007843
2.635	0.007743
2.640	0.007638
2.645	0.007494
2.650	0.007397
2.655	0.007258
2.660	0.007079
2.665	0.006858
2.670	0.006617
2.675	0.006348
2.680	0.006070
2.685	0.005772
2.690	0.005496
2.695	0.005235
2.700	0.004969
2.705	0.004741
2.710	0.004528
2.715	0.004299
2.720	0.004066
2.725	0.003865
2.730	0.003638
2.735	0.003340
2.740	0.003067
2.745	0.002768
2.750	0.002551
2.755	0.002281
2.760	0.001923
2.765	0.001375
2.770	0.000682
2.775	-0.000312
2.780	-0.001674
2.785	-0.003445
2.790	-0.005431
2.795	-0.007477
2.800	-0.008983
2.805	-0.009503
2.810	-0.008689
2.815	-0.006843
2.820	-0.004340
2.825	-0.001023
2.830	0.002780
2.835	0.006082
2.840	0.007880
2.845	0.008590
2.850	0.008830
2.855	0.008864
2.860	0.008805
2.865	0.008653
2.870	0.008490
2.875	0.008255
2.880	0.008024
2.885	0.007785
2.890	0.007497
2.895	0.007185
2.900	0.006883
2.905	0.006583
2.910	0.006287
2.915	0.006010
2.920	0.005698
2.925	0.005386
2.930	0.005141
2.935	0.004871
2.940	0.004583
2.945	0.004283
2.950	0.004004
2.955	0.003772
2.960	0.003548
2.965	0.003205
2.970	0.002868
2.975	0.002417
2.980	0.001888
2.985	0.001032
2.990	-0.000093
2.995	-0.001737
3.000	-0.003723
3.005	-0.006004
3.010	-0.007997
3.015	-0.009261
3.020	-0.009206
3.025	-0.007853
3.030	-0.005707
3.035	-0.002624
3.040	0.001283
3.045	0.005404
3.050	0.008029
3.055	0.009132
3.060	0.009425
3.065	0.009439
3.070	0.009346
3.075	0.009191
3.080	0.009037
3.085	0.008858
3.090	0.008581
3.095	0.008303
3.100	0.007984
3.105	0.007627
3.110	0.007295
3.115	0.006958
3.120	0.006644
3.125	0.006400
3.130	0.006108
3.135	0.005759
3.140	0.005372
3.145	0.005028
3.150	0.004689
3.155	0.004422
3.160	0.004124
3.165	0.003809
3.170	0.003506
3.175	0.003127
3.180	0.002541
3.185	0.001619
3.190	0.000301
3.195	-0.001486
3.200	-0.003616
3.205	-0.006011
3.210	-0.008100
3.215	-0.009251
3.220	-0.008926
3.225	-0.007266
3.230	-0.004832
3.235	-0.001476
3.240	0.002792
3.245	0.006867
3.250	0.009213
3.255	0.010171
3.260	0.010411
3.265	0.010349
3.270	0.010208
3.275	0.010012
3.280	0.009754
3.285	0.009434
3.290	0.009066
3.295	0.008700
3.300	0.008348
3.305	0.007978
3.310	0.007631
3.315	0.007288
3.320	0.006914
3.325	0.006498
3.330	0.006170
3.335	0.005828
3.340	0.005507
3.345	0.005204
3.350	0.004884
3.355	0.004604
3.360	0.004192
3.365	0.003654
3.370	0.002883
3.375	0.001699
3.380	0.000081
3.385	-0.002060
3.390	-0.004489
3.395	-0.006941
3.400	-0.008645
3.405	-0.009047
3.410	-0.007894
3.415	-0.005676
3.420	-0.002601
3.425	0.001682
3.430	0.006260
3.435	0.009566
3.440	0.011074
3.445	0.011504
3.450	0.011515
3.455	0.011395
3.460	0.011175
3.465	0.010902
3.470	0.010604
3.475	0.010280
3.480	0.009868
3.485	0.009493
3.490	0.009033
3.495	0.008637
3.500	0.008178
3.505	0.007807
3.510	0.007425
3.515	0.007031
3.520	0.006697
3.525	0.006386
3.530	0.006072
3.535	0.005732
3.540	0.005286
3.545	0.004597
3.550	0.003575
3.555	0.002081
3.560	0.000151
3.565	-0.002311
3.570	-0.004859
3.575	-0.007018
3.580	-0.007902
3.585	-0.007110
3.590	-0.005007
3.595	-0.001901
3.600	0.002308
3.605	0.007377
3.610	0.011441
3.615	0.013594
3.620	0.014274
3.625	0.014348
3.630	0.014203
3.635	0.013944
3.640	0.013619
3.645	0.013173
3.650	0.012762
3.655	0.012254
3.660	0.011759
3.665	0.011219
3.670	0.010682
3.675	0.010175
3.680	0.009666
3.685	0.009153
3.690	0.008593
3.695	0.008012
3.700	0.007343
3.705	0.006547
3.710	0.005476
3.715	0.003998
3.720	0.002039
3.725	-0.000513
3.730	-0.003367
3.735	-0.006169
3.740	-0.007853
3.745	-0.007505
3.750	-0.005360
3.755	-0.002515
3.760	0.001084
3.765	0.006143
3.770	0.010675
3.775	0.012577
3.780	0.011845
3.785	0.010453
3.790	0.009223
3.795	0.008160
3.800	0.007347
3.805	0.006612
3.810	0.005987
3.815	0.005452
3.820	0.005032
3.825	0.004633
3.830	0.004340
3.835	0.004085
3.840	0.003884
3.845	0.003686
3.850	0.003543
3.855	0.003414
3.860	0.003299
3.865	0.003230
3.870	0.003167
3.875	0.003128
3.880	0.003104
3.885	0.003054
3.890	0.003024
3.895	0.003025
3.900	0.003001
3.905	0.002997
3.910	0.002986
3.915	0.002967
3.920	0.002967
3.925	0.002961
3.930	0.002943
3.935	0.002937
3.940	0.002932
3.945	0.002927
3.950	0.002898
3.955	0.002925
3.960	0.002939
3.965	0.002925
3.970	0.002947
3.975	0.002961
3.980	0.002951
3.985	0.002946
3.990	0.002934
3.995	0.002952
4.000	0.002951
4.005	0.002943
4.010	0.002960
4.015	0.002941
4.020	0.002942
4.025	0.002962
4.030	0.002957
4.035	0.002944
4.040	0.002979
4.045	0.002947
4.050	0.002959
4.055	0.002966
4.060	0.002971
4.065	0.002996
4.070	0.003011
4.075	0.002967
4.080	0.002938
4.085	0.002969
4.090	0.002967
4.095	0.002971
4.100	0.002995
4.105	0.002978
4.110	0.002975
4.115	0.002971
4.120	0.002991
4.125	0.002987
4.130	0.002990
4.135	0.003011
4.140	0.003012
4.145	0.003005
4.150	0.003044
4.155	0.003031
4.160	0.003052
4.165	0.003066
4.170	0.003049
4.175	0.003091
4.180	0.003112
4.185	0.003095
4.190	0.003092
4.195	0.003089
4.200	0.003054
4.205	0.003091
4.210	0.003113
4.215	0.003091
4.220	0.003109
4.225	0.003100
4.230	0.003073
4.235	0.003082
4.240	0.003117
4.245	0.003126
4.250	0.003104
4.255	0.003122
4.260	0.003123
4.265	0.003134
4.270	0.003146
4.275	0.003169
4.280	0.003125
4.285	0.003149
4.290	0.003142
4.295	0.003124
4.300	0.003143
4.305	0.003109
4.310	0.003148
4.315	0.003160
4.320	0.003190
4.325	0.003167
4.330	0.003186
4.335	0.003197
4.340	0.003234
4.345	0.003238
4.350	0.003236
4.355	0.003225
4.360	0.003228
4.365	0.003227
4.370	0.003229
4.375	0.003250
4.380	0.003269
4.385	0.003257
4.390	0.003258
4.395	0.003276
4.400	0.003265
4.405	0.003285
4.410	0.003294
4.415	0.003288
4.420	0.003269
4.425	0.003288
4.430	0.003288
4.435	0.003313
4.440	0.003317
4.445	0.003279
4.450	0.003302
4.455	0.003307
4.460	0.003299
4.465	0.003302
4.470	0.003309
4.475	0.003303
4.480	0.003337
4.485	0.003338
4.490	0.003346
4.495	0.003361
4.500	0.003380
4.505	0.003395
4.510	0.003390
4.515	0.003373
4.520	0.003396
4.525	0.003400
4.530	0.003378
4.535	0.003397
4.540	0.003414
4.545	0.003395
4.550	0.003421
4.555	0.003441
4.560	0.003429
4.565	0.003444
4.570	0.003426
4.575	0.003434
4.580	0.003444
4.585	0.003439
4.590	0.003453
4.595	0.003475
4.600	0.003460
4.605	0.003461
4.610	0.003489
4.615	0.003490
4.620	0.003491
4.625	0.003497
4.630	0.003512
4.635	0.003492
4.640	0.003502
4.645	0.003505
4.650	0.003506
4.655	0.003537
4.660	0.003526
4.665	0.003541
4.670	0.003546
4.675	0.003550
4.680	0.003554
4.685	0.003547
4.690	0.003550
4.695	0.003557
4.700	0.003577
4.705	0.003570
4.710	0.003581
4.715	0.003601
4.720	0.003606
4.725	0.003634
4.730	0.003626
4.735	0.003627
4.740	0.003631
4.745	0.003634
4.750	0.003622
4.755	0.003649
4.760	0.003629
4.765	0.003650
4.770	0.003644
4.775	0.003674
4.780	0.003658
4.785	0.003669
4.790	0.003673
4.795	0.003683
4.800	0.003684
4.805	0.003716
4.810	0.003699
4.815	0.003704
4.820	0.003694
4.825	0.003715
4.830	0.003714
4.835	0.003719
4.840	0.003728
4.845	0.003758
4.850	0.003757
4.855	0.003750
4.860	0.003747
4.865	0.003751
4.870	0.003784
4.875	0.003768
4.880	0.003777
4.885	0.003762
4.890	0.003793
4.895	0.003791
4.900	0.003782
4.905	0.003804
4.910	0.003774
4.915	0.003819
4.920	0.003829
4.925	0.003834
4.930	0.003837
4.935	0.003843
4.940	0.003843
4.945	0.003840
4.950	0.003868
4.955	0.003871
4.960	0.003884
4.965	0.003883
4.970	0.003882
4.975	0.003885
4.980	0.003890
4.985	0.003893
4.990	0.003884
4.995	0.003897
5.000	0.003926
5.005	0.003919
5.010	0.003916
5.015	0.003951
5.020	0.003934
5.025	0.003960
5.030	0.003945
5.035	0.003962
5.040	0.003961
5.045	0.003982
5.050	0.003972
5.055	0.003983
5.060	0.004000
5.065	0.003997
5.070	0.004011
5.075	0.004010
5.080	0.004009
5.085	0.004018
5.090	0.004029
5.095	0.004017
5.100	0.004031
5.105	0.004034
5.110	0.004032
5.115	0.004055
5.120	0.004057
5.125	0.004079
5.130	0.004074
5.135	0.004085
5.140	0.004081
5.145	0.004097
5.150	0.004090
5.155	0.004102
5.160	0.004115
5.165	0.004124
5.170	0.004107
5.175	0.004129
5.180	0.004135
5.185	0.004147
5.190	0.004124
5.195	0.004149
5.200	0.004162
5.205	0.004145
5.210	0.004173
5.215	0.004179
5.220	0.004210
5.225	0.004184
5.230	0.004183
5.235	0.004206
5.240	0.004210
5.245	0.004196
5.250	0.004228
5.255	0.004233
5.260	0.004237
5.265	0.004231
5.270	0.004241
5.275	0.004268
5.280	0.004258
5.285	0.004251
5.290	0.004243
5.295	0.004269
5.300	0.004277
5.305	0.004278
5.310	0.004295
5.315	0.004307
5.320	0.004291
5.325	0.004321
5.330	0.004327
5.335	0.004301
5.340	0.004325
5.345	0.004308
5.350	0.004330
5.355	0.004352
5.360	0.004362
5.365	0.004345
5.370	0.004370
5.375	0.004357
5.380	0.004378
5.385	0.004365
5.390	0.004381
5.395	0.004401
5.400	0.004390
5.405	0.004398
5.410	0.004408
5.415	0.004416
5.420	0.004431
5.425	0.004428
5.430	0.004441
5.435	0.004441
5.440	0.004449
5.445	0.004476
5.450	0.004456
5.455	0.004460
5.460	0.004495
5.465	0.004472
5.470	0.004486
5.475	0.004504
5.480	0.004508
5.485	0.004497
5.490	0.004507
5.495	0.004527
5.500	0.004521
5.505	0.004543
5.510	0.004566
5.515	0.004563
5.520	0.004571
5.525	0.004555
5.530	0.004598
5.535	0.004565
5.540	0.004592
5.545	0.004603
5.550	0.004610
5.555	0.004614
5.560	0.004616
5.565	0.004641
5.570	0.004641
5.575	0.004641
5.580	0.004641
5.585	0.004660
5.590	0.004648
5.595	0.004668
5.600	0.004679
5.605	0.004678
5.610	0.004696
5.615	0.004723
5.620	0.004718
5.625	0.004735
5.630	0.004706
5.635	0.004741
5.640	0.004751
5.645	0.004725
5.650	0.004751
5.655	0.004777
5.660	0.004769
5.665	0.004767
5.670	0.004776
5.675	0.004798
5.680	0.004808
5.685	0.004810
5.690	0.004834
5.695	0.004825
5.700	0.004839
5.705	0.004838
5.710	0.004847
5.715	0.004862
5.720	0.004861
5.725	0.004879
5.730	0.004874
5.735	0.004886
5.740	0.004893
5.745	0.004896
5.750	0.004925
5.755	0.004912
5.760	0.004922
5.765	0.004930
5.770	0.004942
5.775	0.004938
5.780	0.004938
5.785	0.004957
5.790	0.004969
5.795	0.004983
5.800	0.004970
5.805	0.004999
5.810	0.004989
5.815	0.005035
5.820	0.005008
5.825	0.005032
5.830	0.005021
5.835	0.005054
5.840	0.005067
5.845	0.005055
5.850	0.005067
5.855	0.005071
5.860	0.005072
5.865	0.005095
5.870	0.005094
5.875	0.005098
5.880	0.005108
5.885	0.005120
5.890	0.005122
5.895	0.005138
5.900	0.005144
5.905	0.005176
5.910	0.005146
5.915	0.005177
5.920	0.005171
5.925	0.005178
5.930	0.005184
5.935	0.005208
5.940	0.005243
5.945	0.005231
5.950	0.005226
5.955	0.005246
5.960	0.005269
5.965	0.005246
5.970	0.005268
5.975	0.005265
5.980	0.005285
5.985	0.005287
5.990	0.005271
5.995	0.005298
6.000	0.005325
6.005	0.005321
6.010	0.005308
6.015	0.005334
6.020	0.005326
6.025	0.005360
6.030	0.005356
6.035	0.005350
6.040	0.005372
6.045	0.005398
6.050	0.005404
6.055	0.005418
6.060	0.005405
6.065	0.005417
6.070	0.005439
6.075	0.005446
6.080	0.005459
6.085	0.005464
6.090	0.005454
6.095	0.005484
6.100	0.005485
6.105	0.005472
6.110	0.005491
6.115	0.005502
6.120	0.005514
6.125	0.005511
6.130	0.005523
6.135	0.005547
6.140	0.005526
6.145	0.005574
6.150	0.005553
6.155	0.005579
6.160	0.005587
6.165	0.005598
6.170	0.005614
6.175	0.005597
6.180	0.005614
6.185	0.005629
6.190	0.005635
6.195	0.005650
6.200	0.005650
6.205	0.005677
6.210	0.005674
6.215	0.005697
6.220	0.005696
6.225	0.005706
6.230	0.005730
6.235	0.005726
6.240	0.005748
6.245	0.005737
6.250	0.005745
6.255	0.005765
6.260	0.005774
6.265	0.005776
6.270	0.005779
6.275	0.005802
6.280	0.005807
6.285	0.005840
6.290	0.005817
6.295	0.005844
6.300	0.005858
6.305	0.005844
6.310	0.005878
6.315	0.005897
6.320	0.005909
6.325	0.005893
6.330	0.005928
6.335	0.005925
6.340	0.005927
6.345	0.005939
6.350	0.005965
6.355	0.005982
6.360	0.005971
6.365	0.005979
6.370	0.005991
6.375	0.006013
6.380	0.006021
6.385	0.006013
6.390	0.006039
6.395	0.006057
6.400	0.006047
6.405	0.006062
6.410	0.006077
6.415	0.006085
6.420	0.006108
6.425	0.006130
6.430	0.006112
6.435	0.006119
6.440	0.006159
6.445	0.006149
6.450	0.006174
6.455	0.006176
6.460	0.006191
6.465	0.006189
6.470	0.006208
6.475	0.006229
6.480	0.006225
6.485	0.006253
6.490	0.006243
6.495	0.006270
6.500	0.006258
6.505	0.006292
6.510	0.006300
6.515	0.006310
6.520	0.006322
6.525	0.006340
6.530	0.006353
6.535	0.006326
6.540	0.006401
6.545	0.006377
6.550	0.006372
6.555	0.006380
6.560	0.006395
6.565	0.006429
6.570	0.006444
6.575	0.006441
6.580	0.006481
6.585	0.006481
6.590	0.006477
6.595	0.006482
6.600	0.006482
6.605	0.006517
6.610	0.006534
6.615	0.006536
6.620	0.006548
6.625	0.006547
6.630	0.006551
6.635	0.006573
6.640	0.006585
6.645	0.006618
6.650	0.006616
6.655	0.006619
6.660	0.006638
6.665	0.006672
6.670	0.006643
6.675	0.006672
6.680	0.006678
6.685	0.006692
6.690	0.006693
6.695	0.006720
6.700	0.006730
6.705	0.006766
6.710	0.006782
6.715	0.006771
6.720	0.006787
6.725	0.006784
6.730	0.006797
6.735	0.006818
6.740	0.006841
6.745	0.006852
6.750	0.006875
6.755	0.006883
6.760	0.006909
6.765	0.006898
6.770	0.006916
6.775	0.006915
6.780	0.006931
6.785	0.006951
6.790	0.006952
6.795	0.006995
6.800	0.007013
6.805	0.007019
6.810	0.007018
6.815	0.007051
6.820	0.007049
6.825	0.007070
6.830	0.007077
6.835	0.007098
6.840	0.007109
6.845	0.007110
6.850	0.007112
6.855	0.007147
6.860	0.007152
6.865	0.007171
6.870	0.007200
6.875	0.007201
6.880	0.007203
6.885	0.007237
6.890	0.007243
6.895	0.007262
6.900	0.007263
6.905	0.007307
6.910	0.007315
6.915	0.007317
6.920	0.007337
6.925	0.007327
6.930	0.007332
6.935	0.007390
6.940	0.007372
6.945	0.007384
6.950	0.007412
6.955	0.007426
6.960	0.007431
6.965	0.007460
6.970	0.007481
6.975	0.007502
6.980	0.007540
6.985	0.007511
6.990	0.007532
6.995	0.007545
7.000	0.007545
7.005	0.007574
7.010	0.007592
7.015	0.007618
7.020	0.007622
7.025	0.007655
7.030	0.007663
7.035	0.007680
7.040	0.007712
7.045	0.007720
7.050	0.007718
7.055	0.007744
7.060	0.007758
7.065	0.007756
7.070	0.007796
7.075	0.007812
7.080	0.007838
7.085	0.007827
7.090	0.007842
7.095	0.007883
7.100	0.007892
7.105	0.007894
7.110	0.007943
7.115	0.007957
7.120	0.007963
7.125	0.008005
7.130	0.008002
7.135	0.007998
7.140	0.008035
7.145	0.008044
7.150	0.008054
7.155	0.008094
7.160	0.008098
7.165	0.008118
7.170	0.008118
7.175	0.008142
7.180	0.008174
7.185	0.008196
7.190	0.008216
7.195	0.008231
7.200	0.008212
7.205	0.008269
7.210	0.008287
7.215	0.008301
7.220	0.008303
7.225	0.008342
7.230	0.008353
7.235	0.008375
7.240	0.008388
7.245	0.008414
7.250	0.008434
7.255	0.008455
7.260	0.008454
7.265	0.008493
7.270	0.008502
7.275	0.008551
7.280	0.008530
7.285	0.008566
7.290	0.008598
7.295	0.008590
7.300	0.008638
7.305	0.008638
7.310	0.008657
7.315	0.008690
7.320	0.008713
7.325	0.008744
7.330	0.008733
7.335	0.008775
7.340	0.008808
7.345	0.008797
7.350	0.008840
7.355	0.008869
7.360	0.008873
7.365	0.008904
7.370	0.008944
7.375	0.008956
7.380	0.008964
7.385	0.008968
7.390	0.009029
7.395	0.009042
7.400	0.009068
7.405	0.009089
7.410	0.009137
7.415	0.009137
7.420	0.009125
7.425	0.009168
7.430	0.009196
7.435	0.009230
7.440	0.009234
7.445	0.009267
7.450	0.009290
7.455	0.009330
7.460	0.009325
7.465	0.009364
7.470	0.009400
7.475	0.009425
7.480	0.009445
7.485	0.009456
7.490	0.009473
7.495	0.009514
7.500	0.009513
7.505	0.009563
7.510	0.009607
7.515	0.009613
7.520	0.009647
7.525	0.009651
7.530	0.009687
7.535	0.009733
7.540	0.009751
7.545	0.009758
7.550	0.009809
7.555	0.009821
7.560	0.009845
7.565	0.009889
7.570	0.009889
7.575	0.009941
7.580	0.009935
7.585	0.009959
7.590	0.009999
7.595	0.010025
7.600	0.010070
7.605	0.010067
7.610	0.010122
7.615	0.010127
7.620	0.010179
7.625	0.010196
7.630	0.010250
7.635	0.010251
7.640	0.010305
7.645	0.010331
7.650	0.010366
7.655	0.010385
7.660	0.010427
7.665	0.010437
7.670	0.010494
7.675	0.010538
7.680	0.010563
7.685	0.010577
7.690	0.010634
7.695	0.010662
7.700	0.010697
7.705	0.010725
7.710	0.010756
7.715	0.010786
7.720	0.010857
7.725	0.010869
7.730	0.010873
7.735	0.010915
7.740	0.010949
7.745	0.010975
7.750	0.011020
7.755	0.011055
7.760	0.011101
7.765	0.011129
7.770	0.011182
7.775	0.011197
7.780	0.011245
7.785	0.011271
7.790	0.011293
7.795	0.011339
7.800	0.011371
7.805	0.011413
7.810	0.011450
7.815	0.011526
7.820	0.011538
7.825	0.011573
7.830	0.011621
7.835	0.011661
7.840	0.011696
7.845	0.011729
7.850	0.011770
7.855	0.011797
7.860	0.011829
7.865	0.011887
7.870	0.011942
7.875	0.011966
7.880	0.012016
7.885	0.012071
7.890	0.012093
7.895	0.012148
7.900	0.012170
7.905	0.012234
7.910	0.012293
7.915	0.012317
7.920	0.012370
7.925	0.012418
7.930	0.012469
7.935	0.012527
7.940	0.012563
7.945	0.012601
7.950	0.012672
7.955	0.012692
7.960	0.012772
7.965	0.012811
7.970	0.012890
7.975	0.012922
7.980	0.012961
7.985	0.013033
7.990	0.013065
7.995	0.013152
8.000	0.013180
8.005	0.013250
8.010	0.013278
8.015	0.013348
8.020	0.013411
8.025	0.013466
8.030	0.013526
8.035	0.013576
8.040	0.013654
8.045	0.013717
8.050	0.013772
8.055	0.013831
8.060	0.013884
8.065	0.013945
8.070	0.014029
8.075	0.014097
8.080	0.014134
8.085	0.014204
8.090	0.014302
8.095	0.014355
8.100	0.014439
8.105	0.014492
8.110	0.014558
8.115	0.014641
8.120	0.014670
8.125	0.014753
8.130	0.014851
8.135	0.014902
8.140	0.014985
8.145	0.015061
8.150	0.015106
8.155	0.015193
8.160	0.015258
8.165	0.015384
8.170	0.015426
8.175	0.015505
8.180	0.015601
8.185	0.015693
8.190	0.015778
8.195	0.015880
8.200	0.015975
8.205	0.016042
8.210	0.016173
8.215	0.016265
8.220	0.016354
8.225	0.016444
8.230	0.016545
8.235	0.016643
8.240	0.016757
8.245	0.016841
8.250	0.016954
8.255	0.017036
8.260	0.017184
8.265	0.017277
8.270	0.017374
8.275	0.017460
8.280	0.017570
8.285	0.017716
8.290	0.017816
8.295	0.017957
8.300	0.018059
8.305	0.018205
8.310	0.018307
8.315	0.018441
8.320	0.018564
8.325	0.018714
8.330	0.018847
8.335	0.018980
8.340	0.019129
8.345	0.019278
8.350	0.019419
8.355	0.019575
8.360	0.019702
8.365	0.019894
8.370	0.020039
8.375	0.020198
8.380	0.020363
8.385	0.020534
8.390	0.020722
8.395	0.020902
8.400	0.021081
8.405	0.021285
8.410	0.021488
8.415	0.021694
8.420	0.021907
8.425	0.022128
8.430	0.022342
8.435	0.022562
8.440	0.022833
8.445	0.023046
8.450	0.023316
8.455	0.023578
8.460	0.023863
8.465	0.024154
8.470	0.024407
8.475	0.024712
8.480	0.025011
8.485	0.025376
8.490	0.025722
8.495	0.026114
8.500	0.026489
8.505	0.026897
8.510	0.027312
8.515	0.027748
8.520	0.028197
8.525	0.028676
8.530	0.029203
8.535	0.029716
8.540	0.030244
8.545	0.030865
8.550	0.031472
8.555	0.032178
8.560	0.032913
8.565	0.033653
8.570	0.034494
8.575	0.035353
8.580	0.036273
8.585	0.037469
8.590	0.038512
8.595	0.039274
8.600	0.041046
8.605	0.042802
8.610	0.044145
8.615	0.045759
8.620	0.047656
8.625	0.049929
8.630	0.052734
8.635	0.056478
8.640	0.061187
8.645	0.068222
8.650	0.077565
8.655	0.087625
8.660	0.092689
8.665	0.097513
8.670	0.097751
8.675	0.091446
8.680	0.076768
8.685	0.057844
8.690	0.041114
8.695	0.025246
8.700	0.012175
8.705	0.003688
8.710	0.000845
8.715	0.000257
8.720	0.000217
8.725	0.000148
8.730	0.000118
8.735	0.000099
8.740	0.000089
8.745	0.000084
8.750	0.000089
8.755	0.000074
8.760	0.000064
8.765	0.000054
8.770	0.000054
8.775	0.000054
8.780	0.000064
8.785	0.000079
8.790	0.000084
8.795	0.000040
8.800	0.000054
8.805	0.000069
8.810	0.000045
8.815	0.000054
8.820	0.000040
8.825	0.000040
8.830	0.000060
8.835	0.000050
8.840	0.000060
8.845	0.000050
8.850	0.000050
8.855	0.000050
8.860	0.000075
8.865	0.000079
8.870	0.000055
8.875	0.000040
8.880	0.000025
8.885	0.000050
8.890	0.000075
8.895	0.000060
8.900	0.000020
8.905	0.000021
8.910	0.000055
8.915	0.000016
8.920	0.000035
8.925	0.000060
8.930	0.000021
8.935	0.000050
8.940	0.000050
8.945	0.000065
8.950	0.000040
8.955	0.000056
8.960	0.000065
8.965	0.000050
8.970	0.000051
8.975	0.000046
8.980	0.000046
8.985	0.000031
8.990	0.000051
8.995	0.000051
9.000	0.000056
9.005	0.000036
9.010	0.000046
9.015	0.000066
9.020	0.000081
9.025	0.000056
9.030	0.000041
9.035	0.000071
9.040	0.000041
9.045	0.000041
9.050	0.000041
9.055	0.000066
9.060	0.000027
9.065	0.000046
9.070	0.000041
9.075	0.000081
9.080	0.000062
9.085	0.000056
9.090	0.000047
9.095	0.000052
9.100	0.000052
9.105	0.000042
9.110	0.000047
9.115	0.000042
9.120	0.000057
9.125	0.000071
9.130	0.000042
9.135	0.000062
9.140	0.000042
9.145	0.000052
9.150	0.000032
9.155	0.000062
9.160	0.000052
9.165	0.000042
9.170	0.000052
9.175	0.000047
9.180	0.000062
9.185	0.000047
9.190	0.000032
9.195	0.000082
9.200	0.000047
9.205	0.000037
9.210	0.000047
9.215	0.000067
9.220	0.000052
9.225	0.000037
9.230	0.000047
9.235	0.000057
9.240	0.000072
9.245	0.000072
9.250	0.000062
9.255	0.000058
9.260	0.000048
9.265	0.000067
9.270	0.000058
9.275	0.000063
9.280	0.000068
9.285	0.000062
9.290	0.000058
9.295	0.000068
9.300	0.000073
9.305	0.000063
9.310	0.000063
9.315	0.000073
9.320	0.000082
9.325	0.000092
9.330	0.000078
9.335	0.000058
9.340	0.000073
9.345	0.000083
9.350	0.000107
9.355	0.000083
9.360	0.000088
9.365	0.000093
9.370	0.000107
9.375	0.000108
9.380	0.000147
9.385	0.000162
9.390	0.000172
9.395	0.000177
9.400	0.000147
9.405	0.000113
9.410	0.000088
9.415	0.000064
9.420	0.000069
9.425	0.000034
9.430	0.000004
9.435	0.000014
9.440	0.000019
9.445	0.000004
9.450	-0.000016
9.455	0.000004
9.460	-0.000006
9.465	-0.000006
9.470	-0.000016
9.475	-0.000000
9.480	-0.000010
9.485	-0.000011
9.490	-0.000011
9.495	-0.000020
9.500	-0.000005
9.505	-0.000010
9.510	0.000019
9.515	0.000024
9.520	0.000010
9.525	-0.000010
9.530	-0.000010
9.535	-0.000005
9.540	-0.000010
9.545	0.000005
9.550	-0.000015
9.555	0.000000
9.560	0.000005
9.565	-0.000020
9.570	-0.000010
9.575	-0.000005
9.580	0.000000
9.585	-0.000020
9.590	0.000000
9.595	-0.000009
9.600	-0.000019
9.605	-0.000015
9.610	0.000005
9.615	0.000016
9.620	0.000025
9.625	-0.000009
9.630	-0.000019
9.635	-0.000014
9.640	-0.000009
9.645	-0.000024
9.650	0.000005
9.655	-0.000009
9.660	-0.000019
9.665	-0.000019
9.670	0.000000
9.675	-0.000009
9.680	0.000001
9.685	-0.000019
9.690	-0.000019
9.695	-0.000009
9.700	-0.000024
9.705	-0.000019
9.710	-0.000024
9.715	-0.000029
9.720	-0.000009
9.725	0.000001
9.730	-0.000019
9.735	0.000011
9.740	0.000001
9.745	-0.000004
9.750	-0.000033
9.755	0.000011
9.760	0.000006
9.765	-0.000014
9.770	0.000011
9.775	0.000001
9.780	0.000016
9.785	-0.000009
9.790	-0.000014
9.795	-0.000004
9.800	0.000006
9.805	-0.000024
9.810	-0.000014
9.815	0.000007
9.820	-0.000013
9.825	-0.000013
9.830	-0.000008
9.835	-0.000008
9.840	-0.000018
9.845	-0.000028
9.850	-0.000023
9.855	-0.000018
9.860	-0.000008
9.865	-0.000008
9.870	-0.000028
9.875	0.000002
9.880	-0.000013
9.885	-0.000023
9.890	-0.000013
9.895	0.000002
9.900	0.000002
9.905	0.000002
9.910	-0.000033
9.915	-0.000008
9.920	-0.000003
9.925	-0.000013
9.930	-0.000013
9.935	-0.000012
9.940	-0.000022
9.945	-0.000003
9.950	-0.000013
9.955	-0.000007
9.960	-0.000022
9.965	0.000002
9.970	-0.000018
9.975	-0.000007
9.980	-0.000007
9.985	-0.000012
9.990	0.000007
9.995	-0.000007
10.000	0.000008
10.005	-0.000027
10.010	-0.000017
10.015	-0.000007
10.020	-0.000007
10.025	-0.000002
10.030	-0.000022
10.035	0.000003
10.040	-0.000016
10.045	-0.000012
10.050	0.000003
10.055	0.000062
10.060	0.000136
10.065	0.000026
10.070	-0.000028
10.075	-0.000027
10.080	0.000116
10.085	-0.000178
10.090	-0.000166
10.095	-0.000041
10.100	-0.000016
10.105	0.000003
10.110	-0.000011
10.115	0.000038
10.120	0.000014
10.125	-0.000016
10.130	-0.000001
10.135	-0.000021
10.140	-0.000011
10.145	0.000013
10.150	-0.000026
10.155	-0.000040
10.160	-0.000035
10.165	-0.000026
10.170	-0.000021
10.175	-0.000001
10.180	0.000004
10.185	-0.000016
10.190	0.000014
10.195	-0.000001
10.200	-0.000001
10.205	-0.000011
10.210	-0.000011
10.215	0.000024
10.220	0.000009
10.225	-0.000006
10.230	-0.000015
10.235	-0.000015
10.240	-0.000005
10.245	-0.000020
10.250	-0.000015
10.255	-0.000005
10.260	-0.000005
10.265	-0.000030
10.270	-0.000005
10.275	0.000010
10.280	-0.000025
10.285	-0.000030
10.290	-0.000025
10.295	-0.000015
10.300	-0.000005
10.305	-0.000005
10.310	-0.000015
10.315	-0.000015
10.320	0.000005
10.325	-0.000005
10.330	-0.000005
10.335	-0.000005
10.340	0.000025
10.345	-0.000005
10.350	0.000010
10.355	-0.000010
10.360	0.000000
10.365	0.000001
10.370	0.000020
10.375	0.000005
10.380	-0.000024
10.385	-0.000019
10.390	0.000011
10.395	-0.000015
10.400	-0.000010
10.405	-0.000009
10.410	-0.000029
10.415	-0.000034
10.420	-0.000004
10.425	-0.000004
10.430	-0.000024
10.435	-0.000014
10.440	0.000001
10.445	-0.000009
10.450	-0.000009
10.455	0.000001
10.460	-0.000014
10.465	-0.000014
10.470	-0.000009
10.475	-0.000009
10.480	-0.000028
10.485	0.000011
10.490	-0.000008
10.495	0.000001
10.500	-0.000008
10.505	-0.000013
10.510	0.000001
10.515	0.000011
10.520	0.000011
10.525	-0.000023
10.530	-0.000008
10.535	-0.000008
10.540	-0.000008
10.545	-0.000008
10.550	0.000016
10.555	0.000011
10.560	-0.000003
10.565	-0.000008
10.570	0.000022
10.575	0.000007
10.580	0.000017
10.585	0.000002
10.590	-0.000003
10.595	-0.000028
10.600	0.000002
10.605	-0.000003
10.610	0.000007
10.615	0.000002
10.620	-0.000003
10.625	0.000002
10.630	0.000012
10.635	-0.000008
10.640	0.000007
10.645	0.000017
10.650	0.000022
10.655	0.000002
10.660	0.000022
10.665	-0.000012
10.670	0.000022
10.675	-0.000007
10.680	0.000007
10.685	-0.000002
10.690	-0.000002
10.695	0.000013
10.700	0.000027
10.705	-0.000017
10.710	0.000028
10.715	-0.000002
10.720	0.000003
10.725	-0.000007
10.730	0.000023
10.735	0.000003
10.740	-0.000007
10.745	0.000003
10.750	-0.000007
10.755	-0.000012
10.760	-0.000007
10.765	0.000013
10.770	-0.000022
10.775	-0.000002
10.780	-0.000012
10.785	0.000008
10.790	0.000013
10.795	-0.000007
10.800	-0.000021
10.805	-0.000011
10.810	-0.000026
10.815	-0.000002
10.820	0.000003
10.825	0.000018
10.830	-0.000011
10.835	-0.000002
10.840	-0.000001
10.845	0.000013
10.850	-0.000006
10.855	-0.000001
10.860	-0.000006
10.865	0.000004
10.870	-0.000011
10.875	-0.000026
10.880	-0.000021
10.885	-0.000006
10.890	-0.000016
10.895	-0.000016
10.900	-0.000001
10.905	-0.000006
10.910	-0.000006
10.915	-0.000006
10.920	0.000004
10.925	0.000009
10.930	0.000004
10.935	-0.000046
10.940	-0.000031
10.945	-0.000001
10.950	-0.000011
10.955	-0.000016
10.960	-0.000041
10.965	-0.000015
10.970	-0.000006
10.975	-0.000016
10.980	0.000004
10.985	0.000005
10.990	0.000009
10.995	-0.000021
11.000	-0.000016
11.005	-0.000000
11.010	-0.000010
11.015	0.000009
11.020	-0.000056
11.025	-0.000015
11.030	-0.000020
11.035	-0.000040
11.040	-0.000021
11.045	-0.000020
11.050	-0.000001
11.055	-0.000025
11.060	-0.000000
11.065	-0.000010
11.070	-0.000015
11.075	-0.000035
11.080	-0.000010
11.085	-0.000020
11.090	-0.000015
11.095	-0.000010
11.100	-0.000035
11.105	-0.000020
11.110	-0.000010
11.115	-0.000030
11.120	-0.000010
11.125	0.000000
11.130	-0.000010
11.135	-0.000015
11.140	-0.000015
11.145	0.000020
11.150	-0.000015
11.155	-0.000010
11.160	-0.000025
11.165	-0.000019
11.170	-0.000024
11.175	0.000000
11.180	-0.000005
11.185	-0.000014
11.190	-0.000029
11.195	-0.000019
11.200	-0.000010
11.205	0.000005
11.210	-0.000009
11.215	-0.000019
11.220	-0.000014
11.225	-0.000004
11.230	-0.000014
11.235	-0.000004
11.240	-0.000004
11.245	-0.000004
11.250	-0.000014
11.255	-0.000004
11.260	-0.000034
11.265	-0.000009
11.270	-0.000009
11.275	-0.000009
11.280	-0.000014
11.285	-0.000024
11.290	-0.000019
11.295	0.000001
11.300	-0.000019
11.305	-0.000014
11.310	-0.000029
11.315	-0.000004
11.320	-0.000013
11.325	0.000026
11.330	0.000045
11.335	-0.000068
11.340	0.000006
11.345	-0.000009
11.350	-0.000023
11.355	0.000012
11.360	-0.000013
11.365	-0.000003
11.370	-0.000018
11.375	0.000027
11.380	-0.000003
11.385	-0.000003
11.390	-0.000013
11.395	-0.000008
11.400	-0.000003
11.405	-0.000023
11.410	-0.000013
11.415	-0.000003
11.420	-0.000003
11.425	-0.000023
11.430	-0.000028
11.435	-0.000008
11.440	-0.000008
11.445	-0.000003
11.450	-0.000013
11.455	-0.000003
11.460	0.000007
11.465	-0.000003
11.470	-0.000008
11.475	0.000017
11.480	-0.000012
11.485	-0.000012
11.490	-0.000017
11.495	-0.000012
11.500	-0.000002
11.505	-0.000022
11.510	-0.000007
11.515	-0.000017
11.520	-0.000002
11.525	-0.000007
11.530	-0.000037
11.535	-0.000032
11.540	-0.000017
11.545	-0.000012
11.550	-0.000007
11.555	-0.000027
11.560	-0.000002
11.565	-0.000027
11.570	-0.000017
11.575	-0.000017
11.580	-0.000017
11.585	-0.000032
11.590	-0.000032
11.595	-0.000022
11.600	-0.000022
11.605	-0.000012
11.610	-0.000017
11.615	-0.000007
11.620	-0.000007
11.625	-0.000022
11.630	-0.000027
11.635	-0.000007
11.640	-0.000017
11.645	-0.000027
11.650	-0.000037
11.655	-0.000027
11.660	-0.000012
11.665	-0.000002
11.670	-0.000017
11.675	-0.000021
11.680	-0.000006
11.685	-0.000012
11.690	-0.000016
11.695	-0.000016
11.700	-0.000021
11.705	-0.000026
11.710	-0.000006
11.715	-0.000016
11.720	0.000009
11.725	-0.000006
11.730	0.000009
11.735	-0.000001
11.740	-0.000021
11.745	-0.000011
11.750	-0.000036
11.755	0.000004
11.760	-0.000001
11.765	-0.000036
11.770	-0.000031
11.775	-0.000030
11.780	0.000014
11.785	-0.000011
11.790	-0.000001
11.795	-0.000020
11.800	-0.000006
11.805	-0.000016
11.810	-0.000030
11.815	-0.000000
11.820	0.000019
11.825	-0.000025
11.830	-0.000030
11.835	0.000010
11.840	-0.000010
11.845	-0.000011
11.850	-0.000020
11.855	0.000015
11.860	-0.000005
11.865	-0.000015
11.870	-0.000020
11.875	-0.000010
11.880	-0.000005
11.885	-0.000015
11.890	-0.000025
11.895	-0.000030
11.900	-0.000025
11.905	-0.000025
11.910	-0.000010
11.915	-0.000005
11.920	-0.000010
11.925	-0.000015
11.930	-0.000010
11.935	-0.000024
11.940	-0.000005
11.945	-0.000015
11.950	-0.000025
11.955	-0.000019
11.960	-0.000024
11.965	-0.000020
11.970	-0.000029
11.975	-0.000034
11.980	-0.000015
11.985	-0.000039
11.990	-0.000010
11.995	-0.000020
12.000	-0.000015
12.005	0.000001
12.010	0.000016
12.015	0.000000
12.020	0.000010
12.025	-0.000024
12.030	-0.000029
12.035	-0.000029
12.040	-0.000019
12.045	0.000011
12.050	-0.000019
12.055	-0.000019
12.060	-0.000004
12.065	-0.000014
12.070	-0.000009
12.075	-0.000044
12.080	-0.000029
12.085	-0.000028
12.090	-0.000014
12.095	-0.000039
12.100	-0.000029
12.105	-0.000028
12.110	-0.000023
12.115	-0.000019
12.120	-0.000029
12.125	-0.000033
12.130	0.000001
12.135	-0.000034
12.140	-0.000043
12.145	0.000021
12.150	-0.000008
12.155	-0.000018
12.160	-0.000013
12.165	-0.000003
12.170	0.000002
12.175	-0.000033
12.180	-0.000013
12.185	-0.000023
12.190	0.000027
12.195	-0.000018
12.200	-0.000023
12.205	-0.000008
12.210	-0.000023
12.215	-0.000023
12.220	-0.000028
12.225	-0.000013
12.230	-0.000022
12.235	-0.000028
12.240	-0.000052
12.245	0.000007
12.250	-0.000017
12.255	-0.000018
12.260	-0.000008
12.265	-0.000007
12.270	-0.000003
12.275	-0.000018
12.280	-0.000018
12.285	-0.000007
12.290	0.000012
12.295	-0.000013
12.300	-0.000013
12.305	-0.000017
12.310	-0.000007
12.315	-0.000032
12.320	-0.000047
12.325	-0.000007
12.330	-0.000007
12.335	-0.000027
12.340	-0.000013
12.345	-0.000012
12.350	-0.000002
12.355	-0.000032
12.360	-0.000012
12.365	-0.000007
12.370	-0.000002
12.375	-0.000022
12.380	-0.000022
12.385	-0.000012
12.390	-0.000022
12.395	-0.000017
12.400	-0.000017
12.405	-0.000022
12.410	-0.000027
12.415	-0.000002
12.420	-0.000026
12.425	-0.000027
12.430	-0.000031
12.435	-0.000011
12.440	-0.000026
12.445	-0.000027
12.450	-0.000022
12.455	-0.000011
12.460	-0.000011
12.465	0.000003
12.470	-0.000031
12.475	-0.000026
12.480	-0.000021
12.485	-0.000017
12.490	-0.000031
12.495	-0.000011
12.500	-0.000001
12.505	-0.000031
12.510	-0.000021
12.515	0.000009
12.520	-0.000016
12.525	-0.000016
12.530	-0.000006
12.535	-0.000020
12.540	-0.000016
12.545	-0.000006
12.550	-0.000025
12.555	-0.000016
12.560	-0.000001
12.565	-0.000015
12.570	-0.000005
12.575	-0.000020
12.580	-0.000010
12.585	-0.000015
12.590	-0.000000
12.595	-0.000025
12.600	-0.000025
12.605	-0.000010
12.610	-0.000000
12.615	-0.000025
12.620	-0.000006
12.625	-0.000020
12.630	-0.000005
12.635	-0.000035
12.640	-0.000020
12.645	-0.000015
12.650	-0.000020
12.655	-0.000040
12.660	-0.000025
12.665	-0.000010
12.670	-0.000025
12.675	-0.000030
12.680	-0.000035
12.685	-0.000005
12.690	-0.000030
12.695	-0.000010
12.700	-0.000035
12.705	-0.000010
12.710	-0.000030
12.715	-0.000040
12.720	-0.000000
12.725	-0.000010
12.730	0.000005
12.735	-0.000010
12.740	-0.000020
12.745	-0.000004
12.750	-0.000019
12.755	-0.000015
12.760	-0.000015
12.765	-0.000014
12.770	-0.000039
12.775	-0.000005
12.780	-0.000020
12.785	-0.000015
12.790	-0.000010
12.795	-0.000024
12.800	-0.000024
12.805	-0.000010
12.810	-0.000034
12.815	-0.000039
12.820	-0.000039
12.825	-0.000009
12.830	-0.000024
12.835	-0.000014
12.840	-0.000034
12.845	-0.000019
12.850	-0.000024
12.855	-0.000019
12.860	-0.000004
12.865	-0.000009
12.870	-0.000034
12.875	-0.000034
12.880	-0.000029
12.885	-0.000024
12.890	-0.000024
12.895	-0.000014
12.900	-0.000044
12.905	-0.000034
12.910	-0.000029
12.915	-0.000039
12.920	-0.000019
12.925	-0.000023
12.930	-0.000024
12.935	-0.000009
12.940	-0.000024
12.945	-0.000013
12.950	-0.000019
12.955	-0.000024
12.960	-0.000024
12.965	-0.000013
12.970	-0.000024
12.975	-0.000038
12.980	-0.000014
12.985	-0.000018
12.990	-0.000028
12.995	-0.000018
13.000	-0.000023
13.005	0.000002
13.010	-0.000013
13.015	-0.000023
13.020	-0.000023
13.025	-0.000023
13.030	0.000006
13.035	-0.000018
13.040	-0.000023
13.045	0.000007
13.050	-0.000023
13.055	-0.000008
13.060	-0.000038
13.065	0.000002
13.070	-0.000003
13.075	-0.000038
13.080	-0.000023
13.085	0.000003
13.090	-0.000017
13.095	-0.000023
13.100	-0.000042
13.105	-0.000002
13.110	-0.000022
13.115	-0.000037
13.120	-0.000027
13.125	0.000003
13.130	0.000003
13.135	-0.000023
13.140	-0.000023
13.145	0.000003
13.150	-0.000027
13.155	-0.000027
13.160	-0.000017
13.165	-0.000022
13.170	-0.000007
13.175	-0.000017
13.180	-0.000012
13.185	-0.000027
13.190	-0.000002
13.195	-0.000027
13.200	-0.000032
13.205	-0.000002
13.210	-0.000022
13.215	-0.000032
13.220	-0.000002
13.225	-0.000021
13.230	-0.000012
13.235	-0.000027
13.240	0.000003
13.245	-0.000031
13.250	-0.000031
13.255	-0.000012
13.260	-0.000017
13.265	0.000008
13.270	-0.000012
13.275	-0.000036
13.280	-0.000002
13.285	-0.000001
13.290	-0.000011
13.295	-0.000001
13.300	0.000004
13.305	-0.000016
13.310	0.000004
13.315	-0.000021
13.320	-0.000021
13.325	-0.000020
13.330	0.000004
13.335	-0.000021
13.340	-0.000016
13.345	-0.000010
13.350	-0.000015
13.355	-0.000006
13.360	-0.000011
13.365	-0.000000
13.370	-0.000005
13.375	0.000004
13.380	-0.000001
13.385	-0.000010
13.390	-0.000010
13.395	-0.000020
13.400	-0.000015
13.405	-0.000010
13.410	-0.000005
13.415	-0.000000
13.420	-0.000005
13.425	-0.000005
13.430	-0.000000
13.435	-0.000010
13.440	0.000005
13.445	-0.000005
13.450	-0.000005
13.455	-0.000020
13.460	-0.000005
13.465	-0.000020
13.470	-0.000005
13.475	0.000000
13.480	-0.000015
13.485	-0.000015
13.490	-0.000020
13.495	-0.000010
13.500	-0.000019
13.505	-0.000010
13.510	-0.000010
13.515	-0.000019
13.520	-0.000009
13.525	0.000000
13.530	0.000000
13.535	0.000010
13.540	-0.000014
13.545	-0.000014
13.550	0.000011
13.555	-0.000009
13.560	0.000011
13.565	-0.000014
13.570	-0.000014
13.575	-0.000004
13.580	-0.000009
13.585	-0.000009
13.590	0.000001
13.595	-0.000014
13.600	-0.000029
13.605	-0.000019
13.610	-0.000033
13.615	-0.000024
13.620	-0.000014
13.625	0.000006
13.630	-0.000018
13.635	-0.000019
13.640	-0.000033
13.645	-0.000019
13.650	0.000006
13.655	-0.000009
13.660	-0.000023
13.665	-0.000014
13.670	-0.000009
13.675	0.000001
13.680	-0.000018
13.685	-0.000014
13.690	-0.000028
13.695	-0.000004
13.700	-0.000013
