PK2650 Deflection Data
Z Position (mm)	60.000	W Position (deg)	120.00
Preform ID	Diameter (mm)	Time Stamp	Start Time	Operator	Serial Number
test	18	22-Mar-23 22:58:02	22-Mar-23 23:01:59	[no user]	56941311
Radius (mm)	Deflection
-13.700	0.000017
-13.695	0.000007
-13.690	0.000022
-13.685	0.000007
-13.680	0.000017
-13.675	0.000012
-13.670	0.000037
-13.665	0.000017
-13.660	0.000012
-13.655	-0.000003
-13.650	0.000007
-13.645	0.000017
-13.640	-0.000023
-13.635	-0.000003
-13.630	-0.000018
-13.625	0.000012
-13.620	0.000007
-13.615	-0.000013
-13.610	0.000007
-13.605	-0.000003
-13.600	0.000002
-13.595	0.000017
-13.590	0.000027
-13.585	0.000007
-13.580	-0.000007
-13.575	0.000027
-13.570	-0.000002
-13.565	0.000017
-13.560	-0.000012
-13.555	0.000002
-13.550	0.000023
-13.545	0.000003
-13.540	-0.000022
-13.535	-0.000017
-13.530	0.000008
-13.525	-0.000002
-13.520	0.000008
-13.515	0.000017
-13.510	-0.000007
-13.505	-0.000012
-13.500	0.000018
-13.495	0.000013
-13.490	0.000028
-13.485	0.000023
-13.480	0.000008
-13.475	0.000003
-13.470	0.000013
-13.465	0.000008
-13.460	0.000003
-13.455	-0.000012
-13.450	0.000013
-13.445	0.000013
-13.440	0.000003
-13.435	-0.000012
-13.430	0.000023
-13.425	-0.000012
-13.420	-0.000017
-13.415	-0.000002
-13.410	-0.000007
-13.405	-0.000002
-13.400	0.000013
-13.395	0.000018
-13.390	-0.000012
-13.385	-0.000002
-13.380	-0.000001
-13.375	0.000004
-13.370	-0.000001
-13.365	0.000018
-13.360	-0.000001
-13.355	0.000019
-13.350	-0.000006
-13.345	0.000024
-13.340	0.000019
-13.335	0.000004
-13.330	-0.000001
-13.325	-0.000006
-13.320	0.000024
-13.315	-0.000001
-13.310	0.000014
-13.305	0.000024
-13.300	0.000024
-13.295	0.000014
-13.290	0.000014
-13.285	0.000019
-13.280	0.000034
-13.275	0.000019
-13.270	0.000014
-13.265	0.000039
-13.260	0.000005
-13.255	-0.000005
-13.250	0.000034
-13.245	0.000024
-13.240	0.000039
-13.235	0.000020
-13.230	0.000005
-13.225	0.000030
-13.220	0.000010
-13.215	0.000015
-13.210	0.000030
-13.205	0.000010
-13.200	0.000010
-13.195	0.000005
-13.190	0.000015
-13.185	0.000035
-13.180	0.000005
-13.175	0.000010
-13.170	0.000015
-13.165	0.000020
-13.160	0.000010
-13.155	0.000015
-13.150	0.000020
-13.145	0.000030
-13.140	0.000025
-13.135	0.000035
-13.130	0.000010
-13.125	-0.000005
-13.120	0.000015
-13.115	-0.000005
-13.110	0.000006
-13.105	0.000006
-13.100	0.000005
-13.095	0.000015
-13.090	0.000016
-13.085	0.000025
-13.080	0.000011
-13.075	0.000030
-13.070	0.000026
-13.065	0.000035
-13.060	0.000026
-13.055	0.000011
-13.050	0.000021
-13.045	0.000041
-13.040	0.000036
-13.035	0.000026
-13.030	0.000021
-13.025	0.000021
-13.020	-0.000014
-13.015	0.000021
-13.010	-0.000004
-13.005	0.000026
-13.000	0.000001
-12.995	0.000011
-12.990	0.000011
-12.985	0.000006
-12.980	0.000016
-12.975	-0.000004
-12.970	0.000021
-12.965	0.000011
-12.960	0.000016
-12.955	0.000016
-12.950	0.000031
-12.945	0.000031
-12.940	0.000016
-12.935	0.000031
-12.930	0.000017
-12.925	0.000012
-12.920	-0.000008
-12.915	0.000021
-12.910	-0.000003
-12.905	0.000027
-12.900	0.000007
-12.895	-0.000008
-12.890	0.000012
-12.885	0.000007
-12.880	-0.000013
-12.875	-0.000008
-12.870	0.000017
-12.865	0.000017
-12.860	-0.000008
-12.855	-0.000013
-12.850	0.000012
-12.845	0.000012
-12.840	0.000017
-12.835	-0.000003
-12.830	0.000012
-12.825	0.000017
-12.820	0.000022
-12.815	0.000012
-12.810	-0.000008
-12.805	0.000002
-12.800	0.000012
-12.795	-0.000023
-12.790	0.000012
-12.785	0.000007
-12.780	-0.000003
-12.775	-0.000017
-12.770	-0.000022
-12.765	-0.000003
-12.760	0.000003
-12.755	-0.000007
-12.750	-0.000017
-12.745	0.000007
-12.740	0.000008
-12.735	0.000008
-12.730	0.000008
-12.725	-0.000012
-12.720	-0.000002
-12.715	0.000003
-12.710	-0.000007
-12.705	0.000013
-12.700	0.000003
-12.695	0.000082
-12.690	-0.000107
-12.685	-0.000012
-12.680	0.000008
-12.675	0.000003
-12.670	0.000008
-12.665	0.000008
-12.660	0.000003
-12.655	-0.000007
-12.650	-0.000007
-12.645	0.000013
-12.640	0.000033
-12.635	-0.000002
-12.630	-0.000012
-12.625	0.000003
-12.620	0.000004
-12.615	0.000013
-12.610	-0.000002
-12.605	0.000013
-12.600	0.000019
-12.595	-0.000001
-12.590	-0.000016
-12.585	-0.000006
-12.580	0.000014
-12.575	-0.000011
-12.570	-0.000016
-12.565	0.000014
-12.560	0.000019
-12.555	0.000004
-12.550	0.000004
-12.545	-0.000001
-12.540	-0.000016
-12.535	-0.000006
-12.530	0.000004
-12.525	-0.000011
-12.520	-0.000001
-12.515	0.000009
-12.510	0.000004
-12.505	0.000009
-12.500	0.000009
-12.495	-0.000001
-12.490	0.000004
-12.485	-0.000016
-12.480	0.000009
-12.475	-0.000001
-12.470	0.000009
-12.465	-0.000006
-12.460	-0.000001
-12.455	0.000009
-12.450	-0.000001
-12.445	-0.000015
-12.440	-0.000000
-12.435	0.000005
-12.430	0.000010
-12.425	0.000005
-12.420	-0.000010
-12.415	0.000015
-12.410	-0.000000
-12.405	0.000015
-12.400	0.000005
-12.395	0.000020
-12.390	0.000000
-12.385	0.000005
-12.380	0.000000
-12.375	0.000005
-12.370	0.000005
-12.365	0.000010
-12.360	0.000005
-12.355	0.000025
-12.350	-0.000005
-12.345	0.000020
-12.340	0.000025
-12.335	-0.000004
-12.330	-0.000005
-12.325	0.000030
-12.320	0.000016
-12.315	0.000001
-12.310	0.000015
-12.305	-0.000004
-12.300	0.000031
-12.295	0.000006
-12.290	0.000021
-12.285	0.000011
-12.280	0.000016
-12.275	0.000011
-12.270	0.000031
-12.265	0.000006
-12.260	-0.000014
-12.255	0.000011
-12.250	0.000006
-12.245	0.000001
-12.240	-0.000014
-12.235	0.000006
-12.230	-0.000009
-12.225	0.000021
-12.220	0.000001
-12.215	0.000006
-12.210	-0.000004
-12.205	0.000016
-12.200	0.000011
-12.195	-0.000009
-12.190	-0.000004
-12.185	0.000001
-12.180	-0.000014
-12.175	0.000001
-12.170	-0.000013
-12.165	0.000001
-12.160	0.000001
-12.155	-0.000004
-12.150	-0.000003
-12.145	0.000001
-12.140	-0.000023
-12.135	-0.000003
-12.130	0.000007
-12.125	-0.000003
-12.120	0.000002
-12.115	0.000012
-12.110	-0.000028
-12.105	-0.000008
-12.100	-0.000003
-12.095	-0.000013
-12.090	-0.000008
-12.085	-0.000008
-12.080	0.000022
-12.075	-0.000013
-12.070	-0.000003
-12.065	0.000007
-12.060	0.000012
-12.055	-0.000012
-12.050	0.000007
-12.045	-0.000007
-12.040	0.000017
-12.035	-0.000002
-12.030	-0.000027
-12.025	0.000003
-12.020	0.000017
-12.015	0.000008
-12.010	0.000013
-12.005	-0.000007
-12.000	-0.000007
-11.995	0.000008
-11.990	-0.000012
-11.985	0.000003
-11.980	-0.000017
-11.975	-0.000027
-11.970	-0.000017
-11.965	-0.000007
-11.960	-0.000012
-11.955	-0.000017
-11.950	-0.000012
-11.945	-0.000017
-11.940	-0.000032
-11.935	0.000003
-11.930	-0.000012
-11.925	-0.000017
-11.920	-0.000042
-11.915	-0.000022
-11.910	-0.000017
-11.905	0.000003
-11.900	-0.000022
-11.895	0.000008
-11.890	-0.000017
-11.885	-0.000022
-11.880	-0.000032
-11.875	-0.000032
-11.870	-0.000007
-11.865	-0.000007
-11.860	-0.000017
-11.855	-0.000031
-11.850	-0.000016
-11.845	-0.000021
-11.840	-0.000016
-11.835	-0.000026
-11.830	-0.000011
-11.825	-0.000021
-11.820	-0.000011
-11.815	-0.000011
-11.810	-0.000021
-11.805	-0.000036
-11.800	-0.000046
-11.795	-0.000026
-11.790	-0.000026
-11.785	-0.000031
-11.780	-0.000031
-11.775	-0.000021
-11.770	-0.000021
-11.765	-0.000021
-11.760	-0.000021
-11.755	-0.000046
-11.750	0.000004
-11.745	-0.000036
-11.740	-0.000026
-11.735	-0.000031
-11.730	-0.000011
-11.725	-0.000026
-11.720	-0.000046
-11.715	-0.000026
-11.710	-0.000020
-11.705	-0.000011
-11.700	-0.000005
-11.695	-0.000030
-11.690	-0.000010
-11.685	-0.000006
-11.680	-0.000000
-11.675	0.000005
-11.670	-0.000020
-11.665	-0.000025
-11.660	-0.000015
-11.655	-0.000015
-11.650	-0.000000
-11.645	-0.000010
-11.640	-0.000030
-11.635	-0.000010
-11.630	-0.000050
-11.625	0.000114
-11.620	-0.000134
-11.615	-0.000045
-11.610	-0.000030
-11.605	-0.000020
-11.600	0.000000
-11.595	-0.000030
-11.590	-0.000020
-11.585	-0.000020
-11.580	-0.000029
-11.575	-0.000010
-11.570	-0.000029
-11.565	-0.000024
-11.560	-0.000009
-11.555	-0.000029
-11.550	-0.000019
-11.545	-0.000014
-11.540	-0.000009
-11.535	-0.000019
-11.530	-0.000024
-11.525	-0.000029
-11.520	0.000001
-11.515	-0.000014
-11.510	-0.000019
-11.505	-0.000029
-11.500	-0.000019
-11.495	-0.000004
-11.490	-0.000024
-11.485	-0.000019
-11.480	0.000006
-11.475	-0.000024
-11.470	-0.000019
-11.465	-0.000004
-11.460	0.000016
-11.455	0.000006
-11.450	-0.000004
-11.445	-0.000003
-11.440	0.000016
-11.435	0.000007
-11.430	-0.000053
-11.425	-0.000028
-11.420	0.000002
-11.415	0.000007
-11.410	0.000006
-11.405	-0.000023
-11.400	0.000007
-11.395	-0.000018
-11.390	-0.000018
-11.385	0.000007
-11.380	-0.000023
-11.375	0.000002
-11.370	-0.000018
-11.365	-0.000018
-11.360	-0.000028
-11.355	0.000007
-11.350	-0.000018
-11.345	0.000002
-11.340	-0.000008
-11.335	0.000017
-11.330	-0.000003
-11.325	-0.000012
-11.320	-0.000027
-11.315	-0.000027
-11.310	0.000012
-11.305	-0.000027
-11.300	-0.000017
-11.295	-0.000022
-11.290	-0.000002
-11.285	-0.000007
-11.280	-0.000012
-11.275	-0.000027
-11.270	-0.000022
-11.265	-0.000002
-11.260	-0.000022
-11.255	-0.000017
-11.250	0.000003
-11.245	0.000013
-11.240	-0.000007
-11.235	-0.000027
-11.230	-0.000017
-11.225	-0.000002
-11.220	-0.000042
-11.215	-0.000022
-11.210	-0.000017
-11.205	-0.000027
-11.200	-0.000022
-11.195	-0.000057
-11.190	-0.000022
-11.185	-0.000032
-11.180	-0.000042
-11.175	-0.000032
-11.170	-0.000042
-11.165	-0.000042
-11.160	-0.000022
-11.155	-0.000027
-11.150	-0.000017
-11.145	-0.000031
-11.140	-0.000021
-11.135	-0.000036
-11.130	-0.000046
-11.125	-0.000076
-11.120	-0.000006
-11.115	-0.000021
-11.110	-0.000036
-11.105	-0.000036
-11.100	-0.000016
-11.095	-0.000011
-11.090	-0.000021
-11.085	-0.000006
-11.080	-0.000046
-11.075	-0.000011
-11.070	-0.000011
-11.065	-0.000026
-11.060	-0.000026
-11.055	-0.000055
-11.050	-0.000041
-11.045	-0.000016
-11.040	-0.000031
-11.035	-0.000026
-11.030	-0.000030
-11.025	-0.000021
-11.020	-0.000051
-11.015	-0.000031
-11.010	-0.000026
-11.005	-0.000025
-11.000	-0.000031
-10.995	-0.000031
-10.990	-0.000020
-10.985	-0.000045
-10.980	-0.000060
-10.975	-0.000045
-10.970	-0.000045
-10.965	-0.000030
-10.960	-0.000050
-10.955	-0.000045
-10.950	-0.000035
-10.945	-0.000030
-10.940	-0.000060
-10.935	-0.000030
-10.930	-0.000020
-10.925	-0.000055
-10.920	-0.000055
-10.915	-0.000060
-10.910	-0.000025
-10.905	-0.000080
-10.900	-0.000065
-10.895	-0.000080
-10.890	-0.000030
-10.885	-0.000065
-10.880	-0.000050
-10.875	-0.000060
-10.870	-0.000035
-10.865	-0.000040
-10.860	-0.000075
-10.855	-0.000050
-10.850	-0.000040
-10.845	-0.000074
-10.840	-0.000074
-10.835	-0.000049
-10.830	-0.000049
-10.825	-0.000049
-10.820	-0.000069
-10.815	-0.000074
-10.810	-0.000044
-10.805	-0.000054
-10.800	-0.000064
-10.795	-0.000049
-10.790	-0.000054
-10.785	-0.000039
-10.780	-0.000059
-10.775	-0.000044
-10.770	-0.000029
-10.765	-0.000054
-10.760	-0.000059
-10.755	-0.000054
-10.750	-0.000059
-10.745	-0.000064
-10.740	-0.000089
-10.735	-0.000064
-10.730	-0.000054
-10.725	-0.000084
-10.720	-0.000054
-10.715	-0.000089
-10.710	-0.000049
-10.705	-0.000054
-10.700	-0.000054
-10.695	-0.000059
-10.690	-0.000053
-10.685	-0.000058
-10.680	-0.000088
-10.675	-0.000083
-10.670	-0.000073
-10.665	-0.000068
-10.660	-0.000073
-10.655	-0.000063
-10.650	-0.000078
-10.645	-0.000068
-10.640	-0.000078
-10.635	-0.000068
-10.630	-0.000073
-10.625	-0.000073
-10.620	-0.000088
-10.615	-0.000058
-10.610	-0.000063
-10.605	-0.000058
-10.600	-0.000063
-10.595	-0.000078
-10.590	-0.000067
-10.585	-0.000077
-10.580	-0.000053
-10.575	-0.000072
-10.570	-0.000062
-10.565	-0.000072
-10.560	-0.000057
-10.555	-0.000067
-10.550	-0.000077
-10.545	-0.000067
-10.540	-0.000082
-10.535	-0.000082
-10.530	-0.000087
-10.525	-0.000107
-10.520	-0.000087
-10.515	-0.000088
-10.510	-0.000097
-10.505	-0.000102
-10.500	-0.000102
-10.495	-0.000087
-10.490	-0.000097
-10.485	-0.000107
-10.480	-0.000102
-10.475	-0.000102
-10.470	-0.000082
-10.465	-0.000097
-10.460	-0.000057
-10.455	-0.000097
-10.450	-0.000107
-10.445	-0.000072
-10.440	-0.000107
-10.435	-0.000092
-10.430	-0.000097
-10.425	-0.000082
-10.420	-0.000132
-10.415	-0.000102
-10.410	-0.000141
-10.405	-0.000072
-10.400	-0.000127
-10.395	-0.000156
-10.390	-0.000116
-10.385	-0.000101
-10.380	-0.000116
-10.375	-0.000116
-10.370	-0.000101
-10.365	-0.000091
-10.360	-0.000131
-10.355	-0.000091
-10.350	-0.000091
-10.345	-0.000091
-10.340	-0.000106
-10.335	-0.000106
-10.330	-0.000111
-10.325	-0.000106
-10.320	-0.000121
-10.315	-0.000116
-10.310	-0.000106
-10.305	-0.000081
-10.300	-0.000111
-10.295	-0.000086
-10.290	-0.000115
-10.285	-0.000095
-10.280	-0.000101
-10.275	-0.000105
-10.270	-0.000085
-10.265	-0.000080
-10.260	-0.000105
-10.255	-0.000080
-10.250	-0.000095
-10.245	-0.000100
-10.240	-0.000095
-10.235	-0.000075
-10.230	-0.000095
-10.225	-0.000120
-10.220	-0.000110
-10.215	-0.000120
-10.210	-0.000115
-10.205	-0.000090
-10.200	-0.000100
-10.195	-0.000090
-10.190	-0.000095
-10.185	-0.000095
-10.180	-0.000100
-10.175	-0.000110
-10.170	-0.000120
-10.165	-0.000124
-10.160	-0.000115
-10.155	-0.000110
-10.150	-0.000120
-10.145	-0.000110
-10.140	-0.000110
-10.135	-0.000095
-10.130	-0.000130
-10.125	-0.000130
-10.120	-0.000099
-10.115	-0.000100
-10.110	-0.000130
-10.105	-0.000100
-10.100	-0.000104
-10.095	-0.000099
-10.090	-0.000105
-10.085	-0.000110
-10.080	-0.000104
-10.075	-0.000114
-10.070	-0.000105
-10.065	-0.000124
-10.060	-0.000109
-10.055	-0.000139
-10.050	-0.000154
-10.045	-0.000139
-10.040	-0.000119
-10.035	-0.000144
-10.030	-0.000104
-10.025	-0.000104
-10.020	-0.000119
-10.015	-0.000114
-10.010	-0.000124
-10.005	-0.000129
-10.000	-0.000124
-9.995	-0.000124
-9.990	-0.000114
-9.985	-0.000119
-9.980	-0.000119
-9.975	-0.000104
-9.970	-0.000134
-9.965	-0.000104
-9.960	-0.000109
-9.955	-0.000124
-9.950	-0.000144
-9.945	-0.000124
-9.940	-0.000138
-9.935	-0.000134
-9.930	-0.000149
-9.925	-0.000134
-9.920	-0.000109
-9.915	-0.000129
-9.910	-0.000134
-9.905	-0.000143
-9.900	-0.000114
-9.895	-0.000123
-9.890	-0.000123
-9.885	-0.000143
-9.880	-0.000143
-9.875	-0.000118
-9.870	-0.000113
-9.865	-0.000143
-9.860	-0.000123
-9.855	-0.000133
-9.850	-0.000128
-9.845	-0.000133
-9.840	-0.000113
-9.835	-0.000138
-9.830	-0.000108
-9.825	-0.000133
-9.820	-0.000123
-9.815	-0.000138
-9.810	-0.000138
-9.805	-0.000133
-9.800	-0.000133
-9.795	-0.000128
-9.790	-0.000123
-9.785	-0.000128
-9.780	-0.000123
-9.775	-0.000158
-9.770	-0.000153
-9.765	-0.000143
-9.760	-0.000108
-9.755	-0.000143
-9.750	-0.000128
-9.745	-0.000132
-9.740	-0.000128
-9.735	-0.000143
-9.730	-0.000132
-9.725	-0.000108
-9.720	-0.000133
-9.715	-0.000133
-9.710	-0.000132
-9.705	-0.000142
-9.700	-0.000137
-9.695	-0.000142
-9.690	-0.000157
-9.685	-0.000142
-9.680	-0.000132
-9.675	-0.000107
-9.670	-0.000132
-9.665	-0.000132
-9.660	-0.000122
-9.655	-0.000132
-9.650	-0.000112
-9.645	-0.000117
-9.640	-0.000137
-9.635	-0.000127
-9.630	-0.000127
-9.625	-0.000152
-9.620	-0.000127
-9.615	-0.000152
-9.610	-0.000142
-9.605	-0.000132
-9.600	-0.000141
-9.595	-0.000132
-9.590	-0.000157
-9.585	-0.000141
-9.580	-0.000131
-9.575	-0.000111
-9.570	-0.000141
-9.565	-0.000126
-9.560	-0.000131
-9.555	-0.000136
-9.550	-0.000156
-9.545	-0.000136
-9.540	-0.000106
-9.535	-0.000141
-9.530	-0.000136
-9.525	-0.000131
-9.520	-0.000141
-9.515	-0.000151
-9.510	-0.000131
-9.505	-0.000136
-9.500	-0.000126
-9.495	-0.000141
-9.490	-0.000136
-9.485	-0.000141
-9.480	-0.000135
-9.475	-0.000111
-9.470	-0.000131
-9.465	-0.000120
-9.460	-0.000120
-9.455	-0.000110
-9.450	-0.000121
-9.445	-0.000130
-9.440	-0.000105
-9.435	-0.000100
-9.430	-0.000145
-9.425	-0.000135
-9.420	-0.000115
-9.415	-0.000140
-9.410	-0.000135
-9.405	-0.000130
-9.400	-0.000115
-9.395	-0.000115
-9.390	-0.000135
-9.385	-0.000120
-9.380	-0.000125
-9.375	-0.000115
-9.370	-0.000130
-9.365	-0.000140
-9.360	-0.000115
-9.355	-0.000105
-9.350	-0.000120
-9.345	-0.000120
-9.340	-0.000125
-9.335	-0.000125
-9.330	-0.000144
-9.325	-0.000115
-9.320	-0.000144
-9.315	-0.000120
-9.310	-0.000139
-9.305	-0.000114
-9.300	-0.000129
-9.295	-0.000139
-9.290	-0.000139
-9.285	-0.000134
-9.280	-0.000144
-9.275	-0.000139
-9.270	-0.000134
-9.265	-0.000149
-9.260	-0.000144
-9.255	-0.000139
-9.250	-0.000129
-9.245	-0.000124
-9.240	-0.000129
-9.235	-0.000134
-9.230	-0.000129
-9.225	-0.000144
-9.220	-0.000144
-9.215	-0.000139
-9.210	-0.000109
-9.205	-0.000114
-9.200	-0.000149
-9.195	-0.000124
-9.190	-0.000119
-9.185	-0.000144
-9.180	-0.000129
-9.175	-0.000164
-9.170	-0.000129
-9.165	-0.000154
-9.160	-0.000129
-9.155	-0.000139
-9.150	-0.000149
-9.145	-0.000144
-9.140	-0.000154
-9.135	-0.000149
-9.130	-0.000148
-9.125	-0.000134
-9.120	-0.000119
-9.115	-0.000124
-9.110	-0.000124
-9.105	-0.000153
-9.100	-0.000134
-9.095	-0.000158
-9.090	-0.000138
-9.085	-0.000128
-9.080	-0.000148
-9.075	-0.000143
-9.070	-0.000123
-9.065	-0.000123
-9.060	-0.000133
-9.055	-0.000133
-9.050	-0.000128
-9.045	-0.000128
-9.040	-0.000123
-9.035	-0.000148
-9.030	-0.000138
-9.025	-0.000138
-9.020	-0.000138
-9.015	-0.000108
-9.010	-0.000153
-9.005	-0.000128
-9.000	-0.000153
-8.995	-0.000143
-8.990	-0.000123
-8.985	-0.000138
-8.980	-0.000133
-8.975	-0.000128
-8.970	-0.000128
-8.965	-0.000138
-8.960	-0.000148
-8.955	-0.000148
-8.950	-0.000157
-8.945	-0.000118
-8.940	-0.000143
-8.935	-0.000147
-8.930	-0.000157
-8.925	-0.000147
-8.920	-0.000152
-8.915	-0.000127
-8.910	-0.000137
-8.905	-0.000162
-8.900	-0.000143
-8.895	-0.000167
-8.890	-0.000167
-8.885	-0.000167
-8.880	-0.000157
-8.875	-0.000177
-8.870	-0.000147
-8.865	-0.000157
-8.860	-0.000157
-8.855	-0.000152
-8.850	-0.000162
-8.845	-0.000137
-8.840	-0.000172
-8.835	-0.000177
-8.830	-0.000157
-8.825	-0.000162
-8.820	-0.000147
-8.815	-0.000162
-8.810	-0.000157
-8.805	-0.000157
-8.800	-0.000167
-8.795	-0.000172
-8.790	-0.000167
-8.785	-0.000172
-8.780	-0.000167
-8.775	-0.000172
-8.770	-0.000152
-8.765	-0.000167
-8.760	-0.000177
-8.755	-0.000182
-8.750	-0.000157
-8.745	-0.000196
-8.740	-0.000201
-8.735	-0.000221
-8.730	-0.000246
-8.725	-0.000281
-8.720	-0.000361
-8.715	-0.000634
-8.710	-0.001530
-8.705	-0.004243
-8.700	-0.010189
-8.695	-0.019179
-8.690	-0.030464
-8.685	-0.043663
-8.680	-0.061559
-8.675	-0.080360
-8.670	-0.094159
-8.665	-0.101510
-8.660	-0.102695
-8.655	-0.099503
-8.650	-0.085745
-8.645	-0.072197
-8.640	-0.064657
-8.635	-0.059274
-8.630	-0.054928
-8.625	-0.051719
-8.620	-0.048667
-8.615	-0.046821
-8.610	-0.045229
-8.605	-0.043843
-8.600	-0.042338
-8.595	-0.040809
-8.590	-0.039456
-8.585	-0.038242
-8.580	-0.037074
-8.575	-0.036042
-8.570	-0.035068
-8.565	-0.034161
-8.560	-0.033350
-8.555	-0.032614
-8.550	-0.031900
-8.545	-0.031240
-8.540	-0.030599
-8.535	-0.030038
-8.530	-0.029459
-8.525	-0.028894
-8.520	-0.028436
-8.515	-0.027976
-8.510	-0.027593
-8.505	-0.027151
-8.500	-0.026767
-8.495	-0.026380
-8.490	-0.026001
-8.485	-0.025660
-8.480	-0.025299
-8.475	-0.024969
-8.470	-0.024665
-8.465	-0.024347
-8.460	-0.024049
-8.455	-0.023753
-8.450	-0.023467
-8.445	-0.023223
-8.440	-0.022987
-8.435	-0.022781
-8.430	-0.022566
-8.425	-0.022344
-8.420	-0.022112
-8.415	-0.021906
-8.410	-0.021680
-8.405	-0.021505
-8.400	-0.021323
-8.395	-0.021156
-8.390	-0.020940
-8.385	-0.020786
-8.380	-0.020581
-8.375	-0.020426
-8.370	-0.020258
-8.365	-0.020069
-8.360	-0.019949
-8.355	-0.019748
-8.350	-0.019637
-8.345	-0.019459
-8.340	-0.019316
-8.335	-0.019172
-8.330	-0.019031
-8.325	-0.018893
-8.320	-0.018762
-8.315	-0.018639
-8.310	-0.018503
-8.305	-0.018380
-8.300	-0.018265
-8.295	-0.018129
-8.290	-0.018021
-8.285	-0.017866
-8.280	-0.017775
-8.275	-0.017633
-8.270	-0.017547
-8.265	-0.017438
-8.260	-0.017341
-8.255	-0.017213
-8.250	-0.017108
-8.245	-0.016973
-8.240	-0.016885
-8.235	-0.016751
-8.230	-0.016693
-8.225	-0.016590
-8.220	-0.016472
-8.215	-0.016379
-8.210	-0.016287
-8.205	-0.016168
-8.200	-0.016081
-8.195	-0.016027
-8.190	-0.015926
-8.185	-0.015846
-8.180	-0.015755
-8.175	-0.015649
-8.170	-0.015572
-8.165	-0.015489
-8.160	-0.015405
-8.155	-0.015357
-8.150	-0.015231
-8.145	-0.015180
-8.140	-0.015121
-8.135	-0.015024
-8.130	-0.014955
-8.125	-0.014887
-8.120	-0.014801
-8.115	-0.014727
-8.110	-0.014667
-8.105	-0.014600
-8.100	-0.014536
-8.095	-0.014440
-8.090	-0.014378
-8.085	-0.014315
-8.080	-0.014274
-8.075	-0.014205
-8.070	-0.014139
-8.065	-0.014082
-8.060	-0.014012
-8.055	-0.013938
-8.050	-0.013899
-8.045	-0.013829
-8.040	-0.013758
-8.035	-0.013705
-8.030	-0.013655
-8.025	-0.013587
-8.020	-0.013535
-8.015	-0.013488
-8.010	-0.013425
-8.005	-0.013361
-8.000	-0.013304
-7.995	-0.013247
-7.990	-0.013192
-7.985	-0.013172
-7.980	-0.013101
-7.975	-0.013049
-7.970	-0.013028
-7.965	-0.013000
-7.960	-0.012987
-7.955	-0.012957
-7.950	-0.012923
-7.945	-0.012889
-7.940	-0.012816
-7.935	-0.012773
-7.930	-0.012728
-7.925	-0.012651
-7.920	-0.012587
-7.915	-0.012553
-7.910	-0.012489
-7.905	-0.012448
-7.900	-0.012370
-7.895	-0.012353
-7.890	-0.012273
-7.885	-0.012240
-7.880	-0.012182
-7.875	-0.012157
-7.870	-0.012074
-7.865	-0.012020
-7.860	-0.012002
-7.855	-0.011955
-7.850	-0.011888
-7.845	-0.011870
-7.840	-0.011836
-7.835	-0.011774
-7.830	-0.011726
-7.825	-0.011694
-7.820	-0.011656
-7.815	-0.011596
-7.810	-0.011568
-7.805	-0.011534
-7.800	-0.011508
-7.795	-0.011461
-7.790	-0.011415
-7.785	-0.011388
-7.780	-0.011340
-7.775	-0.011293
-7.770	-0.011254
-7.765	-0.011223
-7.760	-0.011173
-7.755	-0.011160
-7.750	-0.011074
-7.745	-0.011073
-7.740	-0.011029
-7.735	-0.010967
-7.730	-0.010949
-7.725	-0.010918
-7.720	-0.010881
-7.715	-0.010852
-7.710	-0.010804
-7.705	-0.010790
-7.700	-0.010729
-7.695	-0.010709
-7.690	-0.010647
-7.685	-0.010640
-7.680	-0.010609
-7.675	-0.010577
-7.670	-0.010515
-7.665	-0.010481
-7.660	-0.010466
-7.655	-0.010444
-7.650	-0.010397
-7.645	-0.010364
-7.640	-0.010334
-7.635	-0.010303
-7.630	-0.010284
-7.625	-0.010244
-7.620	-0.010200
-7.615	-0.010198
-7.610	-0.010148
-7.605	-0.010128
-7.600	-0.010090
-7.595	-0.010075
-7.590	-0.010057
-7.585	-0.010008
-7.580	-0.009967
-7.575	-0.009966
-7.570	-0.009916
-7.565	-0.009900
-7.560	-0.009869
-7.555	-0.009832
-7.550	-0.009822
-7.545	-0.009796
-7.540	-0.009750
-7.535	-0.009732
-7.530	-0.009744
-7.525	-0.009684
-7.520	-0.009659
-7.515	-0.009662
-7.510	-0.009585
-7.505	-0.009594
-7.500	-0.009541
-7.495	-0.009520
-7.490	-0.009483
-7.485	-0.009481
-7.480	-0.009437
-7.475	-0.009440
-7.470	-0.009403
-7.465	-0.009369
-7.460	-0.009333
-7.455	-0.009323
-7.450	-0.009283
-7.445	-0.009266
-7.440	-0.009261
-7.435	-0.009222
-7.430	-0.009229
-7.425	-0.009186
-7.420	-0.009161
-7.415	-0.009154
-7.410	-0.009095
-7.405	-0.009076
-7.400	-0.009059
-7.395	-0.009029
-7.390	-0.009017
-7.385	-0.009008
-7.380	-0.008939
-7.375	-0.008934
-7.370	-0.008931
-7.365	-0.008906
-7.360	-0.008866
-7.355	-0.008834
-7.350	-0.008844
-7.345	-0.008807
-7.340	-0.008807
-7.335	-0.008774
-7.330	-0.008735
-7.325	-0.008719
-7.320	-0.008689
-7.315	-0.008671
-7.310	-0.008661
-7.305	-0.008629
-7.300	-0.008606
-7.295	-0.008585
-7.290	-0.008587
-7.285	-0.008549
-7.280	-0.008580
-7.275	-0.008547
-7.270	-0.008524
-7.265	-0.008499
-7.260	-0.008452
-7.255	-0.008456
-7.250	-0.008431
-7.245	-0.008406
-7.240	-0.008403
-7.235	-0.008396
-7.230	-0.008358
-7.225	-0.008354
-7.220	-0.008357
-7.215	-0.008297
-7.210	-0.008307
-7.205	-0.008271
-7.200	-0.008274
-7.195	-0.008249
-7.190	-0.008238
-7.185	-0.008203
-7.180	-0.008198
-7.175	-0.008149
-7.170	-0.008147
-7.165	-0.008144
-7.160	-0.008117
-7.155	-0.008096
-7.150	-0.008058
-7.145	-0.008033
-7.140	-0.008040
-7.135	-0.008014
-7.130	-0.007951
-7.125	-0.007944
-7.120	-0.007952
-7.115	-0.007927
-7.110	-0.007873
-7.105	-0.007843
-7.100	-0.007822
-7.095	-0.007779
-7.090	-0.007799
-7.085	-0.007764
-7.080	-0.007751
-7.075	-0.007699
-7.070	-0.007682
-7.065	-0.007665
-7.060	-0.007643
-7.055	-0.007613
-7.050	-0.007594
-7.045	-0.007549
-7.040	-0.007540
-7.035	-0.007519
-7.030	-0.007531
-7.025	-0.007479
-7.020	-0.007476
-7.015	-0.007463
-7.010	-0.007464
-7.005	-0.007441
-7.000	-0.007425
-6.995	-0.007401
-6.990	-0.007407
-6.985	-0.007373
-6.980	-0.007359
-6.975	-0.007326
-6.970	-0.007326
-6.965	-0.007310
-6.960	-0.007339
-6.955	-0.007330
-6.950	-0.007302
-6.945	-0.007264
-6.940	-0.007295
-6.935	-0.007259
-6.930	-0.007270
-6.925	-0.007262
-6.920	-0.007250
-6.915	-0.007235
-6.910	-0.007173
-6.905	-0.007191
-6.900	-0.007148
-6.895	-0.007162
-6.890	-0.007161
-6.885	-0.007141
-6.880	-0.007122
-6.875	-0.007122
-6.870	-0.007112
-6.865	-0.007097
-6.860	-0.007064
-6.855	-0.007052
-6.850	-0.007068
-6.845	-0.007046
-6.840	-0.007038
-6.835	-0.007004
-6.830	-0.006988
-6.825	-0.006976
-6.820	-0.006986
-6.815	-0.006973
-6.810	-0.006956
-6.805	-0.006924
-6.800	-0.006915
-6.795	-0.006878
-6.790	-0.006886
-6.785	-0.006884
-6.780	-0.006868
-6.775	-0.006854
-6.770	-0.006837
-6.765	-0.006821
-6.760	-0.006810
-6.755	-0.006799
-6.750	-0.006803
-6.745	-0.006781
-6.740	-0.006738
-6.735	-0.006741
-6.730	-0.006721
-6.725	-0.006729
-6.720	-0.006720
-6.715	-0.006691
-6.710	-0.006676
-6.705	-0.006672
-6.700	-0.006652
-6.695	-0.006656
-6.690	-0.006643
-6.685	-0.006631
-6.680	-0.006631
-6.675	-0.006607
-6.670	-0.006600
-6.665	-0.006582
-6.660	-0.006551
-6.655	-0.006555
-6.650	-0.006531
-6.645	-0.006518
-6.640	-0.006509
-6.635	-0.006488
-6.630	-0.006492
-6.625	-0.006463
-6.620	-0.006461
-6.615	-0.006454
-6.610	-0.006419
-6.605	-0.006444
-6.600	-0.006425
-6.595	-0.006415
-6.590	-0.006393
-6.585	-0.006383
-6.580	-0.006362
-6.575	-0.006361
-6.570	-0.006335
-6.565	-0.006321
-6.560	-0.006329
-6.555	-0.006299
-6.550	-0.006300
-6.545	-0.006290
-6.540	-0.006273
-6.535	-0.006266
-6.530	-0.006254
-6.525	-0.006225
-6.520	-0.006239
-6.515	-0.006219
-6.510	-0.006232
-6.505	-0.006212
-6.500	-0.006195
-6.495	-0.006174
-6.490	-0.006166
-6.485	-0.006160
-6.480	-0.006160
-6.475	-0.006130
-6.470	-0.006129
-6.465	-0.006126
-6.460	-0.006117
-6.455	-0.006125
-6.450	-0.006074
-6.445	-0.006060
-6.440	-0.006035
-6.435	-0.006023
-6.430	-0.006032
-6.425	-0.006030
-6.420	-0.006015
-6.415	-0.006002
-6.410	-0.005995
-6.405	-0.005993
-6.400	-0.005969
-6.395	-0.005967
-6.390	-0.005965
-6.385	-0.005956
-6.380	-0.005945
-6.375	-0.005910
-6.370	-0.005898
-6.365	-0.005879
-6.360	-0.005904
-6.355	-0.005874
-6.350	-0.005889
-6.345	-0.005866
-6.340	-0.005872
-6.335	-0.005851
-6.330	-0.005838
-6.325	-0.005818
-6.320	-0.005817
-6.315	-0.005811
-6.310	-0.005789
-6.305	-0.005789
-6.300	-0.005761
-6.295	-0.005747
-6.290	-0.005747
-6.285	-0.005732
-6.280	-0.005723
-6.275	-0.005730
-6.270	-0.005717
-6.265	-0.005702
-6.260	-0.005711
-6.255	-0.005701
-6.250	-0.005662
-6.245	-0.005659
-6.240	-0.005640
-6.235	-0.005674
-6.230	-0.005644
-6.225	-0.005612
-6.220	-0.005631
-6.215	-0.005607
-6.210	-0.005600
-6.205	-0.005606
-6.200	-0.005573
-6.195	-0.005586
-6.190	-0.005567
-6.185	-0.005572
-6.180	-0.005556
-6.175	-0.005540
-6.170	-0.005538
-6.165	-0.005523
-6.160	-0.005493
-6.155	-0.005508
-6.150	-0.005497
-6.145	-0.005477
-6.140	-0.005492
-6.135	-0.005458
-6.130	-0.005460
-6.125	-0.005446
-6.120	-0.005444
-6.115	-0.005430
-6.110	-0.005406
-6.105	-0.005420
-6.100	-0.005407
-6.095	-0.005389
-6.090	-0.005397
-6.085	-0.005387
-6.080	-0.005349
-6.075	-0.005367
-6.070	-0.005343
-6.065	-0.005329
-6.060	-0.005340
-6.055	-0.005339
-6.050	-0.005311
-6.045	-0.005297
-6.040	-0.005303
-6.035	-0.005314
-6.030	-0.005292
-6.025	-0.005271
-6.020	-0.005269
-6.015	-0.005275
-6.010	-0.005225
-6.005	-0.005239
-6.000	-0.005223
-5.995	-0.005227
-5.990	-0.005219
-5.985	-0.005224
-5.980	-0.005200
-5.975	-0.005186
-5.970	-0.005168
-5.965	-0.005170
-5.960	-0.005175
-5.955	-0.005173
-5.950	-0.005178
-5.945	-0.005141
-5.940	-0.005132
-5.935	-0.005130
-5.930	-0.005107
-5.925	-0.005107
-5.920	-0.005096
-5.915	-0.005081
-5.910	-0.005106
-5.905	-0.005095
-5.900	-0.005070
-5.895	-0.005087
-5.890	-0.005053
-5.885	-0.005049
-5.880	-0.005059
-5.875	-0.005050
-5.870	-0.005035
-5.865	-0.005021
-5.860	-0.005033
-5.855	-0.005025
-5.850	-0.005003
-5.845	-0.004977
-5.840	-0.004998
-5.835	-0.004995
-5.830	-0.004975
-5.825	-0.004964
-5.820	-0.004958
-5.815	-0.004947
-5.810	-0.004922
-5.805	-0.004919
-5.800	-0.004936
-5.795	-0.004908
-5.790	-0.004907
-5.785	-0.004911
-5.780	-0.004901
-5.775	-0.004882
-5.770	-0.004890
-5.765	-0.004880
-5.760	-0.004873
-5.755	-0.004868
-5.750	-0.004842
-5.745	-0.004853
-5.740	-0.004831
-5.735	-0.004828
-5.730	-0.004837
-5.725	-0.004817
-5.720	-0.004796
-5.715	-0.004794
-5.710	-0.004823
-5.705	-0.004771
-5.700	-0.004776
-5.695	-0.004781
-5.690	-0.004752
-5.685	-0.004750
-5.680	-0.004749
-5.675	-0.004737
-5.670	-0.004742
-5.665	-0.004728
-5.660	-0.004737
-5.655	-0.004730
-5.650	-0.004706
-5.645	-0.004696
-5.640	-0.004698
-5.635	-0.004707
-5.630	-0.004680
-5.625	-0.004681
-5.620	-0.004654
-5.615	-0.004646
-5.610	-0.004673
-5.605	-0.004648
-5.600	-0.004658
-5.595	-0.004646
-5.590	-0.004622
-5.585	-0.004636
-5.580	-0.004601
-5.575	-0.004610
-5.570	-0.004614
-5.565	-0.004608
-5.560	-0.004613
-5.555	-0.004595
-5.550	-0.004576
-5.545	-0.004557
-5.540	-0.004553
-5.535	-0.004538
-5.530	-0.004557
-5.525	-0.004547
-5.520	-0.004535
-5.515	-0.004534
-5.510	-0.004536
-5.505	-0.004512
-5.500	-0.004503
-5.495	-0.004487
-5.490	-0.004478
-5.485	-0.004487
-5.480	-0.004478
-5.475	-0.004477
-5.470	-0.004477
-5.465	-0.004477
-5.460	-0.004455
-5.455	-0.004463
-5.450	-0.004450
-5.445	-0.004440
-5.440	-0.004411
-5.435	-0.004408
-5.430	-0.004450
-5.425	-0.004416
-5.420	-0.004408
-5.415	-0.004425
-5.410	-0.004404
-5.405	-0.004392
-5.400	-0.004399
-5.395	-0.004393
-5.390	-0.004378
-5.385	-0.004373
-5.380	-0.004358
-5.375	-0.004338
-5.370	-0.004346
-5.365	-0.004344
-5.360	-0.004318
-5.355	-0.004346
-5.350	-0.004322
-5.345	-0.004310
-5.340	-0.004305
-5.335	-0.004303
-5.330	-0.004306
-5.325	-0.004273
-5.320	-0.004267
-5.315	-0.004264
-5.310	-0.004273
-5.305	-0.004269
-5.300	-0.004250
-5.295	-0.004280
-5.290	-0.004244
-5.285	-0.004238
-5.280	-0.004233
-5.275	-0.004224
-5.270	-0.004222
-5.265	-0.004202
-5.260	-0.004217
-5.255	-0.004197
-5.250	-0.004166
-5.245	-0.004205
-5.240	-0.004190
-5.235	-0.004183
-5.230	-0.004168
-5.225	-0.004143
-5.220	-0.004148
-5.215	-0.004141
-5.210	-0.004154
-5.205	-0.004114
-5.200	-0.004113
-5.195	-0.004141
-5.190	-0.004140
-5.185	-0.004120
-5.180	-0.004120
-5.175	-0.004103
-5.170	-0.004087
-5.165	-0.004102
-5.160	-0.004078
-5.155	-0.004056
-5.150	-0.004070
-5.145	-0.004060
-5.140	-0.004053
-5.135	-0.004057
-5.130	-0.004080
-5.125	-0.004051
-5.120	-0.004024
-5.115	-0.004060
-5.110	-0.004033
-5.105	-0.004018
-5.100	-0.004015
-5.095	-0.003981
-5.090	-0.003985
-5.085	-0.003990
-5.080	-0.003984
-5.075	-0.003981
-5.070	-0.003980
-5.065	-0.003981
-5.060	-0.003961
-5.055	-0.003981
-5.050	-0.003977
-5.045	-0.003937
-5.040	-0.003929
-5.035	-0.003937
-5.030	-0.003938
-5.025	-0.003924
-5.020	-0.003900
-5.015	-0.003910
-5.010	-0.003913
-5.005	-0.003898
-5.000	-0.003916
-4.995	-0.003887
-4.990	-0.003906
-4.985	-0.003890
-4.980	-0.003885
-4.975	-0.003857
-4.970	-0.003869
-4.965	-0.003869
-4.960	-0.003850
-4.955	-0.003837
-4.950	-0.003844
-4.945	-0.003835
-4.940	-0.003820
-4.935	-0.003795
-4.930	-0.003818
-4.925	-0.003812
-4.920	-0.003816
-4.915	-0.003799
-4.910	-0.003800
-4.905	-0.003796
-4.900	-0.003781
-4.895	-0.003772
-4.890	-0.003764
-4.885	-0.003759
-4.880	-0.003764
-4.875	-0.003745
-4.870	-0.003745
-4.865	-0.003734
-4.860	-0.003732
-4.855	-0.003745
-4.850	-0.003736
-4.845	-0.003731
-4.840	-0.003755
-4.835	-0.003720
-4.830	-0.003701
-4.825	-0.003687
-4.820	-0.003688
-4.815	-0.003706
-4.810	-0.003721
-4.805	-0.003686
-4.800	-0.003704
-4.795	-0.003692
-4.790	-0.003673
-4.785	-0.003662
-4.780	-0.003678
-4.775	-0.003641
-4.770	-0.003649
-4.765	-0.003665
-4.760	-0.003619
-4.755	-0.003636
-4.750	-0.003626
-4.745	-0.003604
-4.740	-0.003586
-4.735	-0.003598
-4.730	-0.003613
-4.725	-0.003604
-4.720	-0.003592
-4.715	-0.003574
-4.710	-0.003568
-4.705	-0.003602
-4.700	-0.003568
-4.695	-0.003583
-4.690	-0.003565
-4.685	-0.003564
-4.680	-0.003571
-4.675	-0.003539
-4.670	-0.003537
-4.665	-0.003527
-4.660	-0.003532
-4.655	-0.003540
-4.650	-0.003543
-4.645	-0.003523
-4.640	-0.003502
-4.635	-0.003513
-4.630	-0.003499
-4.625	-0.003495
-4.620	-0.003491
-4.615	-0.003459
-4.610	-0.003469
-4.605	-0.003453
-4.600	-0.003449
-4.595	-0.003456
-4.590	-0.003463
-4.585	-0.003445
-4.580	-0.003454
-4.575	-0.003459
-4.570	-0.003441
-4.565	-0.003417
-4.560	-0.003428
-4.555	-0.003424
-4.550	-0.003420
-4.545	-0.003405
-4.540	-0.003394
-4.535	-0.003408
-4.530	-0.003403
-4.525	-0.003414
-4.520	-0.003399
-4.515	-0.003384
-4.510	-0.003373
-4.505	-0.003359
-4.500	-0.003371
-4.495	-0.003340
-4.490	-0.003371
-4.485	-0.003337
-4.480	-0.003330
-4.475	-0.003322
-4.470	-0.003340
-4.465	-0.003340
-4.460	-0.003359
-4.455	-0.003315
-4.450	-0.003336
-4.445	-0.003306
-4.440	-0.003322
-4.435	-0.003311
-4.430	-0.003319
-4.425	-0.003290
-4.420	-0.003279
-4.415	-0.003270
-4.410	-0.003273
-4.405	-0.003274
-4.400	-0.003268
-4.395	-0.003279
-4.390	-0.003269
-4.385	-0.003239
-4.380	-0.003250
-4.375	-0.003248
-4.370	-0.003226
-4.365	-0.003231
-4.360	-0.003246
-4.355	-0.003232
-4.350	-0.003215
-4.345	-0.003225
-4.340	-0.003199
-4.335	-0.003230
-4.330	-0.003201
-4.325	-0.003191
-4.320	-0.003176
-4.315	-0.003185
-4.310	-0.003177
-4.305	-0.003173
-4.300	-0.003189
-4.295	-0.003159
-4.290	-0.003156
-4.285	-0.003141
-4.280	-0.003146
-4.275	-0.003146
-4.270	-0.003154
-4.265	-0.003129
-4.260	-0.003148
-4.255	-0.003126
-4.250	-0.003099
-4.245	-0.003104
-4.240	-0.003114
-4.235	-0.003107
-4.230	-0.003096
-4.225	-0.003096
-4.220	-0.003083
-4.215	-0.003077
-4.210	-0.003084
-4.205	-0.003078
-4.200	-0.003072
-4.195	-0.003064
-4.190	-0.003081
-4.185	-0.003070
-4.180	-0.003044
-4.175	-0.003075
-4.170	-0.003065
-4.165	-0.003066
-4.160	-0.003036
-4.155	-0.003057
-4.150	-0.003059
-4.145	-0.003044
-4.140	-0.003035
-4.135	-0.003023
-4.130	-0.003028
-4.125	-0.003028
-4.120	-0.003017
-4.115	-0.003012
-4.110	-0.002997
-4.105	-0.003007
-4.100	-0.003011
-4.095	-0.003027
-4.090	-0.003010
-4.085	-0.002995
-4.080	-0.002996
-4.075	-0.003010
-4.070	-0.002973
-4.065	-0.002974
-4.060	-0.002984
-4.055	-0.002978
-4.050	-0.002963
-4.045	-0.002963
-4.040	-0.002957
-4.035	-0.002967
-4.030	-0.002984
-4.025	-0.002955
-4.020	-0.002958
-4.015	-0.002961
-4.010	-0.002961
-4.005	-0.002961
-4.000	-0.002961
-3.995	-0.002960
-3.990	-0.002967
-3.985	-0.002953
-3.980	-0.002955
-3.975	-0.002969
-3.970	-0.002950
-3.965	-0.002964
-3.960	-0.002959
-3.955	-0.002973
-3.950	-0.003004
-3.945	-0.003017
-3.940	-0.003016
-3.935	-0.003018
-3.930	-0.003034
-3.925	-0.003044
-3.920	-0.003069
-3.915	-0.003068
-3.910	-0.003056
-3.905	-0.003122
-3.900	-0.003128
-3.895	-0.003176
-3.890	-0.003271
-3.885	-0.003327
-3.880	-0.003418
-3.875	-0.003510
-3.870	-0.003649
-3.865	-0.003833
-3.860	-0.004045
-3.855	-0.004285
-3.850	-0.004598
-3.845	-0.004952
-3.840	-0.005375
-3.835	-0.005873
-3.830	-0.006492
-3.825	-0.007185
-3.820	-0.008052
-3.815	-0.009040
-3.810	-0.010182
-3.805	-0.011123
-3.800	-0.010979
-3.795	-0.009281
-3.790	-0.006849
-3.785	-0.004443
-3.780	-0.001699
-3.775	0.002182
-3.770	0.006742
-3.765	0.008640
-3.760	0.007464
-3.755	0.004702
-3.750	0.001511
-3.745	-0.001264
-3.740	-0.003501
-3.735	-0.005152
-3.730	-0.006360
-3.725	-0.007196
-3.720	-0.007840
-3.715	-0.008414
-3.710	-0.008902
-3.705	-0.009381
-3.700	-0.009900
-3.695	-0.010365
-3.690	-0.010836
-3.685	-0.011317
-3.680	-0.011786
-3.675	-0.012209
-3.670	-0.012670
-3.665	-0.013056
-3.660	-0.013421
-3.655	-0.013735
-3.650	-0.013922
-3.645	-0.013906
-3.640	-0.013468
-3.635	-0.012176
-3.630	-0.009738
-3.625	-0.006647
-3.620	-0.003384
-3.615	-0.000133
-3.610	0.003563
-3.605	0.006879
-3.600	0.008386
-3.595	0.007539
-3.590	0.005165
-3.585	0.002436
-3.580	-0.000111
-3.575	-0.002093
-3.570	-0.003591
-3.565	-0.004625
-3.560	-0.005333
-3.555	-0.005794
-3.550	-0.006105
-3.545	-0.006425
-3.540	-0.006774
-3.535	-0.007085
-3.530	-0.007414
-3.525	-0.007749
-3.520	-0.008126
-3.515	-0.008469
-3.510	-0.008857
-3.505	-0.009184
-3.500	-0.009537
-3.495	-0.009898
-3.490	-0.010258
-3.485	-0.010573
-3.480	-0.010854
-3.475	-0.011061
-3.470	-0.011205
-3.465	-0.011159
-3.460	-0.010652
-3.455	-0.009304
-3.450	-0.006893
-3.445	-0.003966
-3.440	-0.000986
-3.435	0.002059
-3.430	0.005472
-3.425	0.008375
-3.420	0.009531
-3.415	0.008499
-3.410	0.006113
-3.405	0.003508
-3.400	0.001093
-3.395	-0.000744
-3.390	-0.002207
-3.385	-0.003251
-3.380	-0.003972
-3.375	-0.004499
-3.370	-0.004905
-3.365	-0.005250
-3.360	-0.005569
-3.355	-0.005849
-3.350	-0.006146
-3.345	-0.006453
-3.340	-0.006764
-3.335	-0.007093
-3.330	-0.007379
-3.325	-0.007693
-3.320	-0.007937
-3.315	-0.008279
-3.310	-0.008628
-3.305	-0.008949
-3.300	-0.009267
-3.295	-0.009518
-3.290	-0.009694
-3.285	-0.009917
-3.280	-0.010025
-3.275	-0.010006
-3.270	-0.009616
-3.265	-0.008498
-3.260	-0.006375
-3.255	-0.003622
-3.250	-0.000756
-3.245	0.002229
-3.240	0.005548
-3.235	0.008341
-3.230	0.009546
-3.225	0.008740
-3.220	0.006652
-3.215	0.004262
-3.210	0.001947
-3.205	0.000094
-3.200	-0.001376
-3.195	-0.002383
-3.190	-0.003143
-3.185	-0.003643
-3.180	-0.004078
-3.175	-0.004381
-3.170	-0.004656
-3.165	-0.004885
-3.160	-0.005116
-3.155	-0.005387
-3.150	-0.005647
-3.145	-0.005912
-3.140	-0.006164
-3.135	-0.006465
-3.130	-0.006753
-3.125	-0.007048
-3.120	-0.007326
-3.115	-0.007583
-3.110	-0.007889
-3.105	-0.008137
-3.100	-0.008422
-3.095	-0.008658
-3.090	-0.008886
-3.085	-0.009061
-3.080	-0.009200
-3.075	-0.009237
-3.070	-0.009087
-3.065	-0.008451
-3.060	-0.006936
-3.055	-0.004580
-3.050	-0.001741
-3.045	0.001102
-3.040	0.004088
-3.035	0.007097
-3.030	0.009334
-3.025	0.009687
-3.020	0.008381
-3.015	0.006239
-3.010	0.003924
-3.005	0.001859
-3.000	0.000140
-2.995	-0.001105
-2.990	-0.002062
-2.985	-0.002675
-2.980	-0.003160
-2.975	-0.003542
-2.970	-0.003811
-2.965	-0.004043
-2.960	-0.004219
-2.955	-0.004394
-2.950	-0.004599
-2.945	-0.004790
-2.940	-0.005035
-2.935	-0.005226
-2.930	-0.005488
-2.925	-0.005753
-2.920	-0.006017
-2.915	-0.006284
-2.910	-0.006548
-2.905	-0.006827
-2.900	-0.007104
-2.895	-0.007368
-2.890	-0.007620
-2.885	-0.007867
-2.880	-0.008096
-2.875	-0.008276
-2.870	-0.008483
-2.865	-0.008631
-2.860	-0.008670
-2.855	-0.008500
-2.850	-0.007908
-2.845	-0.006627
-2.840	-0.004455
-2.835	-0.001884
-2.830	0.000803
-2.825	0.003546
-2.820	0.006569
-2.815	0.008978
-2.810	0.009869
-2.805	0.009143
-2.800	0.007360
-2.795	0.005204
-2.790	0.003119
-2.785	0.001303
-2.780	-0.000149
-2.775	-0.001180
-2.770	-0.001916
-2.765	-0.002421
-2.760	-0.002767
-2.755	-0.002998
-2.750	-0.003236
-2.745	-0.003369
-2.740	-0.003520
-2.735	-0.003646
-2.730	-0.003760
-2.725	-0.003886
-2.720	-0.004076
-2.715	-0.004278
-2.710	-0.004515
-2.705	-0.004737
-2.700	-0.005002
-2.695	-0.005302
-2.690	-0.005576
-2.685	-0.005835
-2.680	-0.006116
-2.675	-0.006379
-2.670	-0.006669
-2.665	-0.006929
-2.660	-0.007163
-2.655	-0.007373
-2.650	-0.007533
-2.645	-0.007611
-2.640	-0.007712
-2.635	-0.007765
-2.630	-0.007794
-2.625	-0.007752
-2.620	-0.007624
-2.615	-0.007262
-2.610	-0.006306
-2.605	-0.004596
-2.600	-0.002177
-2.595	0.000313
-2.590	0.002994
-2.585	0.005819
-2.580	0.008367
-2.575	0.009622
-2.570	0.009341
-2.565	0.007996
-2.560	0.006091
-2.555	0.004122
-2.550	0.002261
-2.545	0.000832
-2.540	-0.000251
-2.535	-0.001037
-2.530	-0.001636
-2.525	-0.001990
-2.520	-0.002263
-2.515	-0.002459
-2.510	-0.002584
-2.505	-0.002707
-2.500	-0.002808
-2.495	-0.002925
-2.490	-0.003096
-2.485	-0.003223
-2.480	-0.003365
-2.475	-0.003581
-2.470	-0.003740
-2.465	-0.003920
-2.460	-0.004127
-2.455	-0.004323
-2.450	-0.004576
-2.445	-0.004810
-2.440	-0.005039
-2.435	-0.005231
-2.430	-0.005419
-2.425	-0.005621
-2.420	-0.005801
-2.415	-0.006005
-2.410	-0.006203
-2.405	-0.006388
-2.400	-0.006536
-2.395	-0.006697
-2.390	-0.006850
-2.385	-0.006951
-2.380	-0.007014
-2.375	-0.007056
-2.370	-0.007028
-2.365	-0.006955
-2.360	-0.006780
-2.355	-0.006299
-2.350	-0.005355
-2.345	-0.003734
-2.340	-0.001553
-2.335	0.000716
-2.330	0.003212
-2.325	0.005820
-2.320	0.008118
-2.315	0.009355
-2.310	0.009352
-2.305	0.008339
-2.300	0.006672
-2.295	0.004825
-2.290	0.003064
-2.285	0.001561
-2.280	0.000385
-2.275	-0.000445
-2.270	-0.000975
-2.265	-0.001313
-2.260	-0.001539
-2.255	-0.001636
-2.250	-0.001758
-2.245	-0.001846
-2.240	-0.001914
-2.235	-0.002047
-2.230	-0.002188
-2.225	-0.002360
-2.220	-0.002541
-2.215	-0.002748
-2.210	-0.002940
-2.205	-0.003121
-2.200	-0.003282
-2.195	-0.003447
-2.190	-0.003572
-2.185	-0.003670
-2.180	-0.003782
-2.175	-0.003889
-2.170	-0.003997
-2.165	-0.004197
-2.160	-0.004393
-2.155	-0.004664
-2.150	-0.004849
-2.145	-0.005036
-2.140	-0.005212
-2.135	-0.005315
-2.130	-0.005462
-2.125	-0.005549
-2.120	-0.005629
-2.115	-0.005682
-2.110	-0.005759
-2.105	-0.005850
-2.100	-0.005889
-2.095	-0.005966
-2.090	-0.005999
-2.085	-0.006054
-2.080	-0.006075
-2.075	-0.006041
-2.070	-0.005946
-2.065	-0.005739
-2.060	-0.005212
-2.055	-0.004225
-2.050	-0.002588
-2.045	-0.000614
-2.040	0.001432
-2.035	0.003637
-2.030	0.006114
-2.025	0.008119
-2.020	0.009153
-2.015	0.009087
-2.010	0.008093
-2.005	0.006597
-2.000	0.004856
-1.995	0.003329
-1.990	0.002055
-1.985	0.001130
-1.980	0.000426
-1.975	-0.000070
-1.970	-0.000433
-1.965	-0.000644
-1.960	-0.000796
-1.955	-0.000967
-1.950	-0.001169
-1.945	-0.001434
-1.940	-0.001639
-1.935	-0.001846
-1.930	-0.001990
-1.925	-0.002068
-1.920	-0.002101
-1.915	-0.002155
-1.910	-0.002240
-1.905	-0.002342
-1.900	-0.002405
-1.895	-0.002548
-1.890	-0.002683
-1.885	-0.002816
-1.880	-0.002960
-1.875	-0.003071
-1.870	-0.003194
-1.865	-0.003287
-1.860	-0.003393
-1.855	-0.003521
-1.850	-0.003637
-1.845	-0.003701
-1.840	-0.003794
-1.835	-0.003921
-1.830	-0.004030
-1.825	-0.004153
-1.820	-0.004284
-1.815	-0.004422
-1.810	-0.004558
-1.805	-0.004685
-1.800	-0.004760
-1.795	-0.004821
-1.790	-0.004895
-1.785	-0.004917
-1.780	-0.004985
-1.775	-0.005012
-1.770	-0.005061
-1.765	-0.005092
-1.760	-0.005131
-1.755	-0.005112
-1.750	-0.005128
-1.745	-0.005124
-1.740	-0.005050
-1.735	-0.004957
-1.730	-0.004811
-1.725	-0.004527
-1.720	-0.003971
-1.715	-0.003009
-1.710	-0.001611
-1.705	0.000032
-1.700	0.001870
-1.695	0.003963
-1.690	0.006058
-1.685	0.007646
-1.680	0.008476
-1.675	0.008409
-1.670	0.007581
-1.665	0.006376
-1.660	0.005067
-1.655	0.003851
-1.650	0.002773
-1.645	0.001965
-1.640	0.001402
-1.635	0.000945
-1.630	0.000547
-1.625	0.000119
-1.620	-0.000265
-1.615	-0.000594
-1.610	-0.000804
-1.605	-0.000907
-1.600	-0.000947
-1.595	-0.001021
-1.590	-0.001107
-1.585	-0.001250
-1.580	-0.001388
-1.575	-0.001500
-1.570	-0.001628
-1.565	-0.001705
-1.560	-0.001768
-1.555	-0.001797
-1.550	-0.001853
-1.545	-0.001857
-1.540	-0.001832
-1.535	-0.001799
-1.530	-0.001825
-1.525	-0.001811
-1.520	-0.001902
-1.515	-0.002017
-1.510	-0.002148
-1.505	-0.002256
-1.500	-0.002340
-1.495	-0.002407
-1.490	-0.002455
-1.485	-0.002552
-1.480	-0.002656
-1.475	-0.002749
-1.470	-0.002835
-1.465	-0.002939
-1.460	-0.002991
-1.455	-0.003116
-1.450	-0.003226
-1.445	-0.003319
-1.440	-0.003463
-1.435	-0.003506
-1.430	-0.003564
-1.425	-0.003611
-1.420	-0.003655
-1.415	-0.003701
-1.410	-0.003724
-1.405	-0.003759
-1.400	-0.003773
-1.395	-0.003788
-1.390	-0.003781
-1.385	-0.003816
-1.380	-0.003837
-1.375	-0.003846
-1.370	-0.003883
-1.365	-0.003888
-1.360	-0.003881
-1.355	-0.003875
-1.350	-0.003933
-1.345	-0.003909
-1.340	-0.003915
-1.335	-0.003900
-1.330	-0.003887
-1.325	-0.003822
-1.320	-0.003779
-1.315	-0.003696
-1.310	-0.003601
-1.305	-0.003421
-1.300	-0.003117
-1.295	-0.002578
-1.290	-0.001713
-1.285	-0.000646
-1.280	0.000742
-1.275	0.002304
-1.270	0.003996
-1.265	0.005490
-1.260	0.006578
-1.255	0.007089
-1.250	0.007067
-1.245	0.006678
-1.240	0.006086
-1.235	0.005438
-1.230	0.004713
-1.225	0.003933
-1.220	0.003116
-1.215	0.002397
-1.210	0.001812
-1.205	0.001399
-1.200	0.001080
-1.195	0.000805
-1.190	0.000476
-1.185	0.000230
-1.180	0.000009
-1.175	-0.000207
-1.170	-0.000369
-1.165	-0.000476
-1.160	-0.000491
-1.155	-0.000441
-1.150	-0.000402
-1.145	-0.000417
-1.140	-0.000511
-1.135	-0.000569
-1.130	-0.000668
-1.125	-0.000687
-1.120	-0.000717
-1.115	-0.000756
-1.110	-0.000790
-1.105	-0.000844
-1.100	-0.000907
-1.095	-0.000962
-1.090	-0.001061
-1.085	-0.001169
-1.080	-0.001202
-1.075	-0.001222
-1.070	-0.001233
-1.065	-0.001267
-1.060	-0.001301
-1.055	-0.001291
-1.050	-0.001252
-1.045	-0.001228
-1.040	-0.001252
-1.035	-0.001297
-1.030	-0.001380
-1.025	-0.001444
-1.020	-0.001498
-1.015	-0.001508
-1.010	-0.001516
-1.005	-0.001496
-1.000	-0.001542
-0.995	-0.001599
-0.990	-0.001671
-0.985	-0.001700
-0.980	-0.001764
-0.975	-0.001818
-0.970	-0.001835
-0.965	-0.001848
-0.960	-0.001857
-0.955	-0.001867
-0.950	-0.001850
-0.945	-0.001820
-0.940	-0.001819
-0.935	-0.001893
-0.930	-0.001924
-0.925	-0.001915
-0.920	-0.001928
-0.915	-0.001944
-0.910	-0.001998
-0.905	-0.002032
-0.900	-0.002081
-0.895	-0.002115
-0.890	-0.002074
-0.885	-0.002074
-0.880	-0.002090
-0.875	-0.002054
-0.870	-0.002003
-0.865	-0.001974
-0.860	-0.001945
-0.855	-0.001915
-0.850	-0.001951
-0.845	-0.001965
-0.840	-0.001974
-0.835	-0.002018
-0.830	-0.002055
-0.825	-0.002031
-0.820	-0.002014
-0.815	-0.001981
-0.810	-0.002011
-0.805	-0.001992
-0.800	-0.001957
-0.795	-0.001859
-0.790	-0.001791
-0.785	-0.001707
-0.780	-0.001648
-0.775	-0.001643
-0.770	-0.001623
-0.765	-0.001603
-0.760	-0.001598
-0.755	-0.001535
-0.750	-0.001495
-0.745	-0.001457
-0.740	-0.001369
-0.735	-0.001321
-0.730	-0.001237
-0.725	-0.001216
-0.720	-0.001146
-0.715	-0.001063
-0.710	-0.000989
-0.705	-0.000909
-0.700	-0.000773
-0.695	-0.000611
-0.690	-0.000498
-0.685	-0.000370
-0.680	-0.000214
-0.675	-0.000145
-0.670	-0.000061
-0.665	0.000003
-0.660	0.000066
-0.655	0.000140
-0.650	0.000273
-0.645	0.000454
-0.640	0.000788
-0.635	0.001293
-0.630	0.002149
-0.625	0.003352
-0.620	0.005011
-0.615	0.007168
-0.610	0.009863
-0.605	0.012921
-0.600	0.016223
-0.595	0.019389
-0.590	0.022310
-0.585	0.024829
-0.580	0.026749
-0.575	0.027965
-0.570	0.028497
-0.565	0.028304
-0.560	0.027539
-0.555	0.026366
-0.550	0.024880
-0.545	0.023297
-0.540	0.021604
-0.535	0.020006
-0.530	0.018367
-0.525	0.016797
-0.520	0.015331
-0.515	0.013991
-0.510	0.012720
-0.505	0.011566
-0.500	0.010477
-0.495	0.009580
-0.490	0.008832
-0.485	0.008307
-0.480	0.008026
-0.475	0.007886
-0.470	0.007782
-0.465	0.007536
-0.460	0.007224
-0.455	0.006758
-0.450	0.006389
-0.445	0.006201
-0.440	0.006187
-0.435	0.006225
-0.430	0.006151
-0.425	0.005888
-0.420	0.005583
-0.415	0.005373
-0.410	0.005276
-0.405	0.005268
-0.400	0.005283
-0.395	0.005340
-0.390	0.005353
-0.385	0.005380
-0.380	0.005433
-0.375	0.005467
-0.370	0.005519
-0.365	0.005479
-0.360	0.005147
-0.355	0.004492
-0.350	0.003681
-0.345	0.003096
-0.340	0.003015
-0.335	0.003514
-0.330	0.004419
-0.325	0.005202
-0.320	0.005671
-0.315	0.005880
-0.310	0.005781
-0.305	0.005198
-0.300	0.004196
-0.295	0.003343
-0.290	0.003126
-0.285	0.003518
-0.280	0.004228
-0.275	0.004677
-0.270	0.004602
-0.265	0.004133
-0.260	0.003601
-0.255	0.003150
-0.250	0.002900
-0.245	0.002752
-0.240	0.002585
-0.235	0.002579
-0.230	0.003059
-0.225	0.003655
-0.220	0.003978
-0.215	0.003966
-0.210	0.003581
-0.205	0.002967
-0.200	0.002200
-0.195	0.001505
-0.190	0.001467
-0.185	0.001751
-0.180	0.001345
-0.175	0.001601
-0.170	0.001854
-0.165	0.000704
-0.160	-0.000279
-0.155	-0.000890
-0.150	-0.002252
-0.145	-0.002732
-0.140	-0.000461
-0.135	0.001078
-0.130	0.000059
-0.125	-0.000029
-0.120	-0.001908
-0.115	-0.005141
-0.110	-0.005266
-0.105	-0.006751
-0.100	-0.004245
-0.095	-0.002478
-0.090	-0.003330
-0.085	-0.001835
-0.080	-0.002840
-0.075	-0.004360
-0.070	-0.005464
-0.065	-0.005200
-0.060	-0.005226
-0.055	-0.004255
-0.050	-0.005674
-0.045	-0.001566
-0.040	-0.001101
-0.035	-0.006419
-0.030	0.004080
-0.025	-0.001980
-0.020	-0.004832
-0.015	0.002285
-0.010	-0.002904
-0.005	-0.001092
0.000	-0.001592
0.005	-0.004134
0.010	-0.000153
0.015	0.003530
0.020	-0.003165
0.025	0.003195
0.030	-0.000052
0.035	0.002942
0.040	0.003258
0.045	-0.001177
0.050	0.002543
0.055	0.006315
0.060	0.005153
0.065	0.001182
0.070	0.004687
0.075	0.004352
0.080	0.001600
0.085	0.001094
0.090	0.004584
0.095	0.002464
0.100	0.005454
0.105	0.007235
0.110	0.006352
0.115	0.003366
0.120	0.000606
0.125	0.001748
0.130	0.005447
0.135	0.004675
0.140	0.001758
0.145	0.002117
0.150	0.004318
0.155	0.004015
0.160	0.002662
0.165	0.001221
0.170	0.000985
0.175	0.001963
0.180	0.000658
0.185	-0.001262
0.190	-0.001860
0.195	-0.001801
0.200	-0.001009
0.205	-0.001263
0.210	-0.002222
0.215	-0.002759
0.220	-0.002492
0.225	-0.001996
0.230	-0.002219
0.235	-0.002403
0.240	-0.002592
0.245	-0.002982
0.250	-0.003399
0.255	-0.003614
0.260	-0.003839
0.265	-0.004174
0.270	-0.004399
0.275	-0.004425
0.280	-0.004073
0.285	-0.003504
0.290	-0.002896
0.295	-0.002631
0.300	-0.002797
0.305	-0.003389
0.310	-0.004383
0.315	-0.005480
0.320	-0.006167
0.325	-0.006139
0.330	-0.005657
0.335	-0.004980
0.340	-0.004445
0.345	-0.004258
0.350	-0.004391
0.355	-0.004501
0.360	-0.004496
0.365	-0.004616
0.370	-0.004769
0.375	-0.004843
0.380	-0.004882
0.385	-0.005002
0.390	-0.005247
0.395	-0.005395
0.400	-0.005357
0.405	-0.005209
0.410	-0.005077
0.415	-0.005094
0.420	-0.005232
0.425	-0.005431
0.430	-0.005641
0.435	-0.005802
0.440	-0.005958
0.445	-0.006102
0.450	-0.006356
0.455	-0.006655
0.460	-0.006892
0.465	-0.007021
0.470	-0.007041
0.475	-0.007087
0.480	-0.007179
0.485	-0.007352
0.490	-0.007735
0.495	-0.008198
0.500	-0.008681
0.505	-0.009189
0.510	-0.009720
0.515	-0.010278
0.520	-0.010940
0.525	-0.011756
0.530	-0.012824
0.535	-0.013979
0.540	-0.015310
0.545	-0.016807
0.550	-0.018372
0.555	-0.019963
0.560	-0.021546
0.565	-0.023058
0.570	-0.024569
0.575	-0.025923
0.580	-0.027091
0.585	-0.027930
0.590	-0.028302
0.595	-0.028091
0.600	-0.027024
0.605	-0.025219
0.610	-0.022719
0.615	-0.019914
0.620	-0.016764
0.625	-0.013530
0.630	-0.010317
0.635	-0.007521
0.640	-0.005170
0.645	-0.003439
0.650	-0.002160
0.655	-0.001318
0.660	-0.000664
0.665	-0.000317
0.670	-0.000082
0.675	0.000094
0.680	0.000212
0.685	0.000271
0.690	0.000350
0.695	0.000370
0.700	0.000414
0.705	0.000468
0.710	0.000590
0.715	0.000713
0.720	0.000822
0.725	0.000905
0.730	0.000969
0.735	0.001024
0.740	0.001034
0.745	0.001053
0.750	0.001063
0.755	0.001083
0.760	0.001096
0.765	0.001185
0.770	0.001314
0.775	0.001456
0.780	0.001543
0.785	0.001607
0.790	0.001677
0.795	0.001701
0.800	0.001779
0.805	0.001819
0.810	0.001877
0.815	0.001927
0.820	0.001929
0.825	0.001969
0.830	0.001982
0.835	0.001984
0.840	0.001964
0.845	0.001968
0.850	0.001944
0.855	0.001924
0.860	0.001927
0.865	0.001986
0.870	0.002051
0.875	0.002065
0.880	0.002108
0.885	0.002138
0.890	0.002153
0.895	0.002217
0.900	0.002215
0.905	0.002215
0.910	0.002169
0.915	0.002041
0.920	0.001944
0.925	0.001890
0.930	0.001875
0.935	0.001925
0.940	0.001994
0.945	0.001984
0.950	0.001935
0.955	0.001920
0.960	0.001884
0.965	0.001841
0.970	0.001798
0.975	0.001777
0.980	0.001731
0.985	0.001672
0.990	0.001644
0.995	0.001624
1.000	0.001563
1.005	0.001500
1.010	0.001481
1.015	0.001529
1.020	0.001589
1.025	0.001613
1.030	0.001618
1.035	0.001564
1.040	0.001541
1.045	0.001525
1.050	0.001495
1.055	0.001442
1.060	0.001394
1.065	0.001379
1.070	0.001333
1.075	0.001255
1.080	0.001168
1.085	0.001108
1.090	0.001073
1.095	0.001019
1.100	0.000971
1.105	0.000903
1.110	0.000853
1.115	0.000784
1.120	0.000810
1.125	0.000859
1.130	0.000839
1.135	0.000795
1.140	0.000687
1.145	0.000628
1.150	0.000535
1.155	0.000549
1.160	0.000559
1.165	0.000535
1.170	0.000451
1.175	0.000338
1.180	0.000157
1.185	-0.000015
1.190	-0.000236
1.195	-0.000428
1.200	-0.000609
1.205	-0.000767
1.210	-0.000919
1.215	-0.001140
1.220	-0.001462
1.225	-0.001820
1.230	-0.002335
1.235	-0.002967
1.240	-0.003695
1.245	-0.004419
1.250	-0.005207
1.255	-0.005945
1.260	-0.006617
1.265	-0.007030
1.270	-0.007101
1.275	-0.006679
1.280	-0.005733
1.285	-0.004393
1.290	-0.002862
1.295	-0.001272
1.300	0.000309
1.305	0.001662
1.310	0.002579
1.315	0.003074
1.320	0.003335
1.325	0.003521
1.330	0.003624
1.335	0.003716
1.340	0.003794
1.345	0.003878
1.350	0.003936
1.355	0.003955
1.360	0.003994
1.365	0.004014
1.370	0.003956
1.375	0.003959
1.380	0.003932
1.385	0.003953
1.390	0.003933
1.395	0.003927
1.400	0.003923
1.405	0.003918
1.410	0.003920
1.415	0.003906
1.420	0.003849
1.425	0.003828
1.430	0.003719
1.435	0.003644
1.440	0.003574
1.445	0.003455
1.450	0.003355
1.455	0.003225
1.460	0.003105
1.465	0.002982
1.470	0.002889
1.475	0.002840
1.480	0.002826
1.485	0.002826
1.490	0.002770
1.495	0.002710
1.500	0.002644
1.505	0.002531
1.510	0.002409
1.515	0.002295
1.520	0.002250
1.525	0.002205
1.530	0.002166
1.535	0.002117
1.540	0.002080
1.545	0.002051
1.550	0.001976
1.555	0.001893
1.560	0.001777
1.565	0.001654
1.570	0.001510
1.575	0.001373
1.580	0.001235
1.585	0.001082
1.590	0.001004
1.595	0.000950
1.600	0.000950
1.605	0.000915
1.610	0.000867
1.615	0.000798
1.620	0.000690
1.625	0.000562
1.630	0.000400
1.635	0.000209
1.640	-0.000067
1.645	-0.000425
1.650	-0.000925
1.655	-0.001623
1.660	-0.002548
1.665	-0.003677
1.670	-0.004906
1.675	-0.006149
1.680	-0.007337
1.685	-0.008189
1.690	-0.008496
1.695	-0.008028
1.700	-0.006790
1.705	-0.005050
1.710	-0.002944
1.715	-0.000752
1.720	0.001488
1.725	0.003215
1.730	0.004194
1.735	0.004602
1.740	0.004775
1.745	0.004924
1.750	0.004998
1.755	0.005094
1.760	0.005142
1.765	0.005139
1.770	0.005149
1.775	0.005126
1.780	0.005097
1.785	0.005043
1.790	0.005004
1.795	0.004980
1.800	0.004927
1.805	0.004893
1.810	0.004779
1.815	0.004717
1.820	0.004643
1.825	0.004545
1.830	0.004407
1.835	0.004343
1.840	0.004191
1.845	0.004125
1.850	0.003939
1.855	0.003833
1.860	0.003674
1.865	0.003542
1.870	0.003370
1.875	0.003247
1.880	0.003086
1.885	0.002914
1.890	0.002749
1.895	0.002597
1.900	0.002426
1.905	0.002298
1.910	0.002194
1.915	0.002146
1.920	0.002073
1.925	0.002043
1.930	0.001993
1.935	0.001925
1.940	0.001865
1.945	0.001737
1.950	0.001616
1.955	0.001468
1.960	0.001336
1.965	0.001155
1.970	0.000987
1.975	0.000658
1.980	0.000176
1.985	-0.000427
1.990	-0.001267
1.995	-0.002247
2.000	-0.003443
2.005	-0.004835
2.010	-0.006404
2.015	-0.007823
2.020	-0.008885
2.025	-0.009147
2.030	-0.008462
2.035	-0.006935
2.040	-0.004952
2.045	-0.002655
2.050	0.000129
2.055	0.002808
2.060	0.004662
2.065	0.005509
2.070	0.005886
2.075	0.006102
2.080	0.006215
2.085	0.006256
2.090	0.006290
2.095	0.006240
2.100	0.006249
2.105	0.006165
2.110	0.006111
2.115	0.006047
2.120	0.005942
2.125	0.005809
2.130	0.005653
2.135	0.005482
2.140	0.005305
2.145	0.005132
2.150	0.004962
2.155	0.004767
2.160	0.004578
2.165	0.004360
2.170	0.004179
2.175	0.003974
2.180	0.003839
2.185	0.003694
2.190	0.003488
2.195	0.003358
2.200	0.003177
2.205	0.003024
2.210	0.002881
2.215	0.002753
2.220	0.002611
2.225	0.002484
2.230	0.002367
2.235	0.002294
2.240	0.002245
2.245	0.002194
2.250	0.002090
2.255	0.001897
2.260	0.001603
2.265	0.001230
2.270	0.000753
2.275	0.000178
2.280	-0.000540
2.285	-0.001440
2.290	-0.002689
2.295	-0.004186
2.300	-0.005925
2.305	-0.007578
2.310	-0.008817
2.315	-0.009185
2.320	-0.008508
2.325	-0.006969
2.330	-0.004899
2.335	-0.002206
2.340	0.001073
2.345	0.004021
2.350	0.005896
2.355	0.006676
2.360	0.006997
2.365	0.007104
2.370	0.007109
2.375	0.007094
2.380	0.007029
2.385	0.006963
2.390	0.006824
2.395	0.006688
2.400	0.006524
2.405	0.006364
2.410	0.006145
2.415	0.005952
2.420	0.005733
2.425	0.005517
2.430	0.005294
2.435	0.005094
2.440	0.004897
2.445	0.004696
2.450	0.004476
2.455	0.004298
2.460	0.004106
2.465	0.003924
2.470	0.003758
2.475	0.003624
2.480	0.003477
2.485	0.003340
2.490	0.003258
2.495	0.003189
2.500	0.003022
2.505	0.002810
2.510	0.002583
2.515	0.002309
2.520	0.001977
2.525	0.001578
2.530	0.001056
2.535	0.000396
2.540	-0.000547
2.545	-0.001700
2.550	-0.003172
2.555	-0.004841
2.560	-0.006700
2.565	-0.008274
2.570	-0.009219
2.575	-0.009011
2.580	-0.007785
2.585	-0.005799
2.590	-0.003088
2.595	0.000356
2.600	0.003874
2.605	0.006203
2.610	0.007307
2.615	0.007687
2.620	0.007823
2.625	0.007838
2.630	0.007781
2.635	0.007691
2.640	0.007610
2.645	0.007475
2.650	0.007345
2.655	0.007221
2.660	0.007038
2.665	0.006848
2.670	0.006622
2.675	0.006351
2.680	0.006114
2.685	0.005864
2.690	0.005598
2.695	0.005332
2.700	0.005084
2.705	0.004813
2.710	0.004577
2.715	0.004362
2.720	0.004180
2.725	0.003928
2.730	0.003660
2.735	0.003466
2.740	0.003302
2.745	0.003028
2.750	0.002762
2.755	0.002461
2.760	0.002074
2.765	0.001592
2.770	0.000884
2.775	-0.000069
2.780	-0.001344
2.785	-0.002922
2.790	-0.004889
2.795	-0.006941
2.800	-0.008714
2.805	-0.009504
2.810	-0.008984
2.815	-0.007450
2.820	-0.005094
2.825	-0.001954
2.830	0.002048
2.835	0.005584
2.840	0.007661
2.845	0.008460
2.850	0.008729
2.855	0.008761
2.860	0.008715
2.865	0.008625
2.870	0.008471
2.875	0.008289
2.880	0.008063
2.885	0.007799
2.890	0.007523
2.895	0.007264
2.900	0.006941
2.905	0.006676
2.910	0.006393
2.915	0.006080
2.920	0.005816
2.925	0.005486
2.930	0.005207
2.935	0.004910
2.940	0.004625
2.945	0.004366
2.950	0.004149
2.955	0.003908
2.960	0.003634
2.965	0.003371
2.970	0.003023
2.975	0.002690
2.980	0.002138
2.985	0.001378
2.990	0.000320
2.995	-0.000977
3.000	-0.002802
3.005	-0.004890
3.010	-0.007111
3.015	-0.008823
3.020	-0.009477
3.025	-0.008735
3.030	-0.006864
3.035	-0.004166
3.040	-0.000442
3.045	0.003687
3.050	0.007084
3.055	0.008748
3.060	0.009337
3.065	0.009464
3.070	0.009435
3.075	0.009315
3.080	0.009151
3.085	0.008978
3.090	0.008725
3.095	0.008461
3.100	0.008195
3.105	0.007900
3.110	0.007581
3.115	0.007247
3.120	0.006937
3.125	0.006627
3.130	0.006234
3.135	0.005865
3.140	0.005517
3.145	0.005242
3.150	0.004984
3.155	0.004714
3.160	0.004451
3.165	0.004156
3.170	0.003884
3.175	0.003494
3.180	0.002941
3.185	0.002196
3.190	0.001138
3.195	-0.000234
3.200	-0.002092
3.205	-0.004251
3.210	-0.006598
3.215	-0.008426
3.220	-0.009171
3.225	-0.008505
3.230	-0.006677
3.235	-0.004021
3.240	-0.000266
3.245	0.004173
3.250	0.007911
3.255	0.009734
3.260	0.010339
3.265	0.010414
3.270	0.010307
3.275	0.010153
3.280	0.009908
3.285	0.009647
3.290	0.009307
3.295	0.008997
3.300	0.008638
3.305	0.008325
3.310	0.007966
3.315	0.007584
3.320	0.007237
3.325	0.006869
3.330	0.006520
3.335	0.006206
3.340	0.005858
3.345	0.005522
3.350	0.005222
3.355	0.004876
3.360	0.004511
3.365	0.004073
3.370	0.003491
3.375	0.002637
3.380	0.001387
3.385	-0.000268
3.390	-0.002489
3.395	-0.004946
3.400	-0.007329
3.405	-0.008815
3.410	-0.008814
3.415	-0.007436
3.420	-0.005014
3.425	-0.001627
3.430	0.002991
3.435	0.007326
3.440	0.010140
3.445	0.011269
3.450	0.011541
3.455	0.011502
3.460	0.011323
3.465	0.011107
3.470	0.010839
3.475	0.010534
3.480	0.010140
3.485	0.009742
3.490	0.009325
3.495	0.008925
3.500	0.008502
3.505	0.008116
3.510	0.007693
3.515	0.007319
3.520	0.006930
3.525	0.006584
3.530	0.006269
3.535	0.005935
3.540	0.005542
3.545	0.005049
3.550	0.004229
3.555	0.003111
3.560	0.001501
3.565	-0.000577
3.570	-0.003076
3.575	-0.005525
3.580	-0.007353
3.585	-0.007691
3.590	-0.006390
3.595	-0.004018
3.600	-0.000588
3.605	0.003998
3.610	0.008934
3.615	0.012376
3.620	0.013943
3.625	0.014346
3.630	0.014305
3.635	0.014141
3.640	0.013841
3.645	0.013469
3.650	0.013047
3.655	0.012599
3.660	0.012078
3.665	0.011588
3.670	0.011057
3.675	0.010543
3.680	0.010018
3.685	0.009514
3.690	0.008981
3.695	0.008438
3.700	0.007873
3.705	0.007213
3.710	0.006343
3.715	0.005189
3.720	0.003657
3.725	0.001591
3.730	-0.001083
3.735	-0.003935
3.740	-0.006577
3.745	-0.007907
3.750	-0.007076
3.755	-0.004694
3.760	-0.001857
3.765	0.002033
3.770	0.007084
3.775	0.011336
3.780	0.012572
3.785	0.011561
3.790	0.010152
3.795	0.008957
3.800	0.007956
3.805	0.007141
3.810	0.006427
3.815	0.005807
3.820	0.005309
3.825	0.004893
3.830	0.004524
3.835	0.004229
3.840	0.003963
3.845	0.003791
3.850	0.003619
3.855	0.003449
3.860	0.003354
3.865	0.003266
3.870	0.003210
3.875	0.003136
3.880	0.003088
3.885	0.003064
3.890	0.003041
3.895	0.003019
3.900	0.003018
3.905	0.002980
3.910	0.002979
3.915	0.002970
3.920	0.002944
3.925	0.002944
3.930	0.002939
3.935	0.002915
3.940	0.002922
3.945	0.002915
3.950	0.002921
3.955	0.002905
3.960	0.002920
3.965	0.002936
3.970	0.002929
3.975	0.002910
3.980	0.002946
3.985	0.002941
3.990	0.002947
3.995	0.002949
4.000	0.002941
4.005	0.002917
4.010	0.002959
4.015	0.002946
4.020	0.002950
4.025	0.002956
4.030	0.002966
4.035	0.002960
4.040	0.002960
4.045	0.002954
4.050	0.002985
4.055	0.002949
4.060	0.002992
4.065	0.002939
4.070	0.002975
4.075	0.002988
4.080	0.002963
4.085	0.002987
4.090	0.002970
4.095	0.002984
4.100	0.002995
4.105	0.002971
4.110	0.002981
4.115	0.002994
4.120	0.002980
4.125	0.002990
4.130	0.003022
4.135	0.003000
4.140	0.003027
4.145	0.003041
4.150	0.003034
4.155	0.003052
4.160	0.003060
4.165	0.003077
4.170	0.003073
4.175	0.003090
4.180	0.003068
4.185	0.003082
4.190	0.003083
4.195	0.003083
4.200	0.003098
4.205	0.003089
4.210	0.003115
4.215	0.003120
4.220	0.003092
4.225	0.003104
4.230	0.003130
4.235	0.003117
4.240	0.003116
4.245	0.003115
4.250	0.003131
4.255	0.003134
4.260	0.003138
4.265	0.003139
4.270	0.003148
4.275	0.003159
4.280	0.003125
4.285	0.003136
4.290	0.003166
4.295	0.003151
4.300	0.003151
4.305	0.003183
4.310	0.003166
4.315	0.003199
4.320	0.003189
4.325	0.003219
4.330	0.003213
4.335	0.003229
4.340	0.003200
4.345	0.003220
4.350	0.003227
4.355	0.003253
4.360	0.003236
4.365	0.003241
4.370	0.003274
4.375	0.003287
4.380	0.003272
4.385	0.003258
4.390	0.003282
4.395	0.003282
4.400	0.003261
4.405	0.003297
4.410	0.003309
4.415	0.003306
4.420	0.003302
4.425	0.003291
4.430	0.003302
4.435	0.003302
4.440	0.003323
4.445	0.003322
4.450	0.003320
4.455	0.003327
4.460	0.003309
4.465	0.003301
4.470	0.003353
4.475	0.003348
4.480	0.003342
4.485	0.003369
4.490	0.003383
4.495	0.003391
4.500	0.003383
4.505	0.003366
4.510	0.003391
4.515	0.003393
4.520	0.003403
4.525	0.003397
4.530	0.003428
4.535	0.003411
4.540	0.003418
4.545	0.003419
4.550	0.003438
4.555	0.003430
4.560	0.003453
4.565	0.003456
4.570	0.003467
4.575	0.003465
4.580	0.003467
4.585	0.003470
4.590	0.003457
4.595	0.003470
4.600	0.003469
4.605	0.003473
4.610	0.003475
4.615	0.003497
4.620	0.003498
4.625	0.003516
4.630	0.003503
4.635	0.003506
4.640	0.003521
4.645	0.003507
4.650	0.003536
4.655	0.003524
4.660	0.003547
4.665	0.003527
4.670	0.003550
4.675	0.003542
4.680	0.003551
4.685	0.003561
4.690	0.003563
4.695	0.003570
4.700	0.003558
4.705	0.003581
4.710	0.003585
4.715	0.003590
4.720	0.003595
4.725	0.003593
4.730	0.003615
4.735	0.003604
4.740	0.003618
4.745	0.003624
4.750	0.003642
4.755	0.003644
4.760	0.003620
4.765	0.003640
4.770	0.003653
4.775	0.003670
4.780	0.003657
4.785	0.003665
4.790	0.003680
4.795	0.003675
4.800	0.003693
4.805	0.003690
4.810	0.003700
4.815	0.003715
4.820	0.003709
4.825	0.003709
4.830	0.003721
4.835	0.003733
4.840	0.003704
4.845	0.003729
4.850	0.003750
4.855	0.003750
4.860	0.003754
4.865	0.003745
4.870	0.003756
4.875	0.003779
4.880	0.003778
4.885	0.003798
4.890	0.003776
4.895	0.003779
4.900	0.003814
4.905	0.003803
4.910	0.003824
4.915	0.003827
4.920	0.003806
4.925	0.003822
4.930	0.003840
4.935	0.003844
4.940	0.003830
4.945	0.003843
4.950	0.003849
4.955	0.003851
4.960	0.003868
4.965	0.003870
4.970	0.003879
4.975	0.003891
4.980	0.003889
4.985	0.003890
4.990	0.003880
4.995	0.003908
5.000	0.003922
5.005	0.003912
5.010	0.003910
5.015	0.003937
5.020	0.003942
5.025	0.003941
5.030	0.003927
5.035	0.003951
5.040	0.003957
5.045	0.003974
5.050	0.003967
5.055	0.003986
5.060	0.003985
5.065	0.003985
5.070	0.004005
5.075	0.004010
5.080	0.003999
5.085	0.003998
5.090	0.004018
5.095	0.004020
5.100	0.004030
5.105	0.004018
5.110	0.004042
5.115	0.004029
5.120	0.004066
5.125	0.004055
5.130	0.004072
5.135	0.004056
5.140	0.004041
5.145	0.004072
5.150	0.004104
5.155	0.004087
5.160	0.004105
5.165	0.004109
5.170	0.004120
5.175	0.004129
5.180	0.004124
5.185	0.004129
5.190	0.004130
5.195	0.004131
5.200	0.004152
5.205	0.004161
5.210	0.004169
5.215	0.004161
5.220	0.004171
5.225	0.004189
5.230	0.004197
5.235	0.004179
5.240	0.004220
5.245	0.004195
5.250	0.004218
5.255	0.004209
5.260	0.004220
5.265	0.004231
5.270	0.004244
5.275	0.004228
5.280	0.004257
5.285	0.004242
5.290	0.004263
5.295	0.004271
5.300	0.004283
5.305	0.004278
5.310	0.004293
5.315	0.004287
5.320	0.004308
5.325	0.004326
5.330	0.004317
5.335	0.004335
5.340	0.004329
5.345	0.004359
5.350	0.004357
5.355	0.004346
5.360	0.004350
5.365	0.004386
5.370	0.004370
5.375	0.004395
5.380	0.004397
5.385	0.004392
5.390	0.004379
5.395	0.004379
5.400	0.004409
5.405	0.004420
5.410	0.004413
5.415	0.004413
5.420	0.004440
5.425	0.004458
5.430	0.004445
5.435	0.004475
5.440	0.004468
5.445	0.004463
5.450	0.004483
5.455	0.004475
5.460	0.004483
5.465	0.004498
5.470	0.004506
5.475	0.004515
5.480	0.004514
5.485	0.004548
5.490	0.004529
5.495	0.004543
5.500	0.004557
5.505	0.004552
5.510	0.004552
5.515	0.004584
5.520	0.004570
5.525	0.004606
5.530	0.004583
5.535	0.004608
5.540	0.004594
5.545	0.004620
5.550	0.004617
5.555	0.004622
5.560	0.004621
5.565	0.004634
5.570	0.004661
5.575	0.004639
5.580	0.004682
5.585	0.004675
5.590	0.004662
5.595	0.004692
5.600	0.004690
5.605	0.004704
5.610	0.004694
5.615	0.004708
5.620	0.004723
5.625	0.004734
5.630	0.004749
5.635	0.004752
5.640	0.004748
5.645	0.004764
5.650	0.004772
5.655	0.004769
5.660	0.004791
5.665	0.004792
5.670	0.004785
5.675	0.004797
5.680	0.004805
5.685	0.004807
5.690	0.004811
5.695	0.004834
5.700	0.004832
5.705	0.004840
5.710	0.004839
5.715	0.004838
5.720	0.004859
5.725	0.004872
5.730	0.004890
5.735	0.004879
5.740	0.004886
5.745	0.004914
5.750	0.004910
5.755	0.004928
5.760	0.004928
5.765	0.004939
5.770	0.004931
5.775	0.004959
5.780	0.004946
5.785	0.004958
5.790	0.004990
5.795	0.004984
5.800	0.004971
5.805	0.005002
5.810	0.004994
5.815	0.005001
5.820	0.005028
5.825	0.005018
5.830	0.005042
5.835	0.005045
5.840	0.005047
5.845	0.005037
5.850	0.005071
5.855	0.005057
5.860	0.005070
5.865	0.005095
5.870	0.005116
5.875	0.005086
5.880	0.005112
5.885	0.005138
5.890	0.005126
5.895	0.005135
5.900	0.005139
5.905	0.005138
5.910	0.005150
5.915	0.005174
5.920	0.005168
5.925	0.005204
5.930	0.005195
5.935	0.005212
5.940	0.005209
5.945	0.005238
5.950	0.005233
5.955	0.005237
5.960	0.005221
5.965	0.005237
5.970	0.005254
5.975	0.005272
5.980	0.005272
5.985	0.005301
5.990	0.005290
5.995	0.005293
6.000	0.005308
6.005	0.005317
6.010	0.005308
6.015	0.005346
6.020	0.005364
6.025	0.005329
6.030	0.005364
6.035	0.005378
6.040	0.005371
6.045	0.005365
6.050	0.005403
6.055	0.005402
6.060	0.005425
6.065	0.005420
6.070	0.005417
6.075	0.005432
6.080	0.005456
6.085	0.005452
6.090	0.005463
6.095	0.005477
6.100	0.005480
6.105	0.005512
6.110	0.005500
6.115	0.005520
6.120	0.005531
6.125	0.005514
6.130	0.005522
6.135	0.005521
6.140	0.005562
6.145	0.005555
6.150	0.005582
6.155	0.005592
6.160	0.005602
6.165	0.005600
6.170	0.005592
6.175	0.005621
6.180	0.005615
6.185	0.005629
6.190	0.005656
6.195	0.005681
6.200	0.005671
6.205	0.005657
6.210	0.005684
6.215	0.005692
6.220	0.005703
6.225	0.005718
6.230	0.005715
6.235	0.005731
6.240	0.005748
6.245	0.005740
6.250	0.005771
6.255	0.005782
6.260	0.005771
6.265	0.005784
6.270	0.005820
6.275	0.005808
6.280	0.005818
6.285	0.005846
6.290	0.005840
6.295	0.005854
6.300	0.005873
6.305	0.005886
6.310	0.005887
6.315	0.005918
6.320	0.005917
6.325	0.005929
6.330	0.005927
6.335	0.005920
6.340	0.005944
6.345	0.005952
6.350	0.005976
6.355	0.005982
6.360	0.005992
6.365	0.006003
6.370	0.005992
6.375	0.006001
6.380	0.006039
6.385	0.006067
6.390	0.006070
6.395	0.006046
6.400	0.006081
6.405	0.006045
6.410	0.006084
6.415	0.006105
6.420	0.006114
6.425	0.006115
6.430	0.006140
6.435	0.006130
6.440	0.006158
6.445	0.006150
6.450	0.006186
6.455	0.006184
6.460	0.006184
6.465	0.006201
6.470	0.006222
6.475	0.006220
6.480	0.006213
6.485	0.006250
6.490	0.006245
6.495	0.006242
6.500	0.006280
6.505	0.006286
6.510	0.006281
6.515	0.006290
6.520	0.006328
6.525	0.006330
6.530	0.006347
6.535	0.006364
6.540	0.006378
6.545	0.006369
6.550	0.006376
6.555	0.006400
6.560	0.006423
6.565	0.006416
6.570	0.006454
6.575	0.006452
6.580	0.006464
6.585	0.006482
6.590	0.006491
6.595	0.006493
6.600	0.006516
6.605	0.006522
6.610	0.006514
6.615	0.006559
6.620	0.006540
6.625	0.006577
6.630	0.006576
6.635	0.006571
6.640	0.006604
6.645	0.006602
6.650	0.006642
6.655	0.006629
6.660	0.006649
6.665	0.006642
6.670	0.006666
6.675	0.006670
6.680	0.006678
6.685	0.006711
6.690	0.006728
6.695	0.006691
6.700	0.006747
6.705	0.006751
6.710	0.006769
6.715	0.006803
6.720	0.006796
6.725	0.006778
6.730	0.006816
6.735	0.006842
6.740	0.006840
6.745	0.006842
6.750	0.006844
6.755	0.006863
6.760	0.006870
6.765	0.006900
6.770	0.006901
6.775	0.006913
6.780	0.006935
6.785	0.006951
6.790	0.006982
6.795	0.007001
6.800	0.006980
6.805	0.006974
6.810	0.007038
6.815	0.007028
6.820	0.007015
6.825	0.007021
6.830	0.007060
6.835	0.007074
6.840	0.007095
6.845	0.007084
6.850	0.007104
6.855	0.007119
6.860	0.007157
6.865	0.007171
6.870	0.007170
6.875	0.007169
6.880	0.007198
6.885	0.007214
6.890	0.007243
6.895	0.007234
6.900	0.007259
6.905	0.007276
6.910	0.007278
6.915	0.007302
6.920	0.007290
6.925	0.007315
6.930	0.007344
6.935	0.007352
6.940	0.007363
6.945	0.007358
6.950	0.007410
6.955	0.007406
6.960	0.007434
6.965	0.007443
6.970	0.007470
6.975	0.007474
6.980	0.007509
6.985	0.007521
6.990	0.007528
6.995	0.007557
7.000	0.007542
7.005	0.007577
7.010	0.007597
7.015	0.007624
7.020	0.007604
7.025	0.007628
7.030	0.007660
7.035	0.007684
7.040	0.007678
7.045	0.007705
7.050	0.007724
7.055	0.007720
7.060	0.007773
7.065	0.007776
7.070	0.007784
7.075	0.007808
7.080	0.007805
7.085	0.007819
7.090	0.007861
7.095	0.007874
7.100	0.007895
7.105	0.007921
7.110	0.007945
7.115	0.007952
7.120	0.007968
7.125	0.007977
7.130	0.007974
7.135	0.007986
7.140	0.008024
7.145	0.008029
7.150	0.008050
7.155	0.008090
7.160	0.008085
7.165	0.008090
7.170	0.008112
7.175	0.008144
7.180	0.008176
7.185	0.008179
7.190	0.008185
7.195	0.008228
7.200	0.008241
7.205	0.008248
7.210	0.008267
7.215	0.008304
7.220	0.008301
7.225	0.008297
7.230	0.008332
7.235	0.008338
7.240	0.008325
7.245	0.008361
7.250	0.008402
7.255	0.008375
7.260	0.008394
7.265	0.008421
7.270	0.008446
7.275	0.008475
7.280	0.008502
7.285	0.008504
7.290	0.008547
7.295	0.008549
7.300	0.008547
7.305	0.008575
7.310	0.008608
7.315	0.008591
7.320	0.008669
7.325	0.008645
7.330	0.008695
7.335	0.008708
7.340	0.008728
7.345	0.008744
7.350	0.008759
7.355	0.008786
7.360	0.008823
7.365	0.008862
7.370	0.008876
7.375	0.008911
7.380	0.008925
7.385	0.008934
7.390	0.008946
7.395	0.008963
7.400	0.008999
7.405	0.009004
7.410	0.009043
7.415	0.009070
7.420	0.009117
7.425	0.009138
7.430	0.009163
7.435	0.009183
7.440	0.009205
7.445	0.009220
7.450	0.009245
7.455	0.009267
7.460	0.009302
7.465	0.009336
7.470	0.009347
7.475	0.009368
7.480	0.009426
7.485	0.009414
7.490	0.009453
7.495	0.009474
7.500	0.009494
7.505	0.009547
7.510	0.009576
7.515	0.009581
7.520	0.009614
7.525	0.009652
7.530	0.009672
7.535	0.009702
7.540	0.009726
7.545	0.009738
7.550	0.009767
7.555	0.009805
7.560	0.009837
7.565	0.009855
7.570	0.009877
7.575	0.009901
7.580	0.009923
7.585	0.009983
7.590	0.009988
7.595	0.010014
7.600	0.010035
7.605	0.010070
7.610	0.010106
7.615	0.010130
7.620	0.010150
7.625	0.010177
7.630	0.010217
7.635	0.010231
7.640	0.010265
7.645	0.010300
7.650	0.010328
7.655	0.010364
7.660	0.010402
7.665	0.010440
7.670	0.010480
7.675	0.010524
7.680	0.010531
7.685	0.010558
7.690	0.010595
7.695	0.010628
7.700	0.010650
7.705	0.010698
7.710	0.010724
7.715	0.010763
7.720	0.010798
7.725	0.010830
7.730	0.010861
7.735	0.010917
7.740	0.010944
7.745	0.010985
7.750	0.011018
7.755	0.011035
7.760	0.011071
7.765	0.011106
7.770	0.011169
7.775	0.011205
7.780	0.011219
7.785	0.011256
7.790	0.011307
7.795	0.011323
7.800	0.011359
7.805	0.011403
7.810	0.011435
7.815	0.011493
7.820	0.011502
7.825	0.011549
7.830	0.011580
7.835	0.011615
7.840	0.011663
7.845	0.011710
7.850	0.011782
7.855	0.011769
7.860	0.011830
7.865	0.011889
7.870	0.011923
7.875	0.011950
7.880	0.011982
7.885	0.012033
7.890	0.012091
7.895	0.012114
7.900	0.012171
7.905	0.012194
7.910	0.012224
7.915	0.012309
7.920	0.012356
7.925	0.012389
7.930	0.012448
7.935	0.012505
7.940	0.012507
7.945	0.012569
7.950	0.012627
7.955	0.012670
7.960	0.012731
7.965	0.012775
7.970	0.012841
7.975	0.012875
7.980	0.012937
7.985	0.012980
7.990	0.013032
7.995	0.013096
8.000	0.013146
8.005	0.013193
8.010	0.013245
8.015	0.013291
8.020	0.013357
8.025	0.013412
8.030	0.013473
8.035	0.013519
8.040	0.013590
8.045	0.013650
8.050	0.013730
8.055	0.013783
8.060	0.013848
8.065	0.013882
8.070	0.013983
8.075	0.014022
8.080	0.014095
8.085	0.014132
8.090	0.014217
8.095	0.014278
8.100	0.014344
8.105	0.014401
8.110	0.014507
8.115	0.014559
8.120	0.014638
8.125	0.014731
8.130	0.014779
8.135	0.014865
8.140	0.014917
8.145	0.015011
8.150	0.015092
8.155	0.015157
8.160	0.015202
8.165	0.015303
8.170	0.015390
8.175	0.015473
8.180	0.015534
8.185	0.015650
8.190	0.015717
8.195	0.015791
8.200	0.015911
8.205	0.015988
8.210	0.016079
8.215	0.016178
8.220	0.016260
8.225	0.016365
8.230	0.016474
8.235	0.016553
8.240	0.016652
8.245	0.016738
8.250	0.016886
8.255	0.016947
8.260	0.017047
8.265	0.017140
8.270	0.017264
8.275	0.017380
8.280	0.017493
8.285	0.017610
8.290	0.017714
8.295	0.017832
8.300	0.017968
8.305	0.018096
8.310	0.018230
8.315	0.018324
8.320	0.018481
8.325	0.018588
8.330	0.018736
8.335	0.018901
8.340	0.019044
8.345	0.019182
8.350	0.019304
8.355	0.019452
8.360	0.019633
8.365	0.019740
8.370	0.019942
8.375	0.020082
8.380	0.020262
8.385	0.020429
8.390	0.020592
8.395	0.020777
8.400	0.020949
8.405	0.021147
8.410	0.021363
8.415	0.021560
8.420	0.021730
8.425	0.021947
8.430	0.022149
8.435	0.022359
8.440	0.022609
8.445	0.022870
8.450	0.023116
8.455	0.023337
8.460	0.023587
8.465	0.023912
8.470	0.024248
8.475	0.024544
8.480	0.024862
8.485	0.025163
8.490	0.025527
8.495	0.025872
8.500	0.026226
8.505	0.026598
8.510	0.027023
8.515	0.027424
8.520	0.027855
8.525	0.028342
8.530	0.028856
8.535	0.029353
8.540	0.029895
8.545	0.030439
8.550	0.031085
8.555	0.031690
8.560	0.032426
8.565	0.033191
8.570	0.033936
8.575	0.034832
8.580	0.035783
8.585	0.036811
8.590	0.037976
8.595	0.039192
8.600	0.040571
8.605	0.042007
8.610	0.043476
8.615	0.044641
8.620	0.046329
8.625	0.048492
8.630	0.051197
8.635	0.054307
8.640	0.058445
8.645	0.063953
8.650	0.072321
8.655	0.083109
8.660	0.092882
8.665	0.097379
8.670	0.099687
8.675	0.096581
8.680	0.085454
8.685	0.068737
8.690	0.050501
8.695	0.033621
8.700	0.018445
8.705	0.007195
8.710	0.001755
8.715	0.000446
8.720	0.000253
8.725	0.000199
8.730	0.000164
8.735	0.000125
8.740	0.000105
8.745	0.000090
8.750	0.000075
8.755	0.000085
8.760	0.000101
8.765	0.000105
8.770	0.000066
8.775	0.000091
8.780	0.000061
8.785	0.000096
8.790	0.000076
8.795	0.000056
8.800	0.000086
8.805	0.000081
8.810	0.000051
8.815	0.000066
8.820	0.000066
8.825	0.000066
8.830	0.000081
8.835	0.000051
8.840	0.000076
8.845	0.000056
8.850	0.000056
8.855	0.000061
8.860	0.000062
8.865	0.000076
8.870	0.000061
8.875	0.000057
8.880	0.000057
8.885	0.000047
8.890	0.000067
8.895	0.000062
8.900	0.000077
8.905	0.000067
8.910	0.000057
8.915	0.000037
8.920	0.000062
8.925	0.000062
8.930	0.000077
8.935	0.000062
8.940	0.000072
8.945	0.000042
8.950	0.000052
8.955	0.000057
8.960	0.000057
8.965	0.000052
8.970	0.000047
8.975	0.000057
8.980	0.000048
8.985	0.000057
8.990	0.000072
8.995	0.000043
9.000	0.000072
9.005	0.000052
9.010	0.000072
9.015	0.000072
9.020	0.000048
9.025	0.000067
9.030	0.000073
9.035	0.000068
9.040	0.000053
9.045	0.000068
9.050	0.000068
9.055	0.000068
9.060	0.000073
9.065	0.000058
9.070	0.000063
9.075	0.000038
9.080	0.000029
9.085	0.000063
9.090	0.000058
9.095	0.000043
9.100	0.000068
9.105	0.000048
9.110	0.000048
9.115	0.000058
9.120	0.000063
9.125	0.000044
9.130	0.000073
9.135	0.000063
9.140	0.000049
9.145	0.000059
9.150	0.000054
9.155	0.000044
9.160	0.000069
9.165	0.000054
9.170	0.000054
9.175	0.000054
9.180	0.000049
9.185	0.000093
9.190	0.000054
9.195	0.000054
9.200	0.000039
9.205	0.000074
9.210	0.000083
9.215	0.000074
9.220	0.000054
9.225	0.000064
9.230	0.000059
9.235	0.000074
9.240	0.000059
9.245	0.000079
9.250	0.000074
9.255	0.000079
9.260	0.000079
9.265	0.000089
9.270	0.000094
9.275	0.000089
9.280	0.000069
9.285	0.000064
9.290	0.000084
9.295	0.000069
9.300	0.000079
9.305	0.000059
9.310	0.000074
9.315	0.000069
9.320	0.000079
9.325	0.000069
9.330	0.000089
9.335	0.000075
9.340	0.000079
9.345	0.000089
9.350	0.000085
9.355	0.000104
9.360	0.000099
9.365	0.000104
9.370	0.000129
9.375	0.000139
9.380	0.000129
9.385	0.000154
9.390	0.000178
9.395	0.000178
9.400	0.000174
9.405	0.000144
9.410	0.000119
9.415	0.000070
9.420	0.000065
9.425	0.000055
9.430	0.000046
9.435	0.000045
9.440	0.000025
9.445	0.000011
9.450	0.000056
9.455	-0.000004
9.460	0.000021
9.465	0.000026
9.470	0.000001
9.475	0.000036
9.480	0.000001
9.485	0.000016
9.490	0.000012
9.495	0.000021
9.500	-0.000004
9.505	0.000021
9.510	0.000036
9.515	0.000012
9.520	0.000016
9.525	0.000007
9.530	0.000017
9.535	0.000027
9.540	0.000002
9.545	0.000017
9.550	0.000022
9.555	0.000032
9.560	-0.000008
9.565	0.000002
9.570	0.000022
9.575	0.000007
9.580	0.000002
9.585	0.000012
9.590	0.000017
9.595	0.000003
9.600	0.000007
9.605	0.000012
9.610	0.000027
9.615	0.000027
9.620	0.000022
9.625	0.000003
9.630	0.000027
9.635	0.000022
9.640	-0.000003
9.645	0.000017
9.650	0.000008
9.655	-0.000012
9.660	0.000007
9.665	-0.000017
9.670	0.000032
9.675	0.000013
9.680	-0.000002
9.685	0.000008
9.690	0.000018
9.695	0.000028
9.700	-0.000017
9.705	0.000018
9.710	0.000033
9.715	0.000008
9.720	-0.000032
9.725	0.000008
9.730	0.000023
9.735	0.000003
9.740	-0.000012
9.745	0.000003
9.750	0.000003
9.755	-0.000002
9.760	-0.000007
9.765	0.000018
9.770	0.000009
9.775	-0.000001
9.780	0.000003
9.785	0.000003
9.790	-0.000001
9.795	0.000023
9.800	-0.000002
9.805	0.000008
9.810	0.000019
9.815	0.000009
9.820	0.000013
9.825	-0.000001
9.830	0.000029
9.835	0.000009
9.840	0.000023
9.845	0.000004
9.850	0.000039
9.855	0.000024
9.860	0.000019
9.865	0.000014
9.870	0.000014
9.875	0.000019
9.880	-0.000001
9.885	-0.000001
9.890	0.000024
9.895	0.000039
9.900	0.000024
9.905	-0.000001
9.910	0.000029
9.915	0.000034
9.920	0.000024
9.925	-0.000001
9.930	0.000019
9.935	0.000014
9.940	0.000004
9.945	-0.000001
9.950	0.000034
9.955	0.000029
9.960	-0.000010
9.965	0.000005
9.970	0.000010
9.975	0.000020
9.980	-0.000020
9.985	0.000020
9.990	0.000025
9.995	0.000005
10.000	0.000010
10.005	0.000010
10.010	0.000020
10.015	0.000025
10.020	0.000005
10.025	0.000045
10.030	0.000010
10.035	0.000015
10.040	0.000020
10.045	0.000015
10.050	0.000000
10.055	0.000015
10.060	-0.000009
10.065	0.000025
10.070	0.000030
10.075	0.000006
10.080	0.000000
10.085	-0.000005
10.090	0.000011
10.095	0.000020
10.100	0.000020
10.105	0.000015
10.110	0.000016
10.115	0.000011
10.120	0.000010
10.125	0.000006
10.130	0.000026
10.135	0.000030
10.140	0.000005
10.145	0.000015
10.150	0.000006
10.155	0.000011
10.160	0.000010
10.165	0.000011
10.170	0.000026
10.175	-0.000009
10.180	0.000006
10.185	-0.000029
10.190	0.000026
10.195	0.000031
10.200	-0.000009
10.205	-0.000009
10.210	0.000001
10.215	0.000011
10.220	0.000001
10.225	0.000016
10.230	0.000031
10.235	0.000001
10.240	-0.000014
10.245	-0.000009
10.250	0.000006
10.255	0.000001
10.260	-0.000019
10.265	-0.000014
10.270	0.000031
10.275	0.000011
10.280	-0.000023
10.285	0.000001
10.290	0.000031
10.295	0.000007
10.300	0.000011
10.305	0.000001
10.310	0.000002
10.315	-0.000018
10.320	-0.000008
10.325	-0.000013
10.330	-0.000008
10.335	0.000017
10.340	-0.000018
10.345	0.000002
10.350	-0.000003
10.355	-0.000013
10.360	0.000017
10.365	-0.000013
10.370	-0.000003
10.375	-0.000013
10.380	-0.000007
10.385	0.000002
10.390	-0.000003
10.395	-0.000022
10.400	0.000003
10.405	0.000007
10.410	-0.000008
10.415	-0.000013
10.420	-0.000012
10.425	0.000012
10.430	-0.000008
10.435	-0.000007
10.440	0.000032
10.445	0.000003
10.450	-0.000007
10.455	-0.000002
10.460	0.000003
10.465	0.000003
10.470	0.000003
10.475	0.000008
10.480	-0.000002
10.485	-0.000012
10.490	-0.000017
10.495	0.000013
10.500	0.000053
10.505	0.000052
10.510	0.000022
10.515	-0.000012
10.520	0.000003
10.525	0.000032
10.530	-0.000008
10.535	-0.000082
10.540	-0.000051
10.545	-0.000031
10.550	-0.000007
10.555	0.000003
10.560	-0.000011
10.565	-0.000001
10.570	-0.000002
10.575	0.000018
10.580	0.000014
10.585	0.000004
10.590	-0.000026
10.595	0.000008
10.600	-0.000001
10.605	0.000004
10.610	0.000008
10.615	-0.000016
10.620	0.000019
10.625	0.000014
10.630	-0.000001
10.635	0.000009
10.640	0.000009
10.645	0.000004
10.650	0.000004
10.655	-0.000011
10.660	0.000009
10.665	0.000004
10.670	-0.000016
10.675	0.000019
10.680	-0.000010
10.685	0.000014
10.690	0.000014
10.695	-0.000001
10.700	0.000029
10.705	-0.000005
10.710	0.000004
10.715	-0.000005
10.720	0.000010
10.725	-0.000005
10.730	-0.000000
10.735	0.000029
10.740	0.000029
10.745	0.000010
10.750	0.000014
10.755	-0.000025
10.760	0.000005
10.765	0.000025
10.770	0.000005
10.775	-0.000020
10.780	0.000015
10.785	0.000025
10.790	0.000019
10.795	0.000020
10.800	0.000025
10.805	0.000005
10.810	-0.000000
10.815	-0.000015
10.820	0.000000
10.825	0.000005
10.830	-0.000000
10.835	0.000005
10.840	0.000005
10.845	0.000010
10.850	0.000005
10.855	0.000005
10.860	-0.000014
10.865	0.000030
10.870	0.000010
10.875	0.000000
10.880	0.000001
10.885	0.000020
10.890	0.000000
10.895	-0.000014
10.900	0.000026
10.905	-0.000004
10.910	-0.000004
10.915	0.000011
10.920	0.000001
10.925	0.000001
10.930	0.000001
10.935	-0.000004
10.940	-0.000009
10.945	-0.000009
10.950	-0.000009
10.955	0.000011
10.960	0.000001
10.965	0.000021
10.970	-0.000009
10.975	0.000006
10.980	0.000021
10.985	0.000001
10.990	-0.000019
10.995	0.000026
11.000	0.000002
11.005	0.000016
11.010	0.000021
11.015	0.000011
11.020	-0.000003
11.025	-0.000013
11.030	0.000006
11.035	-0.000003
11.040	0.000027
11.045	0.000012
11.050	-0.000003
11.055	0.000017
11.060	0.000002
11.065	-0.000008
11.070	0.000017
11.075	0.000022
11.080	0.000002
11.085	-0.000003
11.090	0.000007
11.095	0.000002
11.100	0.000007
11.105	0.000027
11.110	-0.000008
11.115	0.000007
11.120	0.000022
11.125	0.000002
11.130	0.000017
11.135	0.000022
11.140	0.000012
11.145	0.000017
11.150	0.000012
11.155	0.000007
11.160	0.000022
11.165	0.000012
11.170	0.000002
11.175	-0.000003
11.180	0.000013
11.185	0.000003
11.190	-0.000027
11.195	-0.000003
11.200	0.000008
11.205	0.000008
11.210	-0.000002
11.215	-0.000002
11.220	-0.000002
11.225	0.000008
11.230	0.000003
11.235	0.000013
11.240	0.000013
11.245	0.000008
11.250	0.000003
11.255	0.000018
11.260	-0.000002
11.265	0.000003
11.270	0.000003
11.275	0.000003
11.280	-0.000012
11.285	-0.000006
11.290	0.000023
11.295	0.000018
11.300	0.000013
11.305	0.000023
11.310	-0.000021
11.315	0.000003
11.320	0.000087
11.325	-0.000032
11.330	-0.000016
11.335	0.000009
11.340	0.000048
11.345	-0.000006
11.350	0.000009
11.355	0.000009
11.360	-0.000006
11.365	0.000014
11.370	0.000019
11.375	0.000029
11.380	-0.000006
11.385	0.000014
11.390	0.000019
11.395	0.000034
11.400	0.000009
11.405	0.000004
11.410	0.000009
11.415	0.000019
11.420	0.000004
11.425	-0.000006
11.430	0.000009
11.435	-0.000011
11.440	-0.000016
11.445	-0.000001
11.450	0.000014
11.455	-0.000000
11.460	-0.000011
11.465	0.000009
11.470	-0.000000
11.475	0.000015
11.480	-0.000010
11.485	0.000005
11.490	-0.000000
11.495	0.000010
11.500	0.000009
11.505	0.000010
11.510	0.000025
11.515	0.000015
11.520	-0.000020
11.525	-0.000005
11.530	0.000005
11.535	-0.000000
11.540	-0.000015
11.545	-0.000015
11.550	0.000015
11.555	-0.000020
11.560	-0.000015
11.565	-0.000015
11.570	0.000020
11.575	-0.000005
11.580	-0.000040
11.585	-0.000010
11.590	-0.000004
11.595	-0.000004
11.600	0.000000
11.605	-0.000015
11.610	0.000025
11.615	0.000016
11.620	0.000005
11.625	-0.000014
11.630	0.000011
11.635	-0.000014
11.640	0.000010
11.645	0.000000
11.650	0.000006
11.655	0.000001
11.660	-0.000029
11.665	0.000005
11.670	0.000011
11.675	-0.000004
11.680	-0.000014
11.685	-0.000024
11.690	0.000001
11.695	-0.000009
11.700	0.000001
11.705	-0.000009
11.710	-0.000014
11.715	-0.000019
11.720	-0.000004
11.725	-0.000009
11.730	0.000001
11.735	-0.000018
11.740	-0.000034
11.745	-0.000004
11.750	0.000001
11.755	-0.000014
11.760	-0.000004
11.765	-0.000009
11.770	0.000002
11.775	-0.000003
11.780	-0.000019
11.785	-0.000009
11.790	0.000016
11.795	0.000006
11.800	-0.000014
11.805	-0.000014
11.810	0.000001
11.815	0.000001
11.820	-0.000004
11.825	-0.000009
11.830	0.000012
11.835	-0.000008
11.840	0.000026
11.845	-0.000003
11.850	-0.000018
11.855	0.000012
11.860	-0.000033
11.865	-0.000008
11.870	-0.000003
11.875	0.000007
11.880	-0.000028
11.885	-0.000033
11.890	0.000002
11.895	-0.000018
11.900	0.000002
11.905	0.000006
11.910	0.000007
11.915	0.000007
11.920	-0.000063
11.925	-0.000048
11.930	-0.000032
11.935	-0.000012
11.940	-0.000013
11.945	-0.000013
11.950	-0.000002
11.955	0.000012
11.960	0.000002
11.965	-0.000012
11.970	0.000008
11.975	0.000013
11.980	-0.000012
11.985	-0.000002
11.990	0.000013
11.995	0.000028
12.000	0.000003
12.005	0.000003
12.010	0.000003
12.015	-0.000002
12.020	0.000003
12.025	0.000003
12.030	-0.000032
12.035	-0.000027
12.040	-0.000002
12.045	0.000008
12.050	0.000003
12.055	-0.000032
12.060	0.000003
12.065	-0.000011
12.070	0.000003
12.075	0.000003
12.080	-0.000001
12.085	0.000018
12.090	0.000008
12.095	-0.000006
12.100	0.000018
12.105	-0.000021
12.110	-0.000006
12.115	0.000009
12.120	-0.000006
12.125	0.000004
12.130	-0.000011
12.135	-0.000006
12.140	0.000004
12.145	-0.000016
12.150	-0.000016
12.155	-0.000021
12.160	-0.000001
12.165	-0.000001
12.170	-0.000021
12.175	0.000004
12.180	-0.000001
12.185	-0.000016
12.190	-0.000001
12.195	-0.000001
12.200	-0.000001
12.205	-0.000001
12.210	-0.000011
12.215	-0.000001
12.220	-0.000001
12.225	0.000019
12.230	-0.000011
12.235	-0.000010
12.240	0.000009
12.245	0.000014
12.250	0.000004
12.255	-0.000015
12.260	-0.000010
12.265	-0.000000
12.270	-0.000040
12.275	-0.000006
12.280	0.000020
12.285	-0.000000
12.290	-0.000000
12.295	-0.000000
12.300	0.000015
12.305	-0.000020
12.310	-0.000000
12.315	-0.000005
12.320	0.000015
12.325	0.000000
12.330	0.000005
12.335	0.000000
12.340	0.000000
12.345	-0.000005
12.350	0.000010
12.355	0.000020
12.360	0.000000
12.365	0.000000
12.370	0.000000
12.375	-0.000019
12.380	-0.000005
12.385	-0.000015
12.390	0.000010
12.395	0.000010
12.400	0.000000
12.405	-0.000014
12.410	0.000001
12.415	0.000001
12.420	0.000006
12.425	-0.000004
12.430	0.000010
12.435	0.000016
12.440	0.000016
12.445	0.000001
12.450	-0.000014
12.455	-0.000004
12.460	0.000011
12.465	-0.000004
12.470	0.000001
12.475	-0.000004
12.480	0.000001
12.485	-0.000029
12.490	-0.000018
12.495	-0.000014
12.500	-0.000029
12.505	-0.000019
12.510	-0.000009
12.515	0.000001
12.520	-0.000029
12.525	-0.000019
12.530	-0.000014
12.535	-0.000033
12.540	-0.000029
12.545	-0.000019
12.550	-0.000014
12.555	-0.000019
12.560	-0.000004
12.565	-0.000019
12.570	-0.000019
12.575	-0.000004
12.580	-0.000014
12.585	-0.000009
12.590	-0.000009
12.595	-0.000004
12.600	-0.000004
12.605	0.000011
12.610	-0.000019
12.615	-0.000028
12.620	-0.000013
12.625	-0.000003
12.630	-0.000028
12.635	-0.000013
12.640	0.000017
12.645	-0.000003
12.650	-0.000023
12.655	-0.000008
12.660	-0.000013
12.665	0.000002
12.670	-0.000008
12.675	-0.000013
12.680	-0.000007
12.685	0.000007
12.690	0.000002
12.695	-0.000003
12.700	-0.000022
12.705	0.000002
12.710	-0.000008
12.715	0.000012
12.720	0.000012
12.725	-0.000003
12.730	0.000002
12.735	-0.000007
12.740	-0.000003
12.745	0.000017
12.750	-0.000017
12.755	-0.000017
12.760	-0.000028
12.765	-0.000022
12.770	-0.000002
12.775	-0.000017
12.780	-0.000013
12.785	-0.000022
12.790	0.000003
12.795	0.000003
12.800	-0.000022
12.805	-0.000007
12.810	0.000018
12.815	-0.000007
12.820	-0.000002
12.825	-0.000007
12.830	-0.000007
12.835	0.000003
12.840	-0.000022
12.845	-0.000022
12.850	0.000003
12.855	-0.000017
12.860	-0.000002
12.865	-0.000017
12.870	0.000003
12.875	-0.000007
12.880	-0.000027
12.885	-0.000032
12.890	-0.000011
12.895	-0.000007
12.900	-0.000017
12.905	-0.000022
12.910	0.000008
12.915	0.000004
12.920	-0.000012
12.925	-0.000031
12.930	-0.000011
12.935	-0.000006
12.940	-0.000021
12.945	-0.000007
12.950	-0.000001
12.955	-0.000011
12.960	-0.000021
12.965	-0.000021
12.970	-0.000006
12.975	-0.000025
12.980	-0.000011
12.985	-0.000016
12.990	-0.000001
12.995	-0.000011
13.000	-0.000026
13.005	-0.000031
13.010	-0.000025
13.015	0.000009
13.020	0.000009
13.025	-0.000026
13.030	-0.000001
13.035	-0.000016
13.040	-0.000046
13.045	-0.000026
13.050	-0.000010
13.055	-0.000005
13.060	-0.000011
13.065	-0.000001
13.070	0.000020
13.075	-0.000015
13.080	-0.000025
13.085	-0.000001
13.090	0.000000
13.095	-0.000005
13.100	-0.000010
13.105	-0.000040
13.110	0.000010
13.115	0.000030
13.120	-0.000020
13.125	-0.000025
13.130	0.000020
13.135	-0.000015
13.140	-0.000015
13.145	-0.000010
13.150	-0.000009
13.155	-0.000019
13.160	-0.000064
13.165	-0.000005
13.170	-0.000014
13.175	-0.000004
13.180	-0.000010
13.185	-0.000005
13.190	-0.000014
13.195	-0.000004
13.200	-0.000015
13.205	-0.000020
13.210	0.000006
13.215	0.000001
13.220	-0.000005
13.225	-0.000004
13.230	-0.000004
13.235	-0.000004
13.240	-0.000014
13.245	-0.000029
13.250	-0.000009
13.255	0.000011
13.260	-0.000014
13.265	-0.000004
13.270	0.000006
13.275	0.000001
13.280	0.000001
13.285	-0.000024
13.290	0.000001
13.295	-0.000019
13.300	0.000001
13.305	-0.000023
13.310	0.000001
13.315	-0.000014
13.320	0.000002
13.325	-0.000013
13.330	-0.000033
13.335	-0.000004
13.340	-0.000013
13.345	-0.000028
13.350	-0.000004
13.355	-0.000004
13.360	0.000002
13.365	-0.000008
13.370	0.000002
13.375	0.000017
13.380	-0.000003
13.385	-0.000003
13.390	0.000002
13.395	-0.000003
13.400	0.000002
13.405	-0.000013
13.410	0.000006
13.415	-0.000008
13.420	0.000002
13.425	0.000012
13.430	-0.000008
13.435	-0.000028
13.440	-0.000008
13.445	0.000007
13.450	-0.000028
13.455	-0.000028
13.460	-0.000003
13.465	-0.000027
13.470	-0.000013
13.475	-0.000013
13.480	0.000002
13.485	-0.000008
13.490	-0.000008
13.495	-0.000013
13.500	0.000002
13.505	-0.000017
13.510	-0.000023
13.515	-0.000028
13.520	-0.000012
13.525	0.000003
13.530	-0.000028
13.535	-0.000018
13.540	-0.000027
13.545	-0.000002
13.550	-0.000028
13.555	-0.000037
13.560	-0.000032
13.565	-0.000017
13.570	-0.000017
13.575	-0.000003
13.580	-0.000017
13.585	-0.000007
13.590	-0.000022
13.595	-0.000037
13.600	-0.000022
13.605	-0.000022
13.610	-0.000017
13.615	-0.000007
13.620	0.000003
13.625	-0.000017
13.630	-0.000017
13.635	-0.000017
13.640	-0.000017
13.645	-0.000017
13.650	-0.000027
13.655	-0.000022
13.660	-0.000026
13.665	-0.000031
13.670	-0.000027
13.675	-0.000027
13.680	-0.000001
13.685	-0.000006
13.690	-0.000032
13.695	-0.000031
13.700	-0.000016
13.705	-0.000012
