PK2650 Deflection Data
Z Position (mm)	50.000	W Position (deg)	0.00
Preform ID	Diameter (mm)	Time Stamp	Start Time	Operator	Serial Number
test	18	22-Mar-23 22:58:02	22-Mar-23 23:02:53	[no user]	56941311
Radius (mm)	Deflection
-13.670	0.000002
-13.665	0.000012
-13.660	0.000007
-13.655	0.000012
-13.650	0.000042
-13.645	0.000022
-13.640	0.000012
-13.635	0.000022
-13.630	0.000018
-13.625	0.000018
-13.620	-0.000007
-13.615	0.000037
-13.610	0.000038
-13.605	0.000033
-13.600	0.000008
-13.595	0.000008
-13.590	0.000028
-13.585	0.000018
-13.580	0.000013
-13.575	0.000023
-13.570	0.000023
-13.565	0.000018
-13.560	0.000018
-13.555	0.000023
-13.550	0.000028
-13.545	0.000018
-13.540	0.000003
-13.535	0.000028
-13.530	-0.000002
-13.525	0.000013
-13.520	0.000018
-13.515	0.000008
-13.510	0.000033
-13.505	0.000038
-13.500	0.000043
-13.495	-0.000001
-13.490	0.000023
-13.485	0.000004
-13.480	0.000009
-13.475	0.000053
-13.470	0.000028
-13.465	0.000009
-13.460	0.000034
-13.455	0.000024
-13.450	0.000028
-13.445	0.000024
-13.440	0.000014
-13.435	0.000019
-13.430	0.000019
-13.425	-0.000001
-13.420	0.000029
-13.415	0.000014
-13.410	0.000019
-13.405	0.000004
-13.400	0.000014
-13.395	0.000024
-13.390	0.000009
-13.385	-0.000001
-13.380	0.000009
-13.375	0.000024
-13.370	0.000024
-13.365	0.000009
-13.360	0.000014
-13.355	-0.000011
-13.350	0.000004
-13.345	0.000014
-13.340	-0.000001
-13.335	0.000009
-13.330	0.000004
-13.325	0.000014
-13.320	0.000029
-13.315	0.000004
-13.310	0.000024
-13.305	0.000014
-13.300	0.000024
-13.295	0.000029
-13.290	0.000024
-13.285	0.000014
-13.280	-0.000000
-13.275	0.000010
-13.270	0.000010
-13.265	-0.000005
-13.260	0.000020
-13.255	0.000005
-13.250	-0.000015
-13.245	-0.000025
-13.240	0.000015
-13.235	0.000015
-13.230	0.000010
-13.225	-0.000015
-13.220	0.000005
-13.215	-0.000010
-13.210	-0.000025
-13.205	-0.000030
-13.200	0.000020
-13.195	0.000020
-13.190	-0.000000
-13.185	-0.000000
-13.180	0.000015
-13.175	0.000015
-13.170	-0.000020
-13.165	-0.000015
-13.160	-0.000015
-13.155	-0.000010
-13.150	0.000015
-13.145	-0.000030
-13.140	-0.000005
-13.135	0.000010
-13.130	-0.000005
-13.125	-0.000010
-13.120	-0.000034
-13.115	-0.000010
-13.110	-0.000010
-13.105	-0.000040
-13.100	-0.000005
-13.095	-0.000024
-13.090	-0.000005
-13.085	-0.000010
-13.080	-0.000005
-13.075	0.000005
-13.070	-0.000010
-13.065	-0.000009
-13.060	-0.000014
-13.055	0.000006
-13.050	-0.000004
-13.045	0.000001
-13.040	0.000016
-13.035	0.000001
-13.030	-0.000009
-13.025	0.000021
-13.020	-0.000004
-13.015	-0.000009
-13.010	-0.000029
-13.005	0.000001
-13.000	0.000021
-12.995	-0.000014
-12.990	0.000001
-12.985	0.000001
-12.980	0.000016
-12.975	0.000006
-12.970	-0.000004
-12.965	0.000001
-12.960	-0.000019
-12.955	0.000001
-12.950	0.000026
-12.945	-0.000014
-12.940	0.000011
-12.935	-0.000023
-12.930	0.000006
-12.925	-0.000014
-12.920	0.000006
-12.915	0.000006
-12.910	-0.000019
-12.905	0.000011
-12.900	-0.000004
-12.895	-0.000018
-12.890	-0.000009
-12.885	-0.000018
-12.880	-0.000018
-12.875	0.000007
-12.870	-0.000013
-12.865	0.000012
-12.860	-0.000003
-12.855	0.000002
-12.850	0.000012
-12.845	0.000002
-12.840	-0.000003
-12.835	-0.000008
-12.830	-0.000008
-12.825	0.000002
-12.820	-0.000013
-12.815	-0.000013
-12.810	-0.000018
-12.805	0.000002
-12.800	-0.000013
-12.795	-0.000038
-12.790	-0.000018
-12.785	-0.000013
-12.780	-0.000013
-12.775	-0.000013
-12.770	-0.000013
-12.765	-0.000018
-12.760	-0.000028
-12.755	-0.000028
-12.750	-0.000013
-12.745	-0.000008
-12.740	-0.000038
-12.735	-0.000028
-12.730	-0.000013
-12.725	-0.000013
-12.720	-0.000033
-12.715	0.000012
-12.710	0.000111
-12.705	0.000171
-12.700	0.000146
-12.695	0.000161
-12.690	0.000156
-12.685	0.000186
-12.680	0.000200
-12.675	0.000200
-12.670	0.000166
-12.665	0.000171
-12.660	0.000156
-12.655	0.000146
-12.650	0.000131
-12.645	0.000136
-12.640	0.000156
-12.635	0.000121
-12.630	0.000101
-12.625	0.000086
-12.620	0.000077
-12.615	0.000072
-12.610	0.000032
-12.605	0.000027
-12.600	0.000017
-12.595	-0.000017
-12.590	-0.000037
-12.585	-0.000037
-12.580	-0.000132
-12.575	-0.000116
-12.570	-0.000052
-12.565	-0.000047
-12.560	-0.000052
-12.555	-0.000007
-12.550	-0.000007
-12.545	-0.000017
-12.540	-0.000027
-12.535	0.000013
-12.530	-0.000022
-12.525	-0.000002
-12.520	-0.000002
-12.515	-0.000032
-12.510	-0.000012
-12.505	-0.000031
-12.500	-0.000032
-12.495	-0.000022
-12.490	-0.000026
-12.485	0.000003
-12.480	0.000008
-12.475	-0.000012
-12.470	-0.000021
-12.465	0.000003
-12.460	0.000003
-12.455	-0.000016
-12.450	-0.000006
-12.445	-0.000011
-12.440	-0.000021
-12.435	-0.000021
-12.430	-0.000031
-12.425	-0.000016
-12.420	-0.000041
-12.415	-0.000016
-12.410	-0.000006
-12.405	-0.000031
-12.400	-0.000021
-12.395	-0.000016
-12.390	-0.000011
-12.385	-0.000016
-12.380	-0.000021
-12.375	-0.000031
-12.370	0.000019
-12.365	-0.000026
-12.360	-0.000026
-12.355	-0.000016
-12.350	-0.000016
-12.345	-0.000021
-12.340	-0.000021
-12.335	-0.000016
-12.330	-0.000016
-12.325	-0.000016
-12.320	-0.000026
-12.315	-0.000011
-12.310	-0.000006
-12.305	-0.000036
-12.300	-0.000046
-12.295	-0.000001
-12.290	-0.000016
-12.285	-0.000020
-12.280	-0.000021
-12.275	-0.000016
-12.270	-0.000015
-12.265	-0.000005
-12.260	-0.000025
-12.255	-0.000025
-12.250	-0.000005
-12.245	-0.000010
-12.240	-0.000021
-12.235	-0.000035
-12.230	-0.000015
-12.225	-0.000005
-12.220	-0.000025
-12.215	-0.000030
-12.210	-0.000040
-12.205	-0.000020
-12.200	-0.000050
-12.195	-0.000015
-12.190	-0.000010
-12.185	0.000010
-12.180	-0.000011
-12.175	-0.000040
-12.170	-0.000005
-12.165	-0.000015
-12.160	-0.000025
-12.155	-0.000025
-12.150	-0.000010
-12.145	-0.000000
-12.140	-0.000015
-12.135	-0.000005
-12.130	-0.000020
-12.125	-0.000005
-12.120	-0.000030
-12.115	-0.000045
-12.110	-0.000015
-12.105	-0.000005
-12.100	-0.000035
-12.095	-0.000040
-12.090	-0.000020
-12.085	-0.000020
-12.080	-0.000035
-12.075	-0.000020
-12.070	-0.000020
-12.065	-0.000030
-12.060	-0.000040
-12.055	-0.000025
-12.050	-0.000015
-12.045	-0.000015
-12.040	-0.000035
-12.035	-0.000025
-12.030	0.000000
-12.025	-0.000010
-12.020	-0.000030
-12.015	-0.000020
-12.010	-0.000020
-12.005	-0.000015
-12.000	-0.000025
-11.995	-0.000025
-11.990	-0.000020
-11.985	-0.000020
-11.980	0.000000
-11.975	-0.000044
-11.970	-0.000024
-11.965	-0.000024
-11.960	-0.000024
-11.955	-0.000014
-11.950	-0.000009
-11.945	-0.000039
-11.940	-0.000019
-11.935	-0.000024
-11.930	-0.000014
-11.925	-0.000024
-11.920	-0.000024
-11.915	-0.000034
-11.910	-0.000004
-11.905	-0.000019
-11.900	-0.000024
-11.895	-0.000029
-11.890	-0.000019
-11.885	-0.000014
-11.880	-0.000034
-11.875	-0.000019
-11.870	-0.000014
-11.865	-0.000019
-11.860	-0.000034
-11.855	-0.000009
-11.850	-0.000014
-11.845	0.000001
-11.840	-0.000029
-11.835	-0.000049
-11.830	-0.000019
-11.825	0.000001
-11.820	-0.000039
-11.815	-0.000019
-11.810	-0.000024
-11.805	-0.000024
-11.800	-0.000004
-11.795	-0.000014
-11.790	0.000026
-11.785	-0.000004
-11.780	-0.000024
-11.775	-0.000018
-11.770	-0.000028
-11.765	-0.000008
-11.760	-0.000014
-11.755	-0.000013
-11.750	-0.000023
-11.745	-0.000018
-11.740	-0.000028
-11.735	-0.000004
-11.730	-0.000018
-11.725	-0.000018
-11.720	-0.000038
-11.715	-0.000013
-11.710	-0.000023
-11.705	-0.000023
-11.700	-0.000018
-11.695	0.000002
-11.690	-0.000013
-11.685	-0.000008
-11.680	-0.000008
-11.675	0.000007
-11.670	-0.000008
-11.665	-0.000008
-11.660	-0.000023
-11.655	0.000007
-11.650	-0.000003
-11.645	-0.000017
-11.640	-0.000008
-11.635	0.000012
-11.630	-0.000003
-11.625	-0.000008
-11.620	-0.000008
-11.615	0.000012
-11.610	-0.000012
-11.605	-0.000017
-11.600	-0.000022
-11.595	-0.000037
-11.590	-0.000002
-11.585	0.000003
-11.580	-0.000007
-11.575	-0.000007
-11.570	-0.000007
-11.565	0.000003
-11.560	-0.000007
-11.555	-0.000002
-11.550	-0.000027
-11.545	-0.000027
-11.540	-0.000022
-11.535	-0.000022
-11.530	-0.000017
-11.525	-0.000037
-11.520	-0.000002
-11.515	-0.000017
-11.510	0.000002
-11.505	-0.000032
-11.500	-0.000027
-11.495	-0.000037
-11.490	-0.000032
-11.485	-0.000007
-11.480	-0.000017
-11.475	-0.000027
-11.470	-0.000037
-11.465	-0.000017
-11.460	0.000008
-11.455	-0.000032
-11.450	-0.000017
-11.445	-0.000032
-11.440	-0.000042
-11.435	-0.000022
-11.430	-0.000017
-11.425	-0.000012
-11.420	-0.000027
-11.415	-0.000037
-11.410	-0.000032
-11.405	-0.000037
-11.400	-0.000032
-11.395	-0.000027
-11.390	-0.000027
-11.385	-0.000042
-11.380	-0.000042
-11.375	-0.000027
-11.370	-0.000037
-11.365	-0.000012
-11.360	-0.000012
-11.355	0.000003
-11.350	-0.000007
-11.345	-0.000002
-11.340	-0.000012
-11.335	-0.000027
-11.330	-0.000012
-11.325	-0.000022
-11.320	-0.000037
-11.315	0.000013
-11.310	-0.000007
-11.305	0.000003
-11.300	-0.000037
-11.295	-0.000022
-11.290	-0.000031
-11.285	-0.000022
-11.280	-0.000002
-11.275	-0.000022
-11.270	-0.000026
-11.265	-0.000017
-11.260	0.000003
-11.255	-0.000021
-11.250	-0.000011
-11.245	-0.000026
-11.240	-0.000021
-11.235	-0.000011
-11.230	-0.000026
-11.225	-0.000011
-11.220	-0.000031
-11.215	-0.000001
-11.210	-0.000021
-11.205	-0.000036
-11.200	-0.000026
-11.195	-0.000021
-11.190	-0.000016
-11.185	-0.000016
-11.180	-0.000016
-11.175	-0.000026
-11.170	-0.000006
-11.165	-0.000036
-11.160	-0.000016
-11.155	-0.000036
-11.150	-0.000006
-11.145	-0.000021
-11.140	-0.000026
-11.135	-0.000031
-11.130	-0.000016
-11.125	-0.000021
-11.120	-0.000001
-11.115	-0.000056
-11.110	-0.000011
-11.105	-0.000016
-11.100	-0.000031
-11.095	-0.000026
-11.090	-0.000026
-11.085	-0.000016
-11.080	-0.000041
-11.075	-0.000016
-11.070	-0.000026
-11.065	-0.000006
-11.060	-0.000021
-11.055	-0.000021
-11.050	-0.000005
-11.045	-0.000020
-11.040	-0.000021
-11.035	-0.000006
-11.030	-0.000010
-11.025	-0.000015
-11.020	-0.000035
-11.015	-0.000015
-11.010	0.000015
-11.005	0.000015
-11.000	-0.000005
-10.995	-0.000000
-10.990	0.000010
-10.985	0.000005
-10.980	-0.000000
-10.975	0.000015
-10.970	0.000010
-10.965	0.000005
-10.960	0.000010
-10.955	0.000010
-10.950	0.000010
-10.945	0.000005
-10.940	-0.000020
-10.935	-0.000015
-10.930	0.000005
-10.925	0.000015
-10.920	0.000005
-10.915	0.000000
-10.910	0.000020
-10.905	0.000010
-10.900	-0.000015
-10.895	0.000005
-10.890	-0.000004
-10.885	0.000010
-10.880	-0.000009
-10.875	0.000006
-10.870	0.000016
-10.865	-0.000004
-10.860	-0.000004
-10.855	-0.000009
-10.850	0.000006
-10.845	0.000021
-10.840	0.000001
-10.835	0.000011
-10.830	0.000021
-10.825	0.000006
-10.820	-0.000014
-10.815	0.000016
-10.810	0.000001
-10.805	0.000031
-10.800	0.000016
-10.795	0.000006
-10.790	0.000006
-10.785	0.000001
-10.780	0.000031
-10.775	0.000026
-10.770	0.000006
-10.765	0.000016
-10.760	0.000021
-10.755	0.000026
-10.750	0.000011
-10.745	0.000006
-10.740	0.000011
-10.735	0.000026
-10.730	0.000031
-10.725	0.000011
-10.720	0.000012
-10.715	0.000016
-10.710	0.000016
-10.705	0.000011
-10.700	0.000026
-10.695	-0.000013
-10.690	0.000011
-10.685	-0.000003
-10.680	0.000032
-10.675	0.000021
-10.670	0.000011
-10.665	-0.000003
-10.660	0.000027
-10.655	0.000027
-10.650	-0.000003
-10.645	0.000007
-10.640	0.000012
-10.635	0.000012
-10.630	0.000027
-10.625	0.000007
-10.620	0.000002
-10.615	0.000012
-10.610	0.000027
-10.605	0.000017
-10.600	0.000007
-10.595	0.000017
-10.590	0.000002
-10.585	0.000007
-10.580	0.000042
-10.575	0.000002
-10.570	0.000012
-10.565	0.000037
-10.560	-0.000003
-10.555	0.000032
-10.550	0.000012
-10.545	0.000017
-10.540	0.000002
-10.535	0.000007
-10.530	0.000007
-10.525	0.000012
-10.520	0.000002
-10.515	0.000032
-10.510	0.000012
-10.505	0.000012
-10.500	0.000008
-10.495	0.000013
-10.490	-0.000012
-10.485	0.000008
-10.480	0.000017
-10.475	0.000022
-10.470	0.000013
-10.465	0.000023
-10.460	-0.000017
-10.455	0.000023
-10.450	0.000018
-10.445	0.000023
-10.440	0.000018
-10.435	0.000023
-10.430	0.000018
-10.425	0.000038
-10.420	0.000013
-10.415	0.000013
-10.410	0.000003
-10.405	0.000003
-10.400	0.000008
-10.395	0.000003
-10.390	0.000008
-10.385	0.000028
-10.380	-0.000002
-10.375	0.000043
-10.370	0.000018
-10.365	0.000033
-10.360	0.000028
-10.355	0.000013
-10.350	0.000008
-10.345	0.000023
-10.340	0.000013
-10.335	0.000033
-10.330	0.000028
-10.325	0.000033
-10.320	0.000008
-10.315	0.000018
-10.310	0.000023
-10.305	0.000038
-10.300	0.000013
-10.295	0.000023
-10.290	0.000013
-10.285	0.000018
-10.280	-0.000011
-10.275	0.000033
-10.270	0.000003
-10.265	0.000014
-10.260	0.000014
-10.255	0.000014
-10.250	0.000043
-10.245	0.000028
-10.240	0.000033
-10.235	0.000029
-10.230	0.000023
-10.225	0.000009
-10.220	0.000019
-10.215	0.000024
-10.210	0.000009
-10.205	0.000024
-10.200	0.000014
-10.195	0.000024
-10.190	0.000019
-10.185	0.000009
-10.180	0.000004
-10.175	0.000014
-10.170	0.000029
-10.165	0.000019
-10.160	0.000014
-10.155	-0.000006
-10.150	0.000009
-10.145	0.000014
-10.140	-0.000011
-10.135	0.000019
-10.130	-0.000001
-10.125	0.000019
-10.120	0.000004
-10.115	-0.000006
-10.110	0.000024
-10.105	0.000019
-10.100	0.000029
-10.095	-0.000001
-10.090	0.000019
-10.085	0.000004
-10.080	0.000034
-10.075	0.000004
-10.070	0.000014
-10.065	0.000010
-10.060	0.000004
-10.055	0.000014
-10.050	0.000039
-10.045	0.000015
-10.040	0.000019
-10.035	0.000024
-10.030	0.000029
-10.025	0.000020
-10.020	0.000010
-10.015	0.000025
-10.010	0.000035
-10.005	0.000025
-10.000	0.000010
-9.995	0.000015
-9.990	0.000020
-9.985	0.000015
-9.980	0.000030
-9.975	0.000060
-9.970	0.000015
-9.965	0.000015
-9.960	0.000025
-9.955	0.000020
-9.950	0.000020
-9.945	0.000010
-9.940	0.000025
-9.935	0.000015
-9.930	-0.000010
-9.925	0.000005
-9.920	0.000040
-9.915	0.000005
-9.910	0.000005
-9.905	0.000030
-9.900	0.000005
-9.895	0.000020
-9.890	0.000025
-9.885	0.000000
-9.880	0.000010
-9.875	0.000020
-9.870	0.000030
-9.865	-0.000005
-9.860	0.000005
-9.855	0.000005
-9.850	0.000005
-9.845	0.000020
-9.840	0.000010
-9.835	0.000020
-9.830	0.000005
-9.825	0.000005
-9.820	0.000025
-9.815	0.000000
-9.810	-0.000005
-9.805	0.000025
-9.800	-0.000014
-9.795	-0.000004
-9.790	-0.000010
-9.785	0.000005
-9.780	0.000001
-9.775	0.000011
-9.770	0.000000
-9.765	0.000020
-9.760	0.000011
-9.755	0.000016
-9.750	-0.000009
-9.745	-0.000004
-9.740	-0.000004
-9.735	-0.000004
-9.730	-0.000004
-9.725	0.000026
-9.720	-0.000004
-9.715	0.000016
-9.710	0.000006
-9.705	-0.000009
-9.700	-0.000004
-9.695	0.000021
-9.690	0.000016
-9.685	-0.000014
-9.680	0.000001
-9.675	-0.000014
-9.670	0.000026
-9.665	0.000001
-9.660	0.000006
-9.655	0.000016
-9.650	0.000016
-9.645	0.000001
-9.640	0.000006
-9.635	0.000006
-9.630	0.000016
-9.625	0.000001
-9.620	0.000006
-9.615	0.000001
-9.610	0.000006
-9.605	0.000016
-9.600	-0.000004
-9.595	0.000006
-9.590	0.000022
-9.585	0.000007
-9.580	-0.000003
-9.575	0.000022
-9.570	0.000012
-9.565	0.000022
-9.560	-0.000013
-9.555	0.000022
-9.550	-0.000003
-9.545	0.000002
-9.540	-0.000023
-9.535	-0.000003
-9.530	0.000032
-9.525	0.000032
-9.520	0.000012
-9.515	0.000022
-9.510	0.000042
-9.505	-0.000002
-9.500	-0.000007
-9.495	0.000002
-9.490	0.000032
-9.485	0.000022
-9.480	0.000017
-9.475	0.000028
-9.470	0.000003
-9.465	0.000008
-9.460	0.000028
-9.455	0.000032
-9.450	-0.000008
-9.445	0.000002
-9.440	0.000022
-9.435	0.000003
-9.430	0.000002
-9.425	0.000022
-9.420	0.000017
-9.415	0.000022
-9.410	0.000003
-9.405	0.000003
-9.400	-0.000007
-9.395	-0.000017
-9.390	0.000008
-9.385	0.000008
-9.380	-0.000002
-9.375	0.000008
-9.370	-0.000002
-9.365	0.000013
-9.360	0.000013
-9.355	0.000013
-9.350	0.000008
-9.345	0.000008
-9.340	-0.000017
-9.335	0.000003
-9.330	0.000018
-9.325	0.000018
-9.320	-0.000012
-9.315	-0.000007
-9.310	-0.000007
-9.305	0.000013
-9.300	0.000013
-9.295	0.000013
-9.290	0.000014
-9.285	0.000008
-9.280	-0.000017
-9.275	0.000013
-9.270	0.000019
-9.265	0.000009
-9.260	-0.000002
-9.255	0.000008
-9.250	0.000009
-9.245	0.000009
-9.240	-0.000012
-9.235	-0.000006
-9.230	-0.000011
-9.225	0.000009
-9.220	0.000018
-9.215	-0.000016
-9.210	-0.000001
-9.205	0.000019
-9.200	-0.000011
-9.195	-0.000011
-9.190	0.000009
-9.185	0.000009
-9.180	-0.000001
-9.175	-0.000016
-9.170	-0.000001
-9.165	-0.000016
-9.160	0.000009
-9.155	0.000019
-9.150	0.000009
-9.145	-0.000006
-9.140	0.000004
-9.135	0.000014
-9.130	-0.000006
-9.125	-0.000006
-9.120	-0.000011
-9.115	-0.000011
-9.110	-0.000006
-9.105	-0.000016
-9.100	-0.000006
-9.095	-0.000001
-9.090	-0.000031
-9.085	-0.000001
-9.080	-0.000020
-9.075	-0.000035
-9.070	-0.000016
-9.065	-0.000021
-9.060	-0.000015
-9.055	-0.000025
-9.050	-0.000020
-9.045	-0.000040
-9.040	-0.000025
-9.035	-0.000005
-9.030	-0.000015
-9.025	-0.000020
-9.020	-0.000005
-9.015	-0.000015
-9.010	-0.000020
-9.005	-0.000010
-9.000	-0.000005
-8.995	-0.000040
-8.990	-0.000005
-8.985	-0.000030
-8.980	-0.000005
-8.975	-0.000015
-8.970	0.000005
-8.965	-0.000010
-8.960	0.000005
-8.955	0.000005
-8.950	-0.000025
-8.945	-0.000015
-8.940	-0.000020
-8.935	-0.000020
-8.930	-0.000020
-8.925	-0.000020
-8.920	0.000001
-8.915	-0.000024
-8.910	-0.000044
-8.905	-0.000005
-8.900	-0.000004
-8.895	0.000001
-8.890	-0.000039
-8.885	-0.000034
-8.880	-0.000029
-8.875	-0.000024
-8.870	-0.000034
-8.865	-0.000024
-8.860	-0.000009
-8.855	-0.000024
-8.850	-0.000054
-8.845	-0.000039
-8.840	-0.000014
-8.835	-0.000024
-8.830	-0.000024
-8.825	-0.000029
-8.820	-0.000029
-8.815	-0.000029
-8.810	-0.000029
-8.805	-0.000044
-8.800	-0.000019
-8.795	-0.000024
-8.790	-0.000039
-8.785	-0.000044
-8.780	-0.000063
-8.775	-0.000039
-8.770	-0.000024
-8.765	-0.000043
-8.760	-0.000023
-8.755	-0.000063
-8.750	-0.000058
-8.745	-0.000053
-8.740	-0.000068
-8.735	-0.000038
-8.730	-0.000043
-8.725	-0.000073
-8.720	-0.000073
-8.715	-0.000063
-8.710	-0.000093
-8.705	-0.000098
-8.700	-0.000132
-8.695	-0.000172
-8.690	-0.000291
-8.685	-0.000840
-8.680	-0.002757
-8.675	-0.007343
-8.670	-0.014744
-8.665	-0.024301
-8.660	-0.035800
-8.655	-0.048418
-8.650	-0.063212
-8.645	-0.079905
-8.640	-0.091443
-8.635	-0.099496
-8.630	-0.100299
-8.625	-0.097966
-8.620	-0.086249
-8.615	-0.072432
-8.610	-0.064146
-8.605	-0.058365
-8.600	-0.054541
-8.595	-0.051136
-8.590	-0.048913
-8.585	-0.046799
-8.580	-0.045165
-8.575	-0.043916
-8.570	-0.042362
-8.565	-0.040908
-8.560	-0.039592
-8.555	-0.038342
-8.550	-0.037146
-8.545	-0.036121
-8.540	-0.035138
-8.535	-0.034266
-8.530	-0.033417
-8.525	-0.032704
-8.520	-0.031977
-8.515	-0.031288
-8.510	-0.030630
-8.505	-0.030021
-8.500	-0.029464
-8.495	-0.028940
-8.490	-0.028431
-8.485	-0.027951
-8.480	-0.027503
-8.475	-0.027065
-8.470	-0.026662
-8.465	-0.026267
-8.460	-0.025878
-8.455	-0.025509
-8.450	-0.025172
-8.445	-0.024826
-8.440	-0.024491
-8.435	-0.024226
-8.430	-0.023928
-8.425	-0.023647
-8.420	-0.023382
-8.415	-0.023145
-8.410	-0.022866
-8.405	-0.022633
-8.400	-0.022386
-8.395	-0.022184
-8.390	-0.021951
-8.385	-0.021744
-8.380	-0.021552
-8.375	-0.021371
-8.370	-0.021147
-8.365	-0.020972
-8.360	-0.020774
-8.355	-0.020626
-8.350	-0.020454
-8.345	-0.020326
-8.340	-0.020104
-8.335	-0.019944
-8.330	-0.019753
-8.325	-0.019586
-8.320	-0.019463
-8.315	-0.019277
-8.310	-0.019136
-8.305	-0.019010
-8.300	-0.018850
-8.295	-0.018763
-8.290	-0.018604
-8.285	-0.018457
-8.280	-0.018315
-8.275	-0.018185
-8.270	-0.018076
-8.265	-0.017951
-8.260	-0.017818
-8.255	-0.017707
-8.250	-0.017586
-8.245	-0.017481
-8.240	-0.017379
-8.235	-0.017270
-8.230	-0.017170
-8.225	-0.017038
-8.220	-0.016970
-8.215	-0.016858
-8.210	-0.016724
-8.205	-0.016628
-8.200	-0.016538
-8.195	-0.016453
-8.190	-0.016345
-8.185	-0.016266
-8.180	-0.016164
-8.175	-0.016044
-8.170	-0.015963
-8.165	-0.015874
-8.160	-0.015774
-8.155	-0.015694
-8.150	-0.015633
-8.145	-0.015513
-8.140	-0.015438
-8.135	-0.015342
-8.130	-0.015254
-8.125	-0.015189
-8.120	-0.015104
-8.115	-0.015008
-8.110	-0.014972
-8.105	-0.014868
-8.100	-0.014776
-8.095	-0.014737
-8.090	-0.014661
-8.085	-0.014564
-8.080	-0.014529
-8.075	-0.014422
-8.070	-0.014369
-8.065	-0.014318
-8.060	-0.014232
-8.055	-0.014159
-8.050	-0.014107
-8.045	-0.014053
-8.040	-0.013970
-8.035	-0.013911
-8.030	-0.013851
-8.025	-0.013783
-8.020	-0.013743
-8.015	-0.013674
-8.010	-0.013592
-8.005	-0.013515
-8.000	-0.013477
-7.995	-0.013428
-7.990	-0.013358
-7.985	-0.013334
-7.980	-0.013248
-7.975	-0.013188
-7.970	-0.013144
-7.965	-0.013100
-7.960	-0.013029
-7.955	-0.012993
-7.950	-0.012957
-7.945	-0.012919
-7.940	-0.012870
-7.935	-0.012884
-7.930	-0.012872
-7.925	-0.012840
-7.920	-0.012812
-7.915	-0.012748
-7.910	-0.012700
-7.905	-0.012627
-7.900	-0.012585
-7.895	-0.012535
-7.890	-0.012466
-7.885	-0.012406
-7.880	-0.012382
-7.875	-0.012284
-7.870	-0.012262
-7.865	-0.012201
-7.860	-0.012176
-7.855	-0.012103
-7.850	-0.012058
-7.845	-0.012012
-7.840	-0.011938
-7.835	-0.011911
-7.830	-0.011861
-7.825	-0.011832
-7.820	-0.011773
-7.815	-0.011708
-7.810	-0.011679
-7.805	-0.011659
-7.800	-0.011610
-7.795	-0.011527
-7.790	-0.011511
-7.785	-0.011466
-7.780	-0.011452
-7.775	-0.011402
-7.770	-0.011352
-7.765	-0.011330
-7.760	-0.011274
-7.755	-0.011221
-7.750	-0.011188
-7.745	-0.011193
-7.740	-0.011119
-7.735	-0.011085
-7.730	-0.011037
-7.725	-0.011040
-7.720	-0.011008
-7.715	-0.010946
-7.710	-0.010913
-7.705	-0.010884
-7.700	-0.010830
-7.695	-0.010809
-7.690	-0.010780
-7.685	-0.010735
-7.680	-0.010711
-7.675	-0.010653
-7.670	-0.010625
-7.665	-0.010595
-7.660	-0.010567
-7.655	-0.010538
-7.650	-0.010510
-7.645	-0.010464
-7.640	-0.010459
-7.635	-0.010387
-7.630	-0.010383
-7.625	-0.010338
-7.620	-0.010328
-7.615	-0.010307
-7.610	-0.010239
-7.605	-0.010232
-7.600	-0.010227
-7.595	-0.010179
-7.590	-0.010127
-7.585	-0.010097
-7.580	-0.010079
-7.575	-0.010066
-7.570	-0.010022
-7.565	-0.009996
-7.560	-0.009972
-7.555	-0.009942
-7.550	-0.009925
-7.545	-0.009898
-7.540	-0.009859
-7.535	-0.009843
-7.530	-0.009784
-7.525	-0.009794
-7.520	-0.009731
-7.515	-0.009736
-7.510	-0.009694
-7.505	-0.009706
-7.500	-0.009660
-7.495	-0.009611
-7.490	-0.009590
-7.485	-0.009576
-7.480	-0.009543
-7.475	-0.009528
-7.470	-0.009487
-7.465	-0.009452
-7.460	-0.009478
-7.455	-0.009423
-7.450	-0.009400
-7.445	-0.009368
-7.440	-0.009349
-7.435	-0.009336
-7.430	-0.009302
-7.425	-0.009283
-7.420	-0.009247
-7.415	-0.009239
-7.410	-0.009190
-7.405	-0.009176
-7.400	-0.009139
-7.395	-0.009127
-7.390	-0.009104
-7.385	-0.009078
-7.380	-0.009059
-7.375	-0.009020
-7.370	-0.009012
-7.365	-0.008987
-7.360	-0.008964
-7.355	-0.008938
-7.350	-0.008921
-7.345	-0.008882
-7.340	-0.008883
-7.335	-0.008868
-7.330	-0.008842
-7.325	-0.008796
-7.320	-0.008781
-7.315	-0.008779
-7.310	-0.008747
-7.305	-0.008722
-7.300	-0.008712
-7.295	-0.008666
-7.290	-0.008649
-7.285	-0.008620
-7.280	-0.008624
-7.275	-0.008569
-7.270	-0.008582
-7.265	-0.008567
-7.260	-0.008527
-7.255	-0.008548
-7.250	-0.008511
-7.245	-0.008487
-7.240	-0.008444
-7.235	-0.008440
-7.230	-0.008416
-7.225	-0.008399
-7.220	-0.008392
-7.215	-0.008389
-7.210	-0.008348
-7.205	-0.008306
-7.200	-0.008299
-7.195	-0.008306
-7.190	-0.008281
-7.185	-0.008240
-7.180	-0.008236
-7.175	-0.008203
-7.170	-0.008193
-7.165	-0.008168
-7.160	-0.008151
-7.155	-0.008128
-7.150	-0.008109
-7.145	-0.008104
-7.140	-0.008072
-7.135	-0.008084
-7.130	-0.008090
-7.125	-0.008044
-7.120	-0.007991
-7.115	-0.007998
-7.110	-0.007968
-7.105	-0.007947
-7.100	-0.007936
-7.095	-0.007934
-7.090	-0.007914
-7.085	-0.007894
-7.080	-0.007882
-7.075	-0.007867
-7.070	-0.007856
-7.065	-0.007822
-7.060	-0.007821
-7.055	-0.007811
-7.050	-0.007772
-7.045	-0.007789
-7.040	-0.007748
-7.035	-0.007743
-7.030	-0.007712
-7.025	-0.007683
-7.020	-0.007712
-7.015	-0.007671
-7.010	-0.007648
-7.005	-0.007632
-7.000	-0.007589
-6.995	-0.007620
-6.990	-0.007582
-6.985	-0.007591
-6.980	-0.007549
-6.975	-0.007546
-6.970	-0.007523
-6.965	-0.007515
-6.960	-0.007469
-6.955	-0.007474
-6.950	-0.007451
-6.945	-0.007456
-6.940	-0.007431
-6.935	-0.007409
-6.930	-0.007394
-6.925	-0.007368
-6.920	-0.007387
-6.915	-0.007368
-6.910	-0.007355
-6.905	-0.007309
-6.900	-0.007321
-6.895	-0.007293
-6.890	-0.007301
-6.885	-0.007274
-6.880	-0.007240
-6.875	-0.007227
-6.870	-0.007211
-6.865	-0.007220
-6.860	-0.007201
-6.855	-0.007173
-6.850	-0.007154
-6.845	-0.007149
-6.840	-0.007130
-6.835	-0.007119
-6.830	-0.007130
-6.825	-0.007126
-6.820	-0.007102
-6.815	-0.007067
-6.810	-0.007058
-6.805	-0.007034
-6.800	-0.007029
-6.795	-0.007027
-6.790	-0.007006
-6.785	-0.006992
-6.780	-0.006964
-6.775	-0.006972
-6.770	-0.006967
-6.765	-0.006928
-6.760	-0.006912
-6.755	-0.006907
-6.750	-0.006877
-6.745	-0.006903
-6.740	-0.006896
-6.735	-0.006857
-6.730	-0.006848
-6.725	-0.006831
-6.720	-0.006852
-6.715	-0.006819
-6.710	-0.006814
-6.705	-0.006798
-6.700	-0.006763
-6.695	-0.006769
-6.690	-0.006742
-6.685	-0.006738
-6.680	-0.006739
-6.675	-0.006727
-6.670	-0.006712
-6.665	-0.006698
-6.660	-0.006699
-6.655	-0.006676
-6.650	-0.006680
-6.645	-0.006671
-6.640	-0.006645
-6.635	-0.006615
-6.630	-0.006606
-6.625	-0.006593
-6.620	-0.006611
-6.615	-0.006600
-6.610	-0.006560
-6.605	-0.006545
-6.600	-0.006543
-6.595	-0.006532
-6.590	-0.006543
-6.585	-0.006521
-6.580	-0.006490
-6.575	-0.006491
-6.570	-0.006479
-6.565	-0.006490
-6.560	-0.006483
-6.555	-0.006452
-6.550	-0.006441
-6.545	-0.006439
-6.540	-0.006389
-6.535	-0.006381
-6.530	-0.006381
-6.525	-0.006366
-6.520	-0.006382
-6.515	-0.006360
-6.510	-0.006366
-6.505	-0.006310
-6.500	-0.006314
-6.495	-0.006284
-6.490	-0.006290
-6.485	-0.006289
-6.480	-0.006282
-6.475	-0.006269
-6.470	-0.006258
-6.465	-0.006253
-6.460	-0.006217
-6.455	-0.006223
-6.450	-0.006208
-6.445	-0.006205
-6.440	-0.006189
-6.435	-0.006157
-6.430	-0.006162
-6.425	-0.006171
-6.420	-0.006160
-6.415	-0.006145
-6.410	-0.006115
-6.405	-0.006123
-6.400	-0.006098
-6.395	-0.006077
-6.390	-0.006083
-6.385	-0.006069
-6.380	-0.006070
-6.375	-0.006058
-6.370	-0.006038
-6.365	-0.006045
-6.360	-0.006012
-6.355	-0.005993
-6.350	-0.006016
-6.345	-0.005989
-6.340	-0.005995
-6.335	-0.005981
-6.330	-0.005941
-6.325	-0.005949
-6.320	-0.005922
-6.315	-0.005924
-6.310	-0.005900
-6.305	-0.005896
-6.300	-0.005900
-6.295	-0.005895
-6.290	-0.005895
-6.285	-0.005875
-6.280	-0.005859
-6.275	-0.005859
-6.270	-0.005816
-6.265	-0.005813
-6.260	-0.005827
-6.255	-0.005847
-6.250	-0.005802
-6.245	-0.005795
-6.240	-0.005788
-6.235	-0.005774
-6.230	-0.005741
-6.225	-0.005746
-6.220	-0.005765
-6.215	-0.005748
-6.210	-0.005747
-6.205	-0.005722
-6.200	-0.005695
-6.195	-0.005694
-6.190	-0.005686
-6.185	-0.005687
-6.180	-0.005689
-6.175	-0.005690
-6.170	-0.005690
-6.165	-0.005637
-6.160	-0.005626
-6.155	-0.005622
-6.150	-0.005616
-6.145	-0.005619
-6.140	-0.005598
-6.135	-0.005619
-6.130	-0.005589
-6.125	-0.005593
-6.120	-0.005559
-6.115	-0.005555
-6.110	-0.005544
-6.105	-0.005545
-6.100	-0.005533
-6.095	-0.005523
-6.090	-0.005527
-6.085	-0.005530
-6.080	-0.005484
-6.075	-0.005484
-6.070	-0.005460
-6.065	-0.005487
-6.060	-0.005475
-6.055	-0.005465
-6.050	-0.005459
-6.045	-0.005474
-6.040	-0.005421
-6.035	-0.005431
-6.030	-0.005415
-6.025	-0.005403
-6.020	-0.005415
-6.015	-0.005392
-6.010	-0.005382
-6.005	-0.005395
-6.000	-0.005367
-5.995	-0.005361
-5.990	-0.005356
-5.985	-0.005323
-5.980	-0.005344
-5.975	-0.005326
-5.970	-0.005322
-5.965	-0.005287
-5.960	-0.005296
-5.955	-0.005280
-5.950	-0.005288
-5.945	-0.005279
-5.940	-0.005269
-5.935	-0.005256
-5.930	-0.005231
-5.925	-0.005244
-5.920	-0.005247
-5.915	-0.005204
-5.910	-0.005199
-5.905	-0.005209
-5.900	-0.005175
-5.895	-0.005192
-5.890	-0.005168
-5.885	-0.005186
-5.880	-0.005160
-5.875	-0.005163
-5.870	-0.005132
-5.865	-0.005123
-5.860	-0.005132
-5.855	-0.005118
-5.850	-0.005117
-5.845	-0.005086
-5.840	-0.005109
-5.835	-0.005098
-5.830	-0.005077
-5.825	-0.005065
-5.820	-0.005054
-5.815	-0.005067
-5.810	-0.005053
-5.805	-0.005036
-5.800	-0.005051
-5.795	-0.005042
-5.790	-0.005016
-5.785	-0.005018
-5.780	-0.005001
-5.775	-0.004986
-5.770	-0.004977
-5.765	-0.004983
-5.760	-0.004989
-5.755	-0.004961
-5.750	-0.004979
-5.745	-0.004957
-5.740	-0.004927
-5.735	-0.004947
-5.730	-0.004922
-5.725	-0.004914
-5.720	-0.004891
-5.715	-0.004927
-5.710	-0.004901
-5.705	-0.004910
-5.700	-0.004877
-5.695	-0.004855
-5.690	-0.004892
-5.685	-0.004864
-5.680	-0.004851
-5.675	-0.004847
-5.670	-0.004847
-5.665	-0.004835
-5.660	-0.004818
-5.655	-0.004821
-5.650	-0.004817
-5.645	-0.004809
-5.640	-0.004811
-5.635	-0.004787
-5.630	-0.004766
-5.625	-0.004790
-5.620	-0.004785
-5.615	-0.004776
-5.610	-0.004737
-5.605	-0.004749
-5.600	-0.004749
-5.595	-0.004711
-5.590	-0.004744
-5.585	-0.004727
-5.580	-0.004707
-5.575	-0.004706
-5.570	-0.004720
-5.565	-0.004687
-5.560	-0.004678
-5.555	-0.004674
-5.550	-0.004654
-5.545	-0.004665
-5.540	-0.004669
-5.535	-0.004659
-5.530	-0.004665
-5.525	-0.004629
-5.520	-0.004621
-5.515	-0.004650
-5.510	-0.004631
-5.505	-0.004569
-5.500	-0.004614
-5.495	-0.004593
-5.490	-0.004599
-5.485	-0.004566
-5.480	-0.004587
-5.475	-0.004582
-5.470	-0.004560
-5.465	-0.004565
-5.460	-0.004553
-5.455	-0.004540
-5.450	-0.004515
-5.445	-0.004533
-5.440	-0.004528
-5.435	-0.004538
-5.430	-0.004536
-5.425	-0.004490
-5.420	-0.004484
-5.415	-0.004509
-5.410	-0.004476
-5.405	-0.004465
-5.400	-0.004465
-5.395	-0.004467
-5.390	-0.004441
-5.385	-0.004433
-5.380	-0.004437
-5.375	-0.004431
-5.370	-0.004442
-5.365	-0.004419
-5.360	-0.004438
-5.355	-0.004394
-5.350	-0.004389
-5.345	-0.004420
-5.340	-0.004413
-5.335	-0.004375
-5.330	-0.004395
-5.325	-0.004369
-5.320	-0.004369
-5.315	-0.004360
-5.310	-0.004340
-5.305	-0.004352
-5.300	-0.004341
-5.295	-0.004312
-5.290	-0.004320
-5.285	-0.004335
-5.280	-0.004322
-5.275	-0.004307
-5.270	-0.004292
-5.265	-0.004299
-5.260	-0.004293
-5.255	-0.004273
-5.250	-0.004273
-5.245	-0.004260
-5.240	-0.004256
-5.235	-0.004258
-5.230	-0.004241
-5.225	-0.004266
-5.220	-0.004238
-5.215	-0.004223
-5.210	-0.004208
-5.205	-0.004199
-5.200	-0.004225
-5.195	-0.004215
-5.190	-0.004194
-5.185	-0.004211
-5.180	-0.004193
-5.175	-0.004187
-5.170	-0.004183
-5.165	-0.004165
-5.160	-0.004136
-5.155	-0.004151
-5.150	-0.004139
-5.145	-0.004146
-5.140	-0.004157
-5.135	-0.004162
-5.130	-0.004141
-5.125	-0.004128
-5.120	-0.004131
-5.115	-0.004141
-5.110	-0.004104
-5.105	-0.004088
-5.100	-0.004098
-5.095	-0.004084
-5.090	-0.004078
-5.085	-0.004065
-5.080	-0.004064
-5.075	-0.004084
-5.070	-0.004065
-5.065	-0.004059
-5.060	-0.004048
-5.055	-0.004033
-5.050	-0.004035
-5.045	-0.004037
-5.040	-0.004035
-5.035	-0.004016
-5.030	-0.003989
-5.025	-0.004023
-5.020	-0.004008
-5.015	-0.003994
-5.010	-0.003995
-5.005	-0.003982
-5.000	-0.003987
-4.995	-0.003958
-4.990	-0.003973
-4.985	-0.003962
-4.980	-0.003961
-4.975	-0.003956
-4.970	-0.003935
-4.965	-0.003947
-4.960	-0.003935
-4.955	-0.003921
-4.950	-0.003911
-4.945	-0.003925
-4.940	-0.003894
-4.935	-0.003890
-4.930	-0.003871
-4.925	-0.003884
-4.920	-0.003872
-4.915	-0.003873
-4.910	-0.003875
-4.905	-0.003873
-4.900	-0.003871
-4.895	-0.003870
-4.890	-0.003861
-4.885	-0.003841
-4.880	-0.003816
-4.875	-0.003812
-4.870	-0.003800
-4.865	-0.003817
-4.860	-0.003796
-4.855	-0.003806
-4.850	-0.003781
-4.845	-0.003777
-4.840	-0.003792
-4.835	-0.003792
-4.830	-0.003776
-4.825	-0.003792
-4.820	-0.003762
-4.815	-0.003741
-4.810	-0.003728
-4.805	-0.003736
-4.800	-0.003739
-4.795	-0.003735
-4.790	-0.003714
-4.785	-0.003716
-4.780	-0.003719
-4.775	-0.003699
-4.770	-0.003718
-4.765	-0.003718
-4.760	-0.003700
-4.755	-0.003691
-4.750	-0.003677
-4.745	-0.003674
-4.740	-0.003654
-4.735	-0.003645
-4.730	-0.003644
-4.725	-0.003650
-4.720	-0.003653
-4.715	-0.003658
-4.710	-0.003642
-4.705	-0.003630
-4.700	-0.003612
-4.695	-0.003628
-4.690	-0.003630
-4.685	-0.003613
-4.680	-0.003595
-4.675	-0.003589
-4.670	-0.003580
-4.665	-0.003575
-4.660	-0.003574
-4.655	-0.003584
-4.650	-0.003574
-4.645	-0.003565
-4.640	-0.003562
-4.635	-0.003548
-4.630	-0.003560
-4.625	-0.003533
-4.620	-0.003514
-4.615	-0.003535
-4.610	-0.003535
-4.605	-0.003501
-4.600	-0.003510
-4.595	-0.003530
-4.590	-0.003503
-4.585	-0.003518
-4.580	-0.003492
-4.575	-0.003516
-4.570	-0.003501
-4.565	-0.003480
-4.560	-0.003441
-4.555	-0.003461
-4.550	-0.003444
-4.545	-0.003447
-4.540	-0.003451
-4.535	-0.003437
-4.530	-0.003431
-4.525	-0.003428
-4.520	-0.003437
-4.515	-0.003442
-4.510	-0.003427
-4.505	-0.003423
-4.500	-0.003422
-4.495	-0.003412
-4.490	-0.003403
-4.485	-0.003383
-4.480	-0.003373
-4.475	-0.003377
-4.470	-0.003379
-4.465	-0.003382
-4.460	-0.003367
-4.455	-0.003383
-4.450	-0.003353
-4.445	-0.003344
-4.440	-0.003352
-4.435	-0.003352
-4.430	-0.003347
-4.425	-0.003333
-4.420	-0.003333
-4.415	-0.003348
-4.410	-0.003338
-4.405	-0.003318
-4.400	-0.003315
-4.395	-0.003314
-4.390	-0.003310
-4.385	-0.003284
-4.380	-0.003275
-4.375	-0.003261
-4.370	-0.003276
-4.365	-0.003287
-4.360	-0.003276
-4.355	-0.003251
-4.350	-0.003255
-4.345	-0.003266
-4.340	-0.003219
-4.335	-0.003245
-4.330	-0.003235
-4.325	-0.003243
-4.320	-0.003229
-4.315	-0.003219
-4.310	-0.003206
-4.305	-0.003199
-4.300	-0.003208
-4.295	-0.003188
-4.290	-0.003177
-4.285	-0.003175
-4.280	-0.003171
-4.275	-0.003186
-4.270	-0.003176
-4.265	-0.003211
-4.260	-0.003192
-4.255	-0.003174
-4.250	-0.003171
-4.245	-0.003163
-4.240	-0.003131
-4.235	-0.003140
-4.230	-0.003121
-4.225	-0.003110
-4.220	-0.003148
-4.215	-0.003133
-4.210	-0.003097
-4.205	-0.003103
-4.200	-0.003112
-4.195	-0.003126
-4.190	-0.003111
-4.185	-0.003102
-4.180	-0.003094
-4.175	-0.003083
-4.170	-0.003069
-4.165	-0.003072
-4.160	-0.003052
-4.155	-0.003092
-4.150	-0.003057
-4.145	-0.003052
-4.140	-0.003076
-4.135	-0.003042
-4.130	-0.003055
-4.125	-0.003040
-4.120	-0.003056
-4.115	-0.003052
-4.110	-0.003042
-4.105	-0.003032
-4.100	-0.003026
-4.095	-0.003021
-4.090	-0.003013
-4.085	-0.003020
-4.080	-0.002992
-4.075	-0.002997
-4.070	-0.002993
-4.065	-0.002988
-4.060	-0.002978
-4.055	-0.002994
-4.050	-0.002984
-4.045	-0.002964
-4.040	-0.002976
-4.035	-0.002950
-4.030	-0.002982
-4.025	-0.002970
-4.020	-0.002977
-4.015	-0.002963
-4.010	-0.002977
-4.005	-0.002978
-4.000	-0.002960
-3.995	-0.002960
-3.990	-0.002945
-3.985	-0.002963
-3.980	-0.002928
-3.975	-0.002958
-3.970	-0.002948
-3.965	-0.002934
-3.960	-0.002947
-3.955	-0.002961
-3.950	-0.002935
-3.945	-0.002955
-3.940	-0.002961
-3.935	-0.002976
-3.930	-0.002961
-3.925	-0.002961
-3.920	-0.002944
-3.915	-0.002968
-3.910	-0.002974
-3.905	-0.002982
-3.900	-0.002986
-3.895	-0.003005
-3.890	-0.003001
-3.885	-0.003035
-3.880	-0.003058
-3.875	-0.003099
-3.870	-0.003106
-3.865	-0.003154
-3.860	-0.003200
-3.855	-0.003267
-3.850	-0.003336
-3.845	-0.003445
-3.840	-0.003607
-3.835	-0.003747
-3.830	-0.003957
-3.825	-0.004173
-3.820	-0.004458
-3.815	-0.004787
-3.810	-0.005200
-3.805	-0.005676
-3.800	-0.006253
-3.795	-0.006943
-3.790	-0.007721
-3.785	-0.008658
-3.780	-0.009759
-3.775	-0.010730
-3.770	-0.010867
-3.765	-0.009493
-3.760	-0.007208
-3.755	-0.005032
-3.750	-0.002587
-3.745	0.000410
-3.740	0.004774
-3.735	0.007820
-3.730	0.007775
-3.725	0.005535
-3.720	0.002488
-3.715	-0.000327
-3.710	-0.002706
-3.705	-0.004471
-3.700	-0.005872
-3.695	-0.006809
-3.690	-0.007519
-3.685	-0.008086
-3.680	-0.008634
-3.675	-0.009161
-3.670	-0.009674
-3.665	-0.010136
-3.660	-0.010678
-3.655	-0.011177
-3.650	-0.011654
-3.645	-0.012124
-3.640	-0.012604
-3.635	-0.013012
-3.630	-0.013383
-3.625	-0.013723
-3.620	-0.013937
-3.615	-0.013973
-3.610	-0.013482
-3.605	-0.012162
-3.600	-0.009795
-3.595	-0.006889
-3.590	-0.003862
-3.585	-0.000885
-3.580	0.002383
-3.575	0.005557
-3.570	0.007604
-3.565	0.007418
-3.560	0.005501
-3.555	0.003010
-3.550	0.000457
-3.545	-0.001597
-3.540	-0.003222
-3.535	-0.004329
-3.530	-0.005054
-3.525	-0.005513
-3.520	-0.005910
-3.515	-0.006256
-3.510	-0.006595
-3.505	-0.006881
-3.500	-0.007204
-3.495	-0.007602
-3.490	-0.008008
-3.485	-0.008414
-3.480	-0.008837
-3.475	-0.009272
-3.470	-0.009654
-3.465	-0.010012
-3.460	-0.010360
-3.455	-0.010667
-3.450	-0.010958
-3.445	-0.011177
-3.440	-0.011264
-3.435	-0.011050
-3.430	-0.010256
-3.425	-0.008511
-3.420	-0.005845
-3.415	-0.003007
-3.410	-0.000178
-3.405	0.002741
-3.400	0.005873
-3.395	0.008401
-3.390	0.009064
-3.385	0.007648
-3.380	0.005101
-3.375	0.002578
-3.370	0.000295
-3.365	-0.001417
-3.360	-0.002705
-3.355	-0.003513
-3.350	-0.004103
-3.345	-0.004537
-3.340	-0.004869
-3.335	-0.005175
-3.330	-0.005489
-3.325	-0.005769
-3.320	-0.006072
-3.315	-0.006417
-3.310	-0.006798
-3.305	-0.007208
-3.300	-0.007593
-3.295	-0.007954
-3.290	-0.008315
-3.285	-0.008621
-3.280	-0.008967
-3.275	-0.009231
-3.270	-0.009491
-3.265	-0.009732
-3.260	-0.009937
-3.255	-0.010084
-3.250	-0.010108
-3.245	-0.009822
-3.240	-0.008876
-3.235	-0.006928
-3.230	-0.004388
-3.225	-0.001780
-3.220	0.000890
-3.215	0.003677
-3.210	0.006603
-3.205	0.008705
-3.200	0.008987
-3.195	0.007484
-3.190	0.005194
-3.185	0.002831
-3.180	0.000695
-3.175	-0.000871
-3.170	-0.001995
-3.165	-0.002733
-3.160	-0.003284
-3.155	-0.003663
-3.150	-0.004013
-3.145	-0.004280
-3.140	-0.004578
-3.135	-0.004850
-3.130	-0.005176
-3.125	-0.005490
-3.120	-0.005829
-3.115	-0.006160
-3.110	-0.006485
-3.105	-0.006799
-3.100	-0.007105
-3.095	-0.007423
-3.090	-0.007753
-3.085	-0.008047
-3.080	-0.008356
-3.075	-0.008599
-3.070	-0.008853
-3.065	-0.009025
-3.060	-0.009211
-3.055	-0.009278
-3.050	-0.009276
-3.045	-0.008873
-3.040	-0.007759
-3.035	-0.005817
-3.030	-0.003288
-3.025	-0.000764
-3.020	0.001886
-3.015	0.004594
-3.010	0.007348
-3.005	0.009106
-3.000	0.009092
-2.995	0.007571
-2.990	0.005307
-2.985	0.003108
-2.980	0.001203
-2.975	-0.000230
-2.970	-0.001252
-2.965	-0.001975
-2.960	-0.002538
-2.955	-0.002979
-2.950	-0.003322
-2.945	-0.003570
-2.940	-0.003870
-2.935	-0.004134
-2.930	-0.004387
-2.925	-0.004691
-2.920	-0.004951
-2.915	-0.005191
-2.910	-0.005457
-2.905	-0.005678
-2.900	-0.005978
-2.895	-0.006253
-2.890	-0.006534
-2.885	-0.006814
-2.880	-0.007136
-2.875	-0.007401
-2.870	-0.007679
-2.865	-0.007947
-2.860	-0.008183
-2.855	-0.008365
-2.850	-0.008528
-2.845	-0.008631
-2.840	-0.008660
-2.835	-0.008585
-2.830	-0.008235
-2.825	-0.007288
-2.820	-0.005411
-2.815	-0.002969
-2.810	-0.000439
-2.805	0.002046
-2.800	0.004782
-2.795	0.007397
-2.790	0.009145
-2.785	0.009164
-2.780	0.007721
-2.775	0.005704
-2.770	0.003567
-2.765	0.001770
-2.760	0.000327
-2.755	-0.000602
-2.750	-0.001358
-2.745	-0.001908
-2.740	-0.002341
-2.735	-0.002664
-2.730	-0.002968
-2.725	-0.003241
-2.720	-0.003458
-2.715	-0.003742
-2.710	-0.003967
-2.705	-0.004159
-2.700	-0.004334
-2.695	-0.004499
-2.690	-0.004675
-2.685	-0.004881
-2.680	-0.005079
-2.675	-0.005329
-2.670	-0.005610
-2.665	-0.005944
-2.660	-0.006237
-2.655	-0.006532
-2.650	-0.006798
-2.645	-0.007036
-2.640	-0.007242
-2.635	-0.007368
-2.630	-0.007475
-2.625	-0.007574
-2.620	-0.007668
-2.615	-0.007787
-2.610	-0.007829
-2.605	-0.007798
-2.600	-0.007651
-2.595	-0.007122
-2.590	-0.005961
-2.585	-0.004098
-2.580	-0.001765
-2.575	0.000466
-2.570	0.002852
-2.565	0.005424
-2.560	0.007827
-2.555	0.009046
-2.550	0.008753
-2.545	0.007352
-2.540	0.005467
-2.535	0.003692
-2.530	0.002166
-2.525	0.001013
-2.520	0.000068
-2.515	-0.000689
-2.510	-0.001280
-2.505	-0.001730
-2.500	-0.002081
-2.495	-0.002375
-2.490	-0.002605
-2.485	-0.002831
-2.480	-0.002956
-2.475	-0.003030
-2.470	-0.003138
-2.465	-0.003264
-2.460	-0.003359
-2.455	-0.003540
-2.450	-0.003711
-2.445	-0.003972
-2.440	-0.004237
-2.435	-0.004496
-2.430	-0.004715
-2.425	-0.004949
-2.420	-0.005145
-2.415	-0.005343
-2.410	-0.005546
-2.405	-0.005738
-2.400	-0.005939
-2.395	-0.006141
-2.390	-0.006244
-2.385	-0.006384
-2.380	-0.006468
-2.375	-0.006602
-2.370	-0.006719
-2.365	-0.006830
-2.360	-0.006881
-2.355	-0.006939
-2.350	-0.006958
-2.345	-0.006890
-2.340	-0.006640
-2.335	-0.006000
-2.330	-0.004677
-2.325	-0.002859
-2.320	-0.000715
-2.315	0.001372
-2.310	0.003727
-2.305	0.006009
-2.300	0.008016
-2.295	0.008836
-2.290	0.008395
-2.285	0.007064
-2.280	0.005446
-2.275	0.003962
-2.270	0.002648
-2.265	0.001540
-2.260	0.000630
-2.255	-0.000113
-2.250	-0.000717
-2.245	-0.001199
-2.240	-0.001587
-2.235	-0.001861
-2.230	-0.002014
-2.225	-0.002116
-2.220	-0.002187
-2.215	-0.002275
-2.210	-0.002399
-2.205	-0.002559
-2.200	-0.002741
-2.195	-0.002932
-2.190	-0.003093
-2.185	-0.003289
-2.180	-0.003440
-2.175	-0.003552
-2.170	-0.003685
-2.165	-0.003829
-2.160	-0.003986
-2.155	-0.004108
-2.150	-0.004206
-2.145	-0.004378
-2.140	-0.004505
-2.135	-0.004709
-2.130	-0.004878
-2.125	-0.005033
-2.120	-0.005195
-2.115	-0.005354
-2.110	-0.005500
-2.105	-0.005630
-2.100	-0.005756
-2.095	-0.005871
-2.090	-0.005959
-2.085	-0.006073
-2.080	-0.006158
-2.075	-0.006231
-2.070	-0.006266
-2.065	-0.006263
-2.060	-0.006185
-2.055	-0.006058
-2.050	-0.005720
-2.045	-0.005002
-2.040	-0.003673
-2.035	-0.001908
-2.030	0.000059
-2.025	0.002050
-2.020	0.004130
-2.015	0.006247
-2.010	0.007989
-2.005	0.008612
-2.000	0.008191
-1.995	0.007195
-1.990	0.005945
-1.985	0.004685
-1.980	0.003444
-1.975	0.002349
-1.970	0.001350
-1.965	0.000528
-1.960	-0.000126
-1.955	-0.000567
-1.950	-0.000842
-1.945	-0.001023
-1.940	-0.001170
-1.935	-0.001288
-1.930	-0.001469
-1.925	-0.001647
-1.920	-0.001805
-1.915	-0.001972
-1.910	-0.002119
-1.905	-0.002237
-1.900	-0.002374
-1.895	-0.002442
-1.890	-0.002467
-1.885	-0.002456
-1.880	-0.002527
-1.875	-0.002643
-1.870	-0.002816
-1.865	-0.002937
-1.860	-0.003102
-1.855	-0.003191
-1.850	-0.003299
-1.845	-0.003443
-1.840	-0.003575
-1.835	-0.003711
-1.830	-0.003872
-1.825	-0.004064
-1.820	-0.004217
-1.815	-0.004375
-1.810	-0.004491
-1.805	-0.004603
-1.800	-0.004673
-1.795	-0.004721
-1.790	-0.004773
-1.785	-0.004831
-1.780	-0.004891
-1.775	-0.004907
-1.770	-0.004922
-1.765	-0.004970
-1.760	-0.005046
-1.755	-0.005097
-1.750	-0.005137
-1.745	-0.005196
-1.740	-0.005200
-1.735	-0.005178
-1.730	-0.005146
-1.725	-0.005062
-1.720	-0.004925
-1.715	-0.004613
-1.710	-0.003991
-1.705	-0.002911
-1.700	-0.001454
-1.695	0.000210
-1.690	0.002010
-1.685	0.003860
-1.680	0.005804
-1.675	0.007248
-1.670	0.007917
-1.665	0.007865
-1.660	0.007272
-1.655	0.006427
-1.650	0.005269
-1.645	0.004082
-1.640	0.002889
-1.635	0.001912
-1.630	0.001207
-1.625	0.000711
-1.620	0.000372
-1.615	0.000082
-1.610	-0.000168
-1.605	-0.000404
-1.600	-0.000606
-1.595	-0.000798
-1.590	-0.001004
-1.585	-0.001151
-1.580	-0.001239
-1.575	-0.001238
-1.570	-0.001269
-1.565	-0.001328
-1.560	-0.001385
-1.555	-0.001473
-1.550	-0.001567
-1.545	-0.001621
-1.540	-0.001638
-1.535	-0.001702
-1.530	-0.001776
-1.525	-0.001884
-1.520	-0.002028
-1.515	-0.002145
-1.510	-0.002228
-1.505	-0.002317
-1.500	-0.002353
-1.495	-0.002398
-1.490	-0.002457
-1.485	-0.002491
-1.480	-0.002537
-1.475	-0.002576
-1.470	-0.002690
-1.465	-0.002742
-1.460	-0.002834
-1.455	-0.002976
-1.450	-0.003076
-1.445	-0.003162
-1.440	-0.003265
-1.435	-0.003349
-1.430	-0.003441
-1.425	-0.003501
-1.420	-0.003554
-1.415	-0.003580
-1.410	-0.003594
-1.405	-0.003625
-1.400	-0.003658
-1.395	-0.003757
-1.390	-0.003830
-1.385	-0.003913
-1.380	-0.003991
-1.375	-0.004047
-1.370	-0.004078
-1.365	-0.004074
-1.360	-0.004087
-1.355	-0.004102
-1.350	-0.004086
-1.345	-0.004040
-1.340	-0.004017
-1.335	-0.003947
-1.330	-0.003916
-1.325	-0.003847
-1.320	-0.003800
-1.315	-0.003743
-1.310	-0.003650
-1.305	-0.003527
-1.300	-0.003330
-1.295	-0.002988
-1.290	-0.002386
-1.285	-0.001469
-1.280	-0.000325
-1.275	0.000944
-1.270	0.002406
-1.265	0.003868
-1.260	0.005328
-1.255	0.006324
-1.250	0.006847
-1.245	0.006968
-1.240	0.006644
-1.235	0.006040
-1.230	0.005273
-1.225	0.004537
-1.220	0.003790
-1.215	0.003124
-1.210	0.002497
-1.205	0.001903
-1.200	0.001397
-1.195	0.001043
-1.190	0.000786
-1.185	0.000585
-1.180	0.000409
-1.175	0.000197
-1.170	0.000016
-1.165	-0.000102
-1.160	-0.000215
-1.155	-0.000269
-1.150	-0.000323
-1.145	-0.000416
-1.140	-0.000554
-1.135	-0.000672
-1.130	-0.000735
-1.125	-0.000765
-1.120	-0.000766
-1.115	-0.000766
-1.110	-0.000790
-1.105	-0.000834
-1.100	-0.000867
-1.095	-0.000902
-1.090	-0.000991
-1.085	-0.001040
-1.080	-0.001078
-1.075	-0.001054
-1.070	-0.001016
-1.065	-0.000971
-1.060	-0.001013
-1.055	-0.001092
-1.050	-0.001255
-1.045	-0.001358
-1.040	-0.001420
-1.035	-0.001494
-1.030	-0.001569
-1.025	-0.001607
-1.020	-0.001650
-1.015	-0.001665
-1.010	-0.001659
-1.005	-0.001704
-1.000	-0.001701
-0.995	-0.001697
-0.990	-0.001745
-0.985	-0.001780
-0.980	-0.001775
-0.975	-0.001770
-0.970	-0.001766
-0.965	-0.001781
-0.960	-0.001800
-0.955	-0.001790
-0.950	-0.001771
-0.945	-0.001800
-0.940	-0.001823
-0.935	-0.001873
-0.930	-0.001939
-0.925	-0.001976
-0.920	-0.001973
-0.915	-0.002027
-0.910	-0.002062
-0.905	-0.002090
-0.900	-0.002091
-0.895	-0.002087
-0.890	-0.002091
-0.885	-0.002097
-0.880	-0.002125
-0.875	-0.002145
-0.870	-0.002163
-0.865	-0.002139
-0.860	-0.002148
-0.855	-0.002138
-0.850	-0.002129
-0.845	-0.002134
-0.840	-0.002123
-0.835	-0.002104
-0.830	-0.002089
-0.825	-0.002083
-0.820	-0.002037
-0.815	-0.001988
-0.810	-0.001936
-0.805	-0.001887
-0.800	-0.001796
-0.795	-0.001772
-0.790	-0.001719
-0.785	-0.001679
-0.780	-0.001664
-0.775	-0.001654
-0.770	-0.001690
-0.765	-0.001723
-0.760	-0.001728
-0.755	-0.001683
-0.750	-0.001610
-0.745	-0.001491
-0.740	-0.001392
-0.735	-0.001269
-0.730	-0.001120
-0.725	-0.001012
-0.720	-0.000933
-0.715	-0.000905
-0.710	-0.000890
-0.705	-0.000855
-0.700	-0.000801
-0.695	-0.000698
-0.690	-0.000619
-0.685	-0.000555
-0.680	-0.000414
-0.675	-0.000272
-0.670	-0.000173
-0.665	-0.000084
-0.660	0.000004
-0.655	0.000107
-0.650	0.000308
-0.645	0.000661
-0.640	0.001269
-0.635	0.002170
-0.630	0.003488
-0.625	0.005274
-0.620	0.007586
-0.615	0.010380
-0.610	0.013448
-0.605	0.016661
-0.600	0.019854
-0.595	0.022423
-0.590	0.024563
-0.585	0.026007
-0.580	0.026782
-0.575	0.026901
-0.570	0.026437
-0.565	0.025463
-0.560	0.024119
-0.555	0.022647
-0.550	0.021061
-0.545	0.019601
-0.540	0.018232
-0.535	0.016996
-0.530	0.015874
-0.525	0.014901
-0.520	0.013989
-0.515	0.013117
-0.510	0.012215
-0.505	0.011342
-0.500	0.010463
-0.495	0.009727
-0.490	0.009074
-0.485	0.008662
-0.480	0.008449
-0.475	0.008327
-0.470	0.008360
-0.465	0.008379
-0.460	0.008285
-0.455	0.008030
-0.450	0.007673
-0.445	0.007174
-0.440	0.006666
-0.435	0.006227
-0.430	0.005892
-0.425	0.005698
-0.420	0.005645
-0.415	0.005568
-0.410	0.005402
-0.405	0.005108
-0.400	0.004851
-0.395	0.004798
-0.390	0.004923
-0.385	0.005100
-0.380	0.005126
-0.375	0.004972
-0.370	0.004641
-0.365	0.004403
-0.360	0.004394
-0.355	0.004676
-0.350	0.004991
-0.345	0.005050
-0.340	0.004954
-0.335	0.004736
-0.330	0.004555
-0.325	0.004345
-0.320	0.004248
-0.315	0.004321
-0.310	0.004600
-0.305	0.005117
-0.300	0.005605
-0.295	0.005771
-0.290	0.005351
-0.285	0.004647
-0.280	0.003942
-0.275	0.003297
-0.270	0.002893
-0.265	0.002923
-0.260	0.003305
-0.255	0.003729
-0.250	0.004076
-0.245	0.004169
-0.240	0.004068
-0.235	0.004003
-0.230	0.004087
-0.225	0.004060
-0.220	0.003536
-0.215	0.002698
-0.210	0.002019
-0.205	0.001832
-0.200	0.002308
-0.195	0.002833
-0.190	0.001955
-0.185	0.000566
-0.180	0.000634
-0.175	0.001366
-0.170	0.001210
-0.165	0.000930
-0.160	0.000855
-0.155	-0.000390
-0.150	-0.001454
-0.145	-0.001018
-0.140	-0.002098
-0.135	-0.002517
-0.130	-0.001805
-0.125	-0.001768
-0.120	-0.001746
-0.115	-0.002977
-0.110	-0.004721
-0.105	-0.004382
-0.100	-0.002608
-0.095	-0.001982
-0.090	-0.009043
-0.085	-0.008742
-0.080	-0.002635
-0.075	-0.001745
-0.070	-0.003466
-0.065	-0.002940
-0.060	-0.003116
-0.055	-0.000613
-0.050	-0.002559
-0.045	-0.005842
-0.040	-0.005446
-0.035	-0.000564
-0.030	-0.002835
-0.025	-0.002400
-0.020	-0.002690
-0.015	0.003021
-0.010	-0.004348
-0.005	0.001537
0.000	-0.001049
0.005	-0.001354
0.010	-0.000479
0.015	0.001257
0.020	-0.002579
0.025	0.002893
0.030	0.001279
0.035	0.000497
0.040	0.005354
0.045	0.000513
0.050	0.002345
0.055	0.003402
0.060	0.005646
0.065	0.003072
0.070	0.001174
0.075	0.002306
0.080	0.002431
0.085	0.007342
0.090	0.004873
0.095	0.002551
0.100	0.003430
0.105	0.000894
0.110	0.005534
0.115	0.006916
0.120	0.003127
0.125	0.004220
0.130	0.003511
0.135	0.002938
0.140	0.001645
0.145	0.002226
0.150	0.004978
0.155	0.003738
0.160	0.002135
0.165	0.000862
0.170	-0.001048
0.175	-0.002033
0.180	-0.000969
0.185	-0.000022
0.190	-0.000110
0.195	-0.000652
0.200	-0.001230
0.205	-0.001832
0.210	-0.002983
0.215	-0.004109
0.220	-0.004377
0.225	-0.003749
0.230	-0.002802
0.235	-0.002485
0.240	-0.003073
0.245	-0.003570
0.250	-0.003229
0.255	-0.002842
0.260	-0.003479
0.265	-0.004477
0.270	-0.004969
0.275	-0.004800
0.280	-0.004157
0.285	-0.003610
0.290	-0.003593
0.295	-0.003926
0.300	-0.004447
0.305	-0.005143
0.310	-0.005768
0.315	-0.005962
0.320	-0.005557
0.325	-0.004891
0.330	-0.004249
0.335	-0.003955
0.340	-0.004005
0.345	-0.004212
0.350	-0.004259
0.355	-0.004201
0.360	-0.004149
0.365	-0.004101
0.370	-0.004145
0.375	-0.004176
0.380	-0.004221
0.385	-0.004338
0.390	-0.004669
0.395	-0.005160
0.400	-0.005730
0.405	-0.006076
0.410	-0.006093
0.415	-0.005871
0.420	-0.005545
0.425	-0.005447
0.430	-0.005532
0.435	-0.005855
0.440	-0.006368
0.445	-0.006829
0.450	-0.007206
0.455	-0.007423
0.460	-0.007571
0.465	-0.007616
0.470	-0.007631
0.475	-0.007646
0.480	-0.007733
0.485	-0.007934
0.490	-0.008197
0.495	-0.008562
0.500	-0.008946
0.505	-0.009446
0.510	-0.009991
0.515	-0.010581
0.520	-0.011293
0.525	-0.012048
0.530	-0.012827
0.535	-0.013652
0.540	-0.014595
0.545	-0.015606
0.550	-0.016785
0.555	-0.018163
0.560	-0.019704
0.565	-0.021333
0.570	-0.022950
0.575	-0.024464
0.580	-0.025855
0.585	-0.026904
0.590	-0.027552
0.595	-0.027602
0.600	-0.026959
0.605	-0.025556
0.610	-0.023320
0.615	-0.020509
0.620	-0.017256
0.625	-0.014012
0.630	-0.010762
0.635	-0.007882
0.640	-0.005358
0.645	-0.003459
0.650	-0.002025
0.655	-0.001132
0.660	-0.000583
0.665	-0.000285
0.670	-0.000147
0.675	-0.000049
0.680	0.000015
0.685	0.000084
0.690	0.000172
0.695	0.000256
0.700	0.000344
0.705	0.000467
0.710	0.000609
0.715	0.000692
0.720	0.000766
0.725	0.000844
0.730	0.000918
0.735	0.000996
0.740	0.001070
0.745	0.001129
0.750	0.001208
0.755	0.001321
0.760	0.001389
0.765	0.001453
0.770	0.001494
0.775	0.001524
0.780	0.001546
0.785	0.001581
0.790	0.001637
0.795	0.001666
0.800	0.001758
0.805	0.001794
0.810	0.001819
0.815	0.001849
0.820	0.001824
0.825	0.001809
0.830	0.001789
0.835	0.001808
0.840	0.001864
0.845	0.001971
0.850	0.002067
0.855	0.002072
0.860	0.002059
0.865	0.002043
0.870	0.002018
0.875	0.002033
0.880	0.002032
0.885	0.002008
0.890	0.001981
0.895	0.001985
0.900	0.001959
0.905	0.001935
0.910	0.001962
0.915	0.002031
0.920	0.002108
0.925	0.002144
0.930	0.002145
0.935	0.002106
0.940	0.002105
0.945	0.002086
0.950	0.002026
0.955	0.001972
0.960	0.001914
0.965	0.001849
0.970	0.001774
0.975	0.001725
0.980	0.001652
0.985	0.001572
0.990	0.001508
0.995	0.001464
1.000	0.001450
1.005	0.001494
1.010	0.001552
1.015	0.001606
1.020	0.001631
1.025	0.001582
1.030	0.001562
1.035	0.001523
1.040	0.001503
1.045	0.001469
1.050	0.001431
1.055	0.001411
1.060	0.001347
1.065	0.001323
1.070	0.001245
1.075	0.001152
1.080	0.001082
1.085	0.000989
1.090	0.000955
1.095	0.000921
1.100	0.000847
1.105	0.000758
1.110	0.000680
1.115	0.000636
1.120	0.000621
1.125	0.000621
1.130	0.000641
1.135	0.000641
1.140	0.000621
1.145	0.000597
1.150	0.000582
1.155	0.000557
1.160	0.000582
1.165	0.000557
1.170	0.000523
1.175	0.000405
1.180	0.000155
1.185	-0.000116
1.190	-0.000366
1.195	-0.000577
1.200	-0.000779
1.205	-0.001029
1.210	-0.001353
1.215	-0.001775
1.220	-0.002281
1.225	-0.002779
1.230	-0.003335
1.235	-0.003937
1.240	-0.004621
1.245	-0.005354
1.250	-0.006088
1.255	-0.006646
1.260	-0.006922
1.265	-0.006789
1.270	-0.006194
1.275	-0.005195
1.280	-0.003901
1.285	-0.002520
1.290	-0.000989
1.295	0.000454
1.300	0.001718
1.305	0.002530
1.310	0.002970
1.315	0.003176
1.320	0.003289
1.325	0.003445
1.330	0.003575
1.335	0.003727
1.340	0.003825
1.345	0.003911
1.350	0.003970
1.355	0.004009
1.360	0.004022
1.365	0.004044
1.370	0.004029
1.375	0.004039
1.380	0.003997
1.385	0.003969
1.390	0.003941
1.395	0.003899
1.400	0.003854
1.405	0.003788
1.410	0.003761
1.415	0.003701
1.420	0.003664
1.425	0.003568
1.430	0.003472
1.435	0.003428
1.440	0.003369
1.445	0.003341
1.450	0.003290
1.455	0.003207
1.460	0.003126
1.465	0.003057
1.470	0.002965
1.475	0.002915
1.480	0.002839
1.485	0.002742
1.490	0.002615
1.495	0.002521
1.500	0.002414
1.505	0.002344
1.510	0.002243
1.515	0.002135
1.520	0.002048
1.525	0.002008
1.530	0.001997
1.535	0.001993
1.540	0.002028
1.545	0.002057
1.550	0.002032
1.555	0.001914
1.560	0.001806
1.565	0.001659
1.570	0.001522
1.575	0.001409
1.580	0.001316
1.585	0.001238
1.590	0.001203
1.595	0.001066
1.600	0.000933
1.605	0.000737
1.610	0.000545
1.615	0.000383
1.620	0.000226
1.625	0.000103
1.630	-0.000044
1.635	-0.000349
1.640	-0.000791
1.645	-0.001403
1.650	-0.002222
1.655	-0.003236
1.660	-0.004384
1.665	-0.005602
1.670	-0.006737
1.675	-0.007605
1.680	-0.008071
1.685	-0.007905
1.690	-0.007148
1.695	-0.005890
1.700	-0.004175
1.705	-0.002155
1.710	0.000046
1.715	0.002085
1.720	0.003627
1.725	0.004442
1.730	0.004803
1.735	0.004926
1.740	0.005069
1.745	0.005094
1.750	0.005123
1.755	0.005113
1.760	0.005134
1.765	0.005084
1.770	0.005027
1.775	0.004962
1.780	0.004884
1.785	0.004803
1.790	0.004753
1.795	0.004666
1.800	0.004611
1.805	0.004522
1.810	0.004427
1.815	0.004352
1.820	0.004242
1.825	0.004160
1.830	0.004095
1.835	0.004066
1.840	0.003992
1.845	0.003924
1.850	0.003884
1.855	0.003840
1.860	0.003730
1.865	0.003603
1.870	0.003449
1.875	0.003267
1.880	0.003081
1.885	0.002913
1.890	0.002792
1.895	0.002693
1.900	0.002600
1.905	0.002511
1.910	0.002413
1.915	0.002251
1.920	0.002070
1.925	0.001874
1.930	0.001732
1.935	0.001575
1.940	0.001450
1.945	0.001382
1.950	0.001270
1.955	0.001142
1.960	0.000950
1.965	0.000660
1.970	0.000247
1.975	-0.000313
1.980	-0.001039
1.985	-0.001922
1.990	-0.003050
1.995	-0.004277
2.000	-0.005662
2.005	-0.006997
2.010	-0.008105
2.015	-0.008707
2.020	-0.008481
2.025	-0.007517
2.030	-0.005921
2.035	-0.003921
2.040	-0.001445
2.045	0.001167
2.050	0.003503
2.055	0.004958
2.060	0.005653
2.065	0.005936
2.070	0.006030
2.075	0.006088
2.080	0.006128
2.085	0.006122
2.090	0.006104
2.095	0.006066
2.100	0.006061
2.105	0.006009
2.110	0.005917
2.115	0.005816
2.120	0.005658
2.125	0.005513
2.130	0.005355
2.135	0.005206
2.140	0.005030
2.145	0.004839
2.150	0.004635
2.155	0.004457
2.160	0.004298
2.165	0.004155
2.170	0.003964
2.175	0.003826
2.180	0.003653
2.185	0.003451
2.190	0.003274
2.195	0.003102
2.200	0.002926
2.205	0.002727
2.210	0.002578
2.215	0.002451
2.220	0.002399
2.225	0.002326
2.230	0.002217
2.235	0.002097
2.240	0.001954
2.245	0.001757
2.250	0.001506
2.255	0.001196
2.260	0.000735
2.265	0.000131
2.270	-0.000671
2.275	-0.001704
2.280	-0.003034
2.285	-0.004551
2.290	-0.006231
2.295	-0.007728
2.300	-0.008699
2.305	-0.008763
2.310	-0.007988
2.315	-0.006568
2.320	-0.004519
2.325	-0.001883
2.330	0.001256
2.335	0.004135
2.340	0.005905
2.345	0.006681
2.350	0.006960
2.355	0.007082
2.360	0.007132
2.365	0.007094
2.370	0.007012
2.375	0.006916
2.380	0.006773
2.385	0.006625
2.390	0.006455
2.395	0.006259
2.400	0.006085
2.405	0.005935
2.410	0.005781
2.415	0.005570
2.420	0.005341
2.425	0.005119
2.430	0.004904
2.435	0.004648
2.440	0.004435
2.445	0.004203
2.450	0.003991
2.455	0.003807
2.460	0.003625
2.465	0.003481
2.470	0.003362
2.475	0.003265
2.480	0.003152
2.485	0.003007
2.490	0.002871
2.495	0.002696
2.500	0.002436
2.505	0.002112
2.510	0.001715
2.515	0.001209
2.520	0.000584
2.525	-0.000267
2.530	-0.001416
2.535	-0.002914
2.540	-0.004757
2.545	-0.006548
2.550	-0.008128
2.555	-0.008907
2.560	-0.008605
2.565	-0.007388
2.570	-0.005598
2.575	-0.003109
2.580	0.000231
2.585	0.003672
2.590	0.006206
2.595	0.007347
2.600	0.007751
2.605	0.007857
2.610	0.007851
2.615	0.007820
2.620	0.007747
2.625	0.007622
2.630	0.007477
2.635	0.007323
2.640	0.007133
2.645	0.006916
2.650	0.006706
2.655	0.006457
2.660	0.006217
2.665	0.005977
2.670	0.005690
2.675	0.005394
2.680	0.005114
2.685	0.004890
2.690	0.004636
2.695	0.004409
2.700	0.004210
2.705	0.003999
2.710	0.003788
2.715	0.003642
2.720	0.003411
2.725	0.003217
2.730	0.002973
2.735	0.002728
2.740	0.002463
2.745	0.002025
2.750	0.001417
2.755	0.000566
2.760	-0.000699
2.765	-0.002234
2.770	-0.004053
2.775	-0.006046
2.780	-0.007821
2.785	-0.008872
2.790	-0.008790
2.795	-0.007652
2.800	-0.005775
2.805	-0.003168
2.810	0.000276
2.815	0.004006
2.820	0.006881
2.825	0.008198
2.830	0.008633
2.835	0.008740
2.840	0.008705
2.845	0.008550
2.850	0.008383
2.855	0.008190
2.860	0.007972
2.865	0.007729
2.870	0.007481
2.875	0.007214
2.880	0.006939
2.885	0.006650
2.890	0.006362
2.895	0.006101
2.900	0.005828
2.905	0.005549
2.910	0.005290
2.915	0.005050
2.920	0.004765
2.925	0.004510
2.930	0.004284
2.935	0.004059
2.940	0.003866
2.945	0.003632
2.950	0.003277
2.955	0.002838
2.960	0.002302
2.965	0.001538
2.970	0.000493
2.975	-0.000898
2.980	-0.002700
2.985	-0.004744
2.990	-0.006801
2.995	-0.008367
3.000	-0.008939
3.005	-0.008334
3.010	-0.006896
3.015	-0.004814
3.020	-0.001769
3.025	0.001842
3.030	0.005481
3.035	0.007900
3.040	0.009046
3.045	0.009323
3.050	0.009369
3.055	0.009293
3.060	0.009141
3.065	0.008915
3.070	0.008668
3.075	0.008388
3.080	0.008142
3.085	0.007867
3.090	0.007593
3.095	0.007311
3.100	0.007009
3.105	0.006713
3.110	0.006370
3.115	0.006060
3.120	0.005765
3.125	0.005464
3.130	0.005181
3.135	0.004919
3.140	0.004637
3.145	0.004332
3.150	0.004018
3.155	0.003613
3.160	0.003107
3.165	0.002379
3.170	0.001364
3.175	0.000027
3.180	-0.001683
3.185	-0.003742
3.190	-0.005984
3.195	-0.007786
3.200	-0.008687
3.205	-0.008243
3.210	-0.006830
3.215	-0.004768
3.220	-0.001723
3.225	0.002082
3.230	0.006018
3.235	0.008745
3.240	0.009921
3.245	0.010209
3.250	0.010190
3.255	0.010024
3.260	0.009814
3.265	0.009564
3.270	0.009265
3.275	0.008950
3.280	0.008619
3.285	0.008314
3.290	0.007989
3.295	0.007681
3.300	0.007359
3.305	0.007047
3.310	0.006719
3.315	0.006376
3.320	0.006038
3.325	0.005725
3.330	0.005397
3.335	0.005029
3.340	0.004615
3.345	0.004181
3.350	0.003640
3.355	0.002890
3.360	0.001786
3.365	0.000254
3.370	-0.001703
3.375	-0.003981
3.380	-0.006295
3.385	-0.007992
3.390	-0.008415
3.395	-0.007574
3.400	-0.005849
3.405	-0.003319
3.410	0.000308
3.415	0.004632
3.420	0.008413
3.425	0.010495
3.430	0.011267
3.435	0.011361
3.440	0.011279
3.445	0.011092
3.450	0.010831
3.455	0.010564
3.460	0.010198
3.465	0.009858
3.470	0.009465
3.475	0.009085
3.480	0.008725
3.485	0.008323
3.490	0.007942
3.495	0.007566
3.500	0.007199
3.505	0.006830
3.510	0.006488
3.515	0.006208
3.520	0.005853
3.525	0.005415
3.530	0.004754
3.535	0.003883
3.540	0.002539
3.545	0.000811
3.550	-0.001391
3.555	-0.003764
3.560	-0.005966
3.565	-0.007088
3.570	-0.006808
3.575	-0.005382
3.580	-0.003136
3.585	0.000057
3.590	0.004259
3.595	0.008668
3.600	0.012046
3.605	0.013648
3.610	0.014124
3.615	0.014158
3.620	0.013998
3.625	0.013716
3.630	0.013382
3.635	0.012999
3.640	0.012553
3.645	0.012071
3.650	0.011562
3.655	0.011038
3.660	0.010564
3.665	0.010034
3.670	0.009546
3.675	0.009020
3.680	0.008483
3.685	0.007887
3.690	0.007182
3.695	0.006272
3.700	0.005062
3.705	0.003460
3.710	0.001304
3.715	-0.001290
3.720	-0.004052
3.725	-0.006287
3.730	-0.007111
3.735	-0.006016
3.740	-0.003935
3.745	-0.001595
3.750	0.001746
3.755	0.005979
3.760	0.010265
3.765	0.012231
3.770	0.011663
3.775	0.010385
3.780	0.009135
3.785	0.008106
3.790	0.007231
3.795	0.006512
3.800	0.005907
3.805	0.005371
3.810	0.004938
3.815	0.004544
3.820	0.004270
3.825	0.004006
3.830	0.003803
3.835	0.003614
3.840	0.003460
3.845	0.003353
3.850	0.003276
3.855	0.003173
3.860	0.003138
3.865	0.003093
3.870	0.003018
3.875	0.003023
3.880	0.003000
3.885	0.002977
3.890	0.002950
3.895	0.002939
3.900	0.002930
3.905	0.002930
3.910	0.002933
3.915	0.002898
3.920	0.002891
3.925	0.002889
3.930	0.002910
3.935	0.002890
3.940	0.002902
3.945	0.002915
3.950	0.002913
3.955	0.002908
3.960	0.002921
3.965	0.002904
3.970	0.002924
3.975	0.002909
3.980	0.002921
3.985	0.002915
3.990	0.002930
3.995	0.002930
4.000	0.002922
4.005	0.002921
4.010	0.002931
4.015	0.002931
4.020	0.002915
4.025	0.002916
4.030	0.002915
4.035	0.002950
4.040	0.002938
4.045	0.002930
4.050	0.002932
4.055	0.002950
4.060	0.002936
4.065	0.002959
4.070	0.002941
4.075	0.002961
4.080	0.002976
4.085	0.002955
4.090	0.002961
4.095	0.002967
4.100	0.002955
4.105	0.002948
4.110	0.002943
4.115	0.002952
4.120	0.002946
4.125	0.002986
4.130	0.003016
4.135	0.003002
4.140	0.003000
4.145	0.003006
4.150	0.003039
4.155	0.003030
4.160	0.003040
4.165	0.003057
4.170	0.003042
4.175	0.003041
4.180	0.003103
4.185	0.003050
4.190	0.003047
4.195	0.003046
4.200	0.003074
4.205	0.003090
4.210	0.003084
4.215	0.003069
4.220	0.003098
4.225	0.003089
4.230	0.003074
4.235	0.003109
4.240	0.003102
4.245	0.003114
4.250	0.003094
4.255	0.003104
4.260	0.003101
4.265	0.003114
4.270	0.003129
4.275	0.003129
4.280	0.003139
4.285	0.003118
4.290	0.003121
4.295	0.003122
4.300	0.003159
4.305	0.003167
4.310	0.003164
4.315	0.003173
4.320	0.003180
4.325	0.003189
4.330	0.003204
4.335	0.003198
4.340	0.003194
4.345	0.003202
4.350	0.003205
4.355	0.003211
4.360	0.003247
4.365	0.003222
4.370	0.003233
4.375	0.003249
4.380	0.003244
4.385	0.003230
4.390	0.003255
4.395	0.003240
4.400	0.003246
4.405	0.003298
4.410	0.003260
4.415	0.003279
4.420	0.003282
4.425	0.003275
4.430	0.003273
4.435	0.003269
4.440	0.003274
4.445	0.003263
4.450	0.003272
4.455	0.003305
4.460	0.003287
4.465	0.003327
4.470	0.003331
4.475	0.003338
4.480	0.003334
4.485	0.003328
4.490	0.003338
4.495	0.003377
4.500	0.003339
4.505	0.003372
4.510	0.003386
4.515	0.003381
4.520	0.003362
4.525	0.003385
4.530	0.003408
4.535	0.003398
4.540	0.003395
4.545	0.003397
4.550	0.003409
4.555	0.003385
4.560	0.003424
4.565	0.003416
4.570	0.003408
4.575	0.003429
4.580	0.003438
4.585	0.003442
4.590	0.003446
4.595	0.003450
4.600	0.003465
4.605	0.003469
4.610	0.003468
4.615	0.003486
4.620	0.003481
4.625	0.003484
4.630	0.003504
4.635	0.003503
4.640	0.003499
4.645	0.003508
4.650	0.003508
4.655	0.003523
4.660	0.003537
4.665	0.003520
4.670	0.003536
4.675	0.003546
4.680	0.003550
4.685	0.003544
4.690	0.003534
4.695	0.003543
4.700	0.003558
4.705	0.003575
4.710	0.003585
4.715	0.003577
4.720	0.003579
4.725	0.003593
4.730	0.003592
4.735	0.003631
4.740	0.003624
4.745	0.003626
4.750	0.003623
4.755	0.003634
4.760	0.003627
4.765	0.003631
4.770	0.003666
4.775	0.003655
4.780	0.003632
4.785	0.003650
4.790	0.003675
4.795	0.003679
4.800	0.003691
4.805	0.003668
4.810	0.003695
4.815	0.003672
4.820	0.003733
4.825	0.003706
4.830	0.003722
4.835	0.003721
4.840	0.003735
4.845	0.003706
4.850	0.003735
4.855	0.003745
4.860	0.003749
4.865	0.003765
4.870	0.003764
4.875	0.003774
4.880	0.003776
4.885	0.003784
4.890	0.003776
4.895	0.003830
4.900	0.003817
4.905	0.003790
4.910	0.003796
4.915	0.003819
4.920	0.003834
4.925	0.003815
4.930	0.003834
4.935	0.003813
4.940	0.003831
4.945	0.003868
4.950	0.003840
4.955	0.003846
4.960	0.003854
4.965	0.003884
4.970	0.003868
4.975	0.003865
4.980	0.003889
4.985	0.003892
4.990	0.003894
4.995	0.003919
5.000	0.003916
5.005	0.003912
5.010	0.003920
5.015	0.003940
5.020	0.003938
5.025	0.003953
5.030	0.003942
5.035	0.003966
5.040	0.003956
5.045	0.003948
5.050	0.003962
5.055	0.003962
5.060	0.003984
5.065	0.003988
5.070	0.003965
5.075	0.003994
5.080	0.003971
5.085	0.003998
5.090	0.004006
5.095	0.004002
5.100	0.004021
5.105	0.004037
5.110	0.004026
5.115	0.004027
5.120	0.004061
5.125	0.004050
5.130	0.004061
5.135	0.004078
5.140	0.004058
5.145	0.004055
5.150	0.004089
5.155	0.004100
5.160	0.004086
5.165	0.004095
5.170	0.004103
5.175	0.004109
5.180	0.004110
5.185	0.004129
5.190	0.004117
5.195	0.004111
5.200	0.004133
5.205	0.004150
5.210	0.004159
5.215	0.004172
5.220	0.004164
5.225	0.004172
5.230	0.004180
5.235	0.004189
5.240	0.004197
5.245	0.004207
5.250	0.004225
5.255	0.004214
5.260	0.004242
5.265	0.004218
5.270	0.004243
5.275	0.004236
5.280	0.004243
5.285	0.004247
5.290	0.004254
5.295	0.004254
5.300	0.004272
5.305	0.004269
5.310	0.004268
5.315	0.004289
5.320	0.004291
5.325	0.004303
5.330	0.004315
5.335	0.004306
5.340	0.004326
5.345	0.004310
5.350	0.004329
5.355	0.004323
5.360	0.004346
5.365	0.004347
5.370	0.004350
5.375	0.004361
5.380	0.004387
5.385	0.004410
5.390	0.004390
5.395	0.004386
5.400	0.004406
5.405	0.004400
5.410	0.004402
5.415	0.004417
5.420	0.004434
5.425	0.004413
5.430	0.004435
5.435	0.004449
5.440	0.004449
5.445	0.004466
5.450	0.004443
5.455	0.004462
5.460	0.004476
5.465	0.004493
5.470	0.004481
5.475	0.004506
5.480	0.004510
5.485	0.004514
5.490	0.004530
5.495	0.004545
5.500	0.004549
5.505	0.004536
5.510	0.004559
5.515	0.004536
5.520	0.004556
5.525	0.004564
5.530	0.004574
5.535	0.004568
5.540	0.004571
5.545	0.004607
5.550	0.004607
5.555	0.004619
5.560	0.004641
5.565	0.004614
5.570	0.004644
5.575	0.004635
5.580	0.004643
5.585	0.004654
5.590	0.004663
5.595	0.004641
5.600	0.004641
5.605	0.004701
5.610	0.004699
5.615	0.004686
5.620	0.004691
5.625	0.004701
5.630	0.004711
5.635	0.004723
5.640	0.004725
5.645	0.004752
5.650	0.004729
5.655	0.004750
5.660	0.004762
5.665	0.004760
5.670	0.004751
5.675	0.004779
5.680	0.004792
5.685	0.004785
5.690	0.004803
5.695	0.004817
5.700	0.004811
5.705	0.004831
5.710	0.004826
5.715	0.004834
5.720	0.004830
5.725	0.004856
5.730	0.004842
5.735	0.004861
5.740	0.004879
5.745	0.004870
5.750	0.004887
5.755	0.004896
5.760	0.004917
5.765	0.004894
5.770	0.004918
5.775	0.004907
5.780	0.004950
5.785	0.004947
5.790	0.004939
5.795	0.004926
5.800	0.004970
5.805	0.004973
5.810	0.004979
5.815	0.004972
5.820	0.004990
5.825	0.004991
5.830	0.005004
5.835	0.005002
5.840	0.005035
5.845	0.005040
5.850	0.005044
5.855	0.005038
5.860	0.005074
5.865	0.005072
5.870	0.005055
5.875	0.005074
5.880	0.005091
5.885	0.005099
5.890	0.005106
5.895	0.005129
5.900	0.005124
5.905	0.005120
5.910	0.005131
5.915	0.005136
5.920	0.005148
5.925	0.005172
5.930	0.005171
5.935	0.005199
5.940	0.005184
5.945	0.005199
5.950	0.005186
5.955	0.005205
5.960	0.005216
5.965	0.005223
5.970	0.005253
5.975	0.005268
5.980	0.005283
5.985	0.005276
5.990	0.005259
5.995	0.005292
6.000	0.005290
6.005	0.005312
6.010	0.005300
6.015	0.005345
6.020	0.005331
6.025	0.005344
6.030	0.005342
6.035	0.005361
6.040	0.005368
6.045	0.005385
6.050	0.005390
6.055	0.005377
6.060	0.005390
6.065	0.005400
6.070	0.005425
6.075	0.005420
6.080	0.005435
6.085	0.005466
6.090	0.005440
6.095	0.005438
6.100	0.005459
6.105	0.005486
6.110	0.005480
6.115	0.005482
6.120	0.005526
6.125	0.005530
6.130	0.005531
6.135	0.005524
6.140	0.005548
6.145	0.005548
6.150	0.005580
6.155	0.005582
6.160	0.005590
6.165	0.005590
6.170	0.005596
6.175	0.005620
6.180	0.005610
6.185	0.005618
6.190	0.005628
6.195	0.005666
6.200	0.005661
6.205	0.005668
6.210	0.005698
6.215	0.005683
6.220	0.005701
6.225	0.005720
6.230	0.005681
6.235	0.005710
6.240	0.005739
6.245	0.005737
6.250	0.005754
6.255	0.005749
6.260	0.005765
6.265	0.005782
6.270	0.005802
6.275	0.005794
6.280	0.005803
6.285	0.005806
6.290	0.005825
6.295	0.005828
6.300	0.005862
6.305	0.005842
6.310	0.005871
6.315	0.005891
6.320	0.005883
6.325	0.005897
6.330	0.005924
6.335	0.005924
6.340	0.005928
6.345	0.005960
6.350	0.005967
6.355	0.005959
6.360	0.005968
6.365	0.005982
6.370	0.006012
6.375	0.005991
6.380	0.006001
6.385	0.006018
6.390	0.006008
6.395	0.006030
6.400	0.006048
6.405	0.006073
6.410	0.006073
6.415	0.006087
6.420	0.006088
6.425	0.006119
6.430	0.006110
6.435	0.006113
6.440	0.006134
6.445	0.006135
6.450	0.006167
6.455	0.006168
6.460	0.006186
6.465	0.006187
6.470	0.006207
6.475	0.006196
6.480	0.006211
6.485	0.006235
6.490	0.006241
6.495	0.006269
6.500	0.006270
6.505	0.006259
6.510	0.006278
6.515	0.006297
6.520	0.006302
6.525	0.006325
6.530	0.006334
6.535	0.006341
6.540	0.006354
6.545	0.006354
6.550	0.006373
6.555	0.006402
6.560	0.006412
6.565	0.006405
6.570	0.006392
6.575	0.006422
6.580	0.006432
6.585	0.006437
6.590	0.006462
6.595	0.006483
6.600	0.006509
6.605	0.006506
6.610	0.006502
6.615	0.006518
6.620	0.006553
6.625	0.006550
6.630	0.006530
6.635	0.006568
6.640	0.006582
6.645	0.006596
6.650	0.006594
6.655	0.006580
6.660	0.006633
6.665	0.006627
6.670	0.006648
6.675	0.006648
6.680	0.006665
6.685	0.006684
6.690	0.006688
6.695	0.006676
6.700	0.006725
6.705	0.006735
6.710	0.006754
6.715	0.006738
6.720	0.006773
6.725	0.006766
6.730	0.006777
6.735	0.006810
6.740	0.006824
6.745	0.006830
6.750	0.006853
6.755	0.006853
6.760	0.006861
6.765	0.006884
6.770	0.006901
6.775	0.006904
6.780	0.006917
6.785	0.006936
6.790	0.006956
6.795	0.006949
6.800	0.006994
6.805	0.006993
6.810	0.007023
6.815	0.007009
6.820	0.007042
6.825	0.007055
6.830	0.007059
6.835	0.007085
6.840	0.007083
6.845	0.007089
6.850	0.007100
6.855	0.007125
6.860	0.007154
6.865	0.007170
6.870	0.007179
6.875	0.007161
6.880	0.007210
6.885	0.007230
6.890	0.007238
6.895	0.007218
6.900	0.007266
6.905	0.007271
6.910	0.007282
6.915	0.007299
6.920	0.007309
6.925	0.007319
6.930	0.007317
6.935	0.007334
6.940	0.007377
6.945	0.007372
6.950	0.007390
6.955	0.007401
6.960	0.007423
6.965	0.007446
6.970	0.007451
6.975	0.007453
6.980	0.007480
6.985	0.007501
6.990	0.007497
6.995	0.007502
7.000	0.007530
7.005	0.007537
7.010	0.007554
7.015	0.007568
7.020	0.007587
7.025	0.007606
7.030	0.007621
7.035	0.007628
7.040	0.007642
7.045	0.007686
7.050	0.007686
7.055	0.007685
7.060	0.007707
7.065	0.007716
7.070	0.007763
7.075	0.007771
7.080	0.007784
7.085	0.007800
7.090	0.007818
7.095	0.007848
7.100	0.007838
7.105	0.007861
7.110	0.007886
7.115	0.007918
7.120	0.007922
7.125	0.007927
7.130	0.007973
7.135	0.007978
7.140	0.007992
7.145	0.008032
7.150	0.008056
7.155	0.008068
7.160	0.008085
7.165	0.008084
7.170	0.008107
7.175	0.008113
7.180	0.008139
7.185	0.008177
7.190	0.008181
7.195	0.008214
7.200	0.008231
7.205	0.008236
7.210	0.008262
7.215	0.008267
7.220	0.008296
7.225	0.008310
7.230	0.008365
7.235	0.008363
7.240	0.008408
7.245	0.008401
7.250	0.008402
7.255	0.008459
7.260	0.008440
7.265	0.008454
7.270	0.008484
7.275	0.008495
7.280	0.008532
7.285	0.008543
7.290	0.008560
7.295	0.008599
7.300	0.008585
7.305	0.008646
7.310	0.008675
7.315	0.008674
7.320	0.008684
7.325	0.008721
7.330	0.008735
7.335	0.008756
7.340	0.008769
7.345	0.008788
7.350	0.008829
7.355	0.008844
7.360	0.008867
7.365	0.008891
7.370	0.008899
7.375	0.008926
7.380	0.008955
7.385	0.008961
7.390	0.008985
7.395	0.009005
7.400	0.009039
7.405	0.009071
7.410	0.009068
7.415	0.009119
7.420	0.009142
7.425	0.009158
7.430	0.009166
7.435	0.009218
7.440	0.009240
7.445	0.009257
7.450	0.009270
7.455	0.009309
7.460	0.009311
7.465	0.009359
7.470	0.009377
7.475	0.009403
7.480	0.009421
7.485	0.009450
7.490	0.009476
7.495	0.009476
7.500	0.009523
7.505	0.009560
7.510	0.009563
7.515	0.009571
7.520	0.009622
7.525	0.009658
7.530	0.009671
7.535	0.009688
7.540	0.009738
7.545	0.009756
7.550	0.009791
7.555	0.009793
7.560	0.009814
7.565	0.009862
7.570	0.009870
7.575	0.009902
7.580	0.009917
7.585	0.009947
7.590	0.009989
7.595	0.010022
7.600	0.010028
7.605	0.010065
7.610	0.010076
7.615	0.010112
7.620	0.010158
7.625	0.010181
7.630	0.010212
7.635	0.010234
7.640	0.010252
7.645	0.010287
7.650	0.010335
7.655	0.010359
7.660	0.010399
7.665	0.010396
7.670	0.010441
7.675	0.010458
7.680	0.010510
7.685	0.010529
7.690	0.010582
7.695	0.010595
7.700	0.010621
7.705	0.010651
7.710	0.010690
7.715	0.010717
7.720	0.010742
7.725	0.010795
7.730	0.010817
7.735	0.010860
7.740	0.010900
7.745	0.010936
7.750	0.010969
7.755	0.010969
7.760	0.011025
7.765	0.011067
7.770	0.011097
7.775	0.011155
7.780	0.011189
7.785	0.011236
7.790	0.011255
7.795	0.011271
7.800	0.011347
7.805	0.011364
7.810	0.011399
7.815	0.011408
7.820	0.011450
7.825	0.011511
7.830	0.011547
7.835	0.011591
7.840	0.011637
7.845	0.011673
7.850	0.011703
7.855	0.011774
7.860	0.011786
7.865	0.011825
7.870	0.011895
7.875	0.011935
7.880	0.011977
7.885	0.012018
7.890	0.012070
7.895	0.012092
7.900	0.012135
7.905	0.012182
7.910	0.012224
7.915	0.012290
7.920	0.012327
7.925	0.012372
7.930	0.012428
7.935	0.012464
7.940	0.012488
7.945	0.012540
7.950	0.012600
7.955	0.012649
7.960	0.012702
7.965	0.012764
7.970	0.012802
7.975	0.012838
7.980	0.012917
7.985	0.012956
7.990	0.013005
7.995	0.013062
8.000	0.013106
8.005	0.013171
8.010	0.013204
8.015	0.013285
8.020	0.013339
8.025	0.013387
8.030	0.013455
8.035	0.013495
8.040	0.013552
8.045	0.013639
8.050	0.013667
8.055	0.013731
8.060	0.013795
8.065	0.013839
8.070	0.013942
8.075	0.013975
8.080	0.014040
8.085	0.014137
8.090	0.014193
8.095	0.014253
8.100	0.014331
8.105	0.014401
8.110	0.014433
8.115	0.014502
8.120	0.014599
8.125	0.014684
8.130	0.014740
8.135	0.014803
8.140	0.014880
8.145	0.014971
8.150	0.015033
8.155	0.015138
8.160	0.015185
8.165	0.015283
8.170	0.015348
8.175	0.015432
8.180	0.015524
8.185	0.015588
8.190	0.015685
8.195	0.015765
8.200	0.015843
8.205	0.015936
8.210	0.016009
8.215	0.016138
8.220	0.016217
8.225	0.016320
8.230	0.016399
8.235	0.016497
8.240	0.016611
8.245	0.016672
8.250	0.016784
8.255	0.016892
8.260	0.017011
8.265	0.017127
8.270	0.017214
8.275	0.017319
8.280	0.017425
8.285	0.017539
8.290	0.017654
8.295	0.017767
8.300	0.017882
8.305	0.018018
8.310	0.018151
8.315	0.018288
8.320	0.018407
8.325	0.018542
8.330	0.018643
8.335	0.018800
8.340	0.018952
8.345	0.019041
8.350	0.019199
8.355	0.019361
8.360	0.019496
8.365	0.019667
8.370	0.019806
8.375	0.019958
8.380	0.020146
8.385	0.020297
8.390	0.020489
8.395	0.020647
8.400	0.020863
8.405	0.021021
8.410	0.021200
8.415	0.021436
8.420	0.021624
8.425	0.021810
8.430	0.022046
8.435	0.022228
8.440	0.022497
8.445	0.022739
8.450	0.022959
8.455	0.023210
8.460	0.023476
8.465	0.023722
8.470	0.024016
8.475	0.024302
8.480	0.024601
8.485	0.024913
8.490	0.025230
8.495	0.025555
8.500	0.025912
8.505	0.026273
8.510	0.026672
8.515	0.027068
8.520	0.027522
8.525	0.027965
8.530	0.028418
8.535	0.028915
8.540	0.029464
8.545	0.030023
8.550	0.030600
8.555	0.031229
8.560	0.031919
8.565	0.032643
8.570	0.033438
8.575	0.034278
8.580	0.035148
8.585	0.036151
8.590	0.037198
8.595	0.038385
8.600	0.039720
8.605	0.041055
8.610	0.042431
8.615	0.043738
8.620	0.045125
8.625	0.046874
8.630	0.049202
8.635	0.051917
8.640	0.055435
8.645	0.060007
8.650	0.066685
8.655	0.076026
8.660	0.086235
8.665	0.091856
8.670	0.095148
8.675	0.094578
8.680	0.089599
8.685	0.078740
8.690	0.064426
8.695	0.049736
8.700	0.034135
8.705	0.020460
8.710	0.009162
8.715	0.002721
8.720	0.000620
8.725	0.000230
8.730	0.000171
8.735	0.000107
8.740	0.000122
8.745	0.000107
8.750	0.000062
8.755	0.000097
8.760	0.000087
8.765	0.000097
8.770	0.000047
8.775	0.000067
8.780	0.000087
8.785	0.000073
8.790	0.000033
8.795	0.000072
8.800	0.000073
8.805	0.000063
8.810	0.000067
8.815	0.000053
8.820	0.000053
8.825	0.000048
8.830	0.000053
8.835	0.000033
8.840	0.000068
8.845	0.000058
8.850	0.000043
8.855	0.000038
8.860	0.000033
8.865	0.000038
8.870	0.000043
8.875	0.000033
8.880	0.000038
8.885	0.000033
8.890	0.000028
8.895	0.000043
8.900	0.000038
8.905	0.000028
8.910	0.000039
8.915	0.000053
8.920	0.000029
8.925	0.000038
8.930	0.000048
8.935	0.000019
8.940	0.000034
8.945	0.000024
8.950	0.000039
8.955	0.000034
8.960	0.000029
8.965	0.000034
8.970	0.000019
8.975	0.000058
8.980	0.000039
8.985	0.000034
8.990	0.000034
8.995	0.000039
9.000	0.000044
9.005	0.000039
9.010	0.000039
9.015	0.000044
9.020	0.000039
9.025	0.000049
9.030	0.000029
9.035	0.000025
9.040	0.000029
9.045	0.000054
9.050	0.000044
9.055	0.000025
9.060	0.000024
9.065	0.000029
9.070	0.000049
9.075	0.000054
9.080	0.000049
9.085	0.000054
9.090	0.000035
9.095	0.000035
9.100	0.000015
9.105	0.000050
9.110	0.000045
9.115	0.000055
9.120	0.000025
9.125	0.000060
9.130	0.000035
9.135	0.000060
9.140	0.000040
9.145	0.000035
9.150	0.000060
9.155	0.000045
9.160	0.000055
9.165	0.000035
9.170	0.000035
9.175	0.000050
9.180	0.000050
9.185	0.000055
9.190	0.000040
9.195	0.000045
9.200	0.000040
9.205	0.000045
9.210	0.000050
9.215	0.000045
9.220	0.000055
9.225	0.000040
9.230	0.000045
9.235	0.000041
9.240	0.000075
9.245	0.000060
9.250	0.000045
9.255	0.000065
9.260	0.000055
9.265	0.000065
9.270	0.000065
9.275	0.000055
9.280	0.000050
9.285	0.000046
9.290	0.000055
9.295	0.000070
9.300	0.000066
9.305	0.000075
9.310	0.000051
9.315	0.000070
9.320	0.000075
9.325	0.000080
9.330	0.000060
9.335	0.000060
9.340	0.000095
9.345	0.000095
9.350	0.000085
9.355	0.000100
9.360	0.000125
9.365	0.000110
9.370	0.000100
9.375	0.000140
9.380	0.000115
9.385	0.000179
9.390	0.000184
9.395	0.000155
9.400	0.000145
9.405	0.000150
9.410	0.000115
9.415	0.000066
9.420	0.000056
9.425	0.000012
9.430	0.000041
9.435	0.000022
9.440	-0.000008
9.445	-0.000003
9.450	0.000002
9.455	-0.000003
9.460	0.000007
9.465	-0.000008
9.470	-0.000042
9.475	0.000002
9.480	0.000002
9.485	0.000027
9.490	-0.000003
9.495	-0.000013
9.500	-0.000013
9.505	-0.000007
9.510	-0.000017
9.515	-0.000007
9.520	-0.000008
9.525	0.000022
9.530	-0.000017
9.535	-0.000003
9.540	-0.000007
9.545	0.000003
9.550	-0.000012
9.555	-0.000017
9.560	-0.000002
9.565	-0.000002
9.570	-0.000008
9.575	-0.000002
9.580	0.000013
9.585	0.000032
9.590	0.000003
9.595	0.000008
9.600	0.000022
9.605	-0.000022
9.610	0.000003
9.615	0.000003
9.620	-0.000007
9.625	-0.000012
9.630	-0.000017
9.635	-0.000017
9.640	-0.000047
9.645	0.000003
9.650	0.000008
9.655	-0.000002
9.660	-0.000032
9.665	-0.000017
9.670	-0.000042
9.675	-0.000007
9.680	-0.000012
9.685	-0.000012
9.690	-0.000047
9.695	-0.000007
9.700	-0.000016
9.705	0.000003
9.710	-0.000021
9.715	-0.000021
9.720	-0.000002
9.725	-0.000011
9.730	-0.000016
9.735	-0.000011
9.740	-0.000016
9.745	-0.000031
9.750	-0.000011
9.755	-0.000031
9.760	-0.000017
9.765	-0.000011
9.770	-0.000036
9.775	-0.000011
9.780	-0.000021
9.785	-0.000026
9.790	-0.000021
9.795	-0.000011
9.800	-0.000017
9.805	-0.000026
9.810	-0.000026
9.815	-0.000016
9.820	-0.000041
9.825	-0.000026
9.830	-0.000021
9.835	-0.000026
9.840	-0.000021
9.845	-0.000041
9.850	-0.000021
9.855	-0.000031
9.860	-0.000031
9.865	-0.000046
9.870	-0.000026
9.875	-0.000041
9.880	-0.000031
9.885	-0.000016
9.890	-0.000041
9.895	-0.000026
9.900	-0.000016
9.905	-0.000026
9.910	-0.000026
9.915	-0.000026
9.920	-0.000036
9.925	-0.000021
9.930	-0.000016
9.935	-0.000026
9.940	-0.000026
9.945	-0.000006
9.950	-0.000046
9.955	-0.000026
9.960	-0.000016
9.965	-0.000036
9.970	-0.000045
9.975	-0.000021
9.980	-0.000040
9.985	-0.000021
9.990	-0.000040
9.995	-0.000011
10.000	-0.000026
10.005	-0.000026
10.010	-0.000035
10.015	-0.000016
10.020	-0.000025
10.025	-0.000001
10.030	-0.000030
10.035	-0.000026
10.040	-0.000020
10.045	-0.000020
10.050	-0.000045
10.055	-0.000040
10.060	-0.000015
10.065	-0.000015
10.070	-0.000050
10.075	-0.000030
10.080	-0.000010
10.085	-0.000015
10.090	-0.000040
10.095	-0.000065
10.100	-0.000010
10.105	-0.000030
10.110	-0.000015
10.115	-0.000020
10.120	-0.000020
10.125	-0.000000
10.130	-0.000040
10.135	-0.000020
10.140	-0.000030
10.145	-0.000030
10.150	-0.000035
10.155	-0.000010
10.160	-0.000015
10.165	-0.000025
10.170	-0.000029
10.175	-0.000015
10.180	-0.000020
10.185	-0.000034
10.190	-0.000010
10.195	-0.000034
10.200	-0.000039
10.205	-0.000034
10.210	-0.000039
10.215	-0.000019
10.220	-0.000044
10.225	-0.000034
10.230	-0.000014
10.235	-0.000029
10.240	-0.000039
10.245	-0.000039
10.250	-0.000004
10.255	-0.000024
10.260	-0.000019
10.265	-0.000039
10.270	-0.000038
10.275	-0.000014
10.280	-0.000049
10.285	-0.000029
10.290	-0.000004
10.295	-0.000019
10.300	-0.000024
10.305	-0.000009
10.310	-0.000009
10.315	-0.000019
10.320	-0.000039
10.325	-0.000024
10.330	-0.000033
10.335	-0.000019
10.340	-0.000034
10.345	-0.000014
10.350	0.000002
10.355	-0.000033
10.360	-0.000014
10.365	-0.000023
10.370	-0.000008
10.375	0.000007
10.380	0.000011
10.385	-0.000023
10.390	-0.000028
10.395	-0.000028
10.400	-0.000008
10.405	-0.000028
10.410	-0.000018
10.415	-0.000018
10.420	-0.000008
10.425	-0.000013
10.430	-0.000013
10.435	-0.000013
10.440	-0.000023
10.445	-0.000013
10.450	-0.000033
10.455	-0.000023
10.460	-0.000003
10.465	0.000007
10.470	-0.000033
10.475	-0.000033
10.480	-0.000018
10.485	-0.000028
10.490	-0.000038
10.495	-0.000018
10.500	-0.000013
10.505	-0.000023
10.510	-0.000033
10.515	-0.000023
10.520	-0.000033
10.525	-0.000018
10.530	-0.000003
10.535	-0.000028
10.540	-0.000008
10.545	-0.000013
10.550	-0.000008
10.555	-0.000028
10.560	-0.000018
10.565	-0.000023
10.570	-0.000028
10.575	-0.000033
10.580	-0.000028
10.585	-0.000023
10.590	-0.000018
10.595	-0.000032
10.600	-0.000047
10.605	-0.000027
10.610	-0.000022
10.615	-0.000007
10.620	-0.000013
10.625	-0.000003
10.630	-0.000012
10.635	-0.000037
10.640	-0.000003
10.645	-0.000037
10.650	-0.000022
10.655	-0.000027
10.660	-0.000022
10.665	-0.000027
10.670	-0.000027
10.675	-0.000002
10.680	-0.000022
10.685	-0.000037
10.690	-0.000017
10.695	-0.000007
10.700	-0.000032
10.705	-0.000022
10.710	-0.000011
10.715	-0.000031
10.720	-0.000022
10.725	-0.000056
10.730	-0.000021
10.735	-0.000002
10.740	-0.000036
10.745	-0.000036
10.750	-0.000016
10.755	-0.000031
10.760	-0.000022
10.765	-0.000031
10.770	-0.000026
10.775	-0.000016
10.780	-0.000027
10.785	-0.000032
10.790	-0.000016
10.795	-0.000012
10.800	-0.000032
10.805	-0.000022
10.810	-0.000031
10.815	-0.000012
10.820	-0.000027
10.825	-0.000051
10.830	-0.000021
10.835	-0.000036
10.840	-0.000031
10.845	-0.000031
10.850	-0.000016
10.855	-0.000011
10.860	-0.000036
10.865	-0.000016
10.870	-0.000031
10.875	-0.000026
10.880	-0.000046
10.885	-0.000036
10.890	-0.000021
10.895	-0.000041
10.900	-0.000021
10.905	-0.000041
10.910	-0.000011
10.915	-0.000041
10.920	-0.000036
10.925	-0.000051
10.930	-0.000001
10.935	-0.000031
10.940	-0.000051
10.945	-0.000011
10.950	-0.000051
10.955	-0.000026
10.960	-0.000051
10.965	-0.000016
10.970	-0.000031
10.975	-0.000046
10.980	-0.000021
10.985	-0.000036
10.990	-0.000021
10.995	-0.000045
11.000	-0.000045
11.005	-0.000040
11.010	-0.000045
11.015	-0.000041
11.020	-0.000010
11.025	-0.000050
11.030	-0.000016
11.035	-0.000031
11.040	-0.000040
11.045	-0.000025
11.050	-0.000045
11.055	-0.000035
11.060	-0.000025
11.065	-0.000020
11.070	-0.000035
11.075	-0.000050
11.080	-0.000035
11.085	-0.000010
11.090	-0.000045
11.095	-0.000035
11.100	-0.000035
11.105	-0.000035
11.110	-0.000055
11.115	-0.000030
11.120	-0.000020
11.125	-0.000025
11.130	-0.000045
11.135	-0.000035
11.140	-0.000010
11.145	-0.000015
11.150	-0.000035
11.155	-0.000035
11.160	-0.000019
11.165	0.000000
11.170	-0.000030
11.175	-0.000049
11.180	-0.000034
11.185	-0.000029
11.190	-0.000024
11.195	-0.000029
11.200	-0.000014
11.205	-0.000029
11.210	-0.000029
11.215	-0.000039
11.220	-0.000019
11.225	-0.000019
11.230	-0.000014
11.235	-0.000014
11.240	-0.000049
11.245	-0.000004
11.250	-0.000024
11.255	-0.000034
11.260	-0.000019
11.265	-0.000034
11.270	-0.000029
11.275	-0.000009
11.280	-0.000024
11.285	-0.000034
11.290	-0.000019
11.295	-0.000024
11.300	-0.000024
11.305	0.000006
11.310	-0.000034
11.315	-0.000038
11.320	-0.000038
11.325	-0.000004
11.330	-0.000028
11.335	-0.000028
11.340	-0.000024
11.345	-0.000043
11.350	-0.000019
11.355	-0.000013
11.360	-0.000024
11.365	-0.000033
11.370	-0.000013
11.375	-0.000018
11.380	-0.000014
11.385	-0.000018
11.390	-0.000028
11.395	-0.000028
11.400	-0.000038
11.405	-0.000038
11.410	-0.000028
11.415	-0.000028
11.420	-0.000028
11.425	-0.000068
11.430	-0.000048
11.435	-0.000008
11.440	-0.000033
11.445	-0.000038
11.450	-0.000008
11.455	-0.000028
11.460	-0.000033
11.465	-0.000038
11.470	-0.000032
11.475	-0.000028
11.480	-0.000013
11.485	-0.000023
11.490	-0.000032
11.495	-0.000028
11.500	-0.000018
11.505	-0.000027
11.510	-0.000027
11.515	-0.000017
11.520	-0.000042
11.525	-0.000027
11.530	-0.000017
11.535	-0.000027
11.540	-0.000003
11.545	0.000007
11.550	-0.000017
11.555	-0.000027
11.560	-0.000027
11.565	-0.000017
11.570	-0.000022
11.575	-0.000017
11.580	-0.000022
11.585	-0.000022
11.590	-0.000032
11.595	-0.000002
11.600	-0.000017
11.605	-0.000007
11.610	-0.000027
11.615	-0.000017
11.620	-0.000012
11.625	-0.000017
11.630	-0.000052
11.635	-0.000002
11.640	-0.000032
11.645	-0.000027
11.650	-0.000037
11.655	-0.000032
11.660	-0.000032
11.665	-0.000002
11.670	-0.000027
11.675	-0.000032
11.680	-0.000007
11.685	-0.000017
11.690	-0.000032
11.695	-0.000032
11.700	-0.000021
11.705	-0.000017
11.710	-0.000022
11.715	-0.000022
11.720	-0.000031
11.725	-0.000022
11.730	-0.000047
11.735	-0.000047
11.740	-0.000026
11.745	-0.000017
11.750	-0.000022
11.755	-0.000032
11.760	0.000003
11.765	-0.000031
11.770	-0.000027
11.775	-0.000032
11.780	-0.000031
11.785	-0.000011
11.790	-0.000017
11.795	-0.000022
11.800	-0.000001
11.805	-0.000016
11.810	-0.000021
11.815	-0.000021
11.820	-0.000021
11.825	-0.000016
11.830	-0.000021
11.835	-0.000026
11.840	-0.000006
11.845	-0.000006
11.850	-0.000002
11.855	-0.000006
11.860	-0.000021
11.865	-0.000006
11.870	-0.000036
11.875	-0.000016
11.880	-0.000026
11.885	-0.000035
11.890	-0.000011
11.895	-0.000036
11.900	-0.000016
11.905	-0.000021
11.910	-0.000050
11.915	-0.000035
11.920	-0.000006
11.925	-0.000015
11.930	-0.000031
11.935	-0.000021
11.940	-0.000025
11.945	-0.000010
11.950	-0.000016
11.955	-0.000020
11.960	-0.000020
11.965	-0.000015
11.970	-0.000031
11.975	-0.000035
11.980	-0.000015
11.985	-0.000020
11.990	-0.000031
11.995	-0.000006
12.000	-0.000015
12.005	-0.000005
12.010	-0.000035
12.015	-0.000030
12.020	-0.000030
12.025	-0.000040
12.030	-0.000005
12.035	-0.000025
12.040	-0.000030
12.045	-0.000025
12.050	-0.000025
12.055	-0.000035
12.060	-0.000020
12.065	-0.000015
12.070	-0.000035
12.075	-0.000015
12.080	-0.000020
12.085	0.000000
12.090	-0.000020
12.095	-0.000030
12.100	-0.000015
12.105	-0.000005
12.110	-0.000035
12.115	-0.000035
12.120	-0.000015
12.125	-0.000024
12.130	-0.000040
12.135	-0.000049
12.140	-0.000010
12.145	-0.000029
12.150	-0.000029
12.155	-0.000029
12.160	-0.000029
12.165	-0.000024
12.170	-0.000029
12.175	-0.000019
12.180	-0.000019
12.185	-0.000009
12.190	-0.000039
12.195	-0.000009
12.200	-0.000029
12.205	-0.000019
12.210	-0.000034
12.215	-0.000034
12.220	-0.000014
12.225	-0.000019
12.230	-0.000035
12.235	-0.000034
12.240	-0.000014
12.245	-0.000044
12.250	-0.000049
12.255	-0.000015
12.260	-0.000014
12.265	-0.000014
12.270	-0.000029
12.275	-0.000029
12.280	-0.000024
12.285	-0.000024
12.290	-0.000034
12.295	-0.000039
12.300	-0.000024
12.305	-0.000019
12.310	-0.000034
12.315	-0.000034
12.320	-0.000029
12.325	-0.000044
12.330	-0.000029
12.335	-0.000049
12.340	-0.000029
12.345	-0.000039
12.350	-0.000039
12.355	-0.000059
12.360	-0.000039
12.365	-0.000024
12.370	-0.000039
12.375	-0.000044
12.380	-0.000048
12.385	-0.000024
12.390	-0.000039
12.395	-0.000054
12.400	-0.000039
12.405	-0.000039
12.410	-0.000024
12.415	-0.000029
12.420	-0.000039
12.425	-0.000034
12.430	-0.000043
12.435	-0.000048
12.440	-0.000053
12.445	-0.000043
12.450	-0.000058
12.455	-0.000048
12.460	-0.000048
12.465	-0.000048
12.470	-0.000029
12.475	-0.000053
12.480	-0.000018
12.485	-0.000033
12.490	-0.000038
12.495	-0.000048
12.500	-0.000028
12.505	-0.000013
12.510	-0.000058
12.515	-0.000043
12.520	-0.000038
12.525	-0.000023
12.530	-0.000038
12.535	-0.000033
12.540	-0.000033
12.545	-0.000038
12.550	-0.000023
12.555	-0.000048
12.560	-0.000038
12.565	-0.000028
12.570	-0.000038
12.575	-0.000028
12.580	-0.000053
12.585	-0.000023
12.590	-0.000038
12.595	-0.000033
12.600	-0.000038
12.605	-0.000043
12.610	-0.000047
12.615	-0.000028
12.620	-0.000043
12.625	-0.000033
12.630	-0.000037
12.635	-0.000033
12.640	-0.000023
12.645	-0.000037
12.650	-0.000032
12.655	-0.000042
12.660	-0.000027
12.665	-0.000057
12.670	-0.000052
12.675	-0.000033
12.680	-0.000022
12.685	-0.000022
12.690	-0.000037
12.695	-0.000057
12.700	-0.000037
12.705	-0.000032
12.710	-0.000027
12.715	-0.000047
12.720	-0.000012
12.725	-0.000027
12.730	-0.000037
12.735	-0.000052
12.740	-0.000032
12.745	-0.000037
12.750	-0.000027
12.755	-0.000062
12.760	-0.000042
12.765	-0.000037
12.770	-0.000047
12.775	-0.000057
12.780	-0.000016
12.785	-0.000046
12.790	-0.000037
12.795	-0.000027
12.800	-0.000016
12.805	-0.000026
12.810	-0.000037
12.815	-0.000032
12.820	-0.000026
12.825	-0.000041
12.830	-0.000027
12.835	-0.000036
12.840	-0.000026
12.845	-0.000041
12.850	-0.000032
12.855	-0.000031
12.860	-0.000026
12.865	-0.000017
12.870	-0.000037
12.875	-0.000037
12.880	-0.000026
12.885	-0.000011
12.890	-0.000036
12.895	-0.000046
12.900	-0.000041
12.905	-0.000021
12.910	-0.000032
12.915	-0.000051
12.920	-0.000031
12.925	-0.000021
12.930	-0.000041
12.935	-0.000031
12.940	-0.000021
12.945	-0.000016
12.950	-0.000021
12.955	-0.000031
12.960	-0.000040
12.965	-0.000020
12.970	-0.000041
12.975	-0.000036
12.980	-0.000035
12.985	-0.000011
12.990	-0.000036
12.995	-0.000026
13.000	-0.000015
13.005	-0.000015
13.010	-0.000026
13.015	-0.000031
13.020	-0.000015
13.025	-0.000025
13.030	-0.000030
13.035	-0.000010
13.040	-0.000030
13.045	-0.000035
13.050	-0.000020
13.055	-0.000050
13.060	-0.000015
13.065	-0.000030
13.070	-0.000005
13.075	-0.000035
13.080	-0.000010
13.085	-0.000010
13.090	-0.000015
13.095	-0.000035
13.100	-0.000025
13.105	-0.000010
13.110	-0.000020
13.115	-0.000040
13.120	-0.000030
13.125	-0.000030
13.130	-0.000034
13.135	-0.000010
13.140	-0.000025
13.145	-0.000020
13.150	-0.000030
13.155	-0.000005
13.160	-0.000015
13.165	-0.000029
13.170	-0.000010
13.175	-0.000010
13.180	-0.000024
13.185	-0.000034
13.190	-0.000024
13.195	-0.000034
13.200	-0.000029
13.205	-0.000034
13.210	-0.000024
13.215	-0.000034
13.220	-0.000039
13.225	-0.000039
13.230	-0.000019
13.235	-0.000029
13.240	-0.000044
13.245	-0.000029
13.250	-0.000009
13.255	-0.000019
13.260	-0.000039
13.265	-0.000034
13.270	-0.000024
13.275	-0.000019
13.280	-0.000029
13.285	-0.000039
13.290	-0.000039
13.295	-0.000039
13.300	-0.000004
13.305	-0.000029
13.310	-0.000029
13.315	-0.000029
13.320	-0.000044
13.325	-0.000019
13.330	-0.000019
13.335	-0.000019
13.340	-0.000038
13.345	-0.000033
13.350	-0.000024
13.355	-0.000014
13.360	-0.000024
13.365	-0.000028
13.370	-0.000039
13.375	-0.000049
13.380	-0.000023
13.385	-0.000019
13.390	-0.000014
13.395	-0.000039
13.400	-0.000009
13.405	0.000001
13.410	-0.000014
13.415	-0.000029
13.420	-0.000009
13.425	-0.000009
13.430	-0.000039
13.435	-0.000043
13.440	-0.000048
13.445	-0.000013
13.450	-0.000043
13.455	-0.000033
13.460	-0.000023
13.465	-0.000023
13.470	-0.000043
13.475	-0.000029
13.480	-0.000013
13.485	-0.000003
13.490	-0.000038
13.495	-0.000018
13.500	-0.000057
13.505	-0.000028
13.510	-0.000038
13.515	-0.000043
13.520	-0.000023
13.525	-0.000033
13.530	-0.000053
13.535	-0.000068
13.540	-0.000038
13.545	-0.000038
13.550	-0.000043
13.555	-0.000028
13.560	-0.000048
13.565	-0.000018
13.570	-0.000038
13.575	-0.000053
13.580	-0.000033
13.585	-0.000028
13.590	-0.000043
13.595	-0.000043
13.600	-0.000047
13.605	-0.000037
13.610	-0.000058
13.615	-0.000048
13.620	-0.000027
13.625	-0.000033
13.630	-0.000048
13.635	-0.000043
13.640	-0.000032
13.645	-0.000018
13.650	-0.000028
13.655	-0.000033
13.660	-0.000027
13.665	-0.000042
13.670	-0.000053
13.675	-0.000053
13.680	-0.000027
13.685	-0.000028
13.690	-0.000037
13.695	-0.000052
13.700	-0.000037
13.705	-0.000033
