PK2650 Deflection Data
Z Position (mm)	60.000	W Position (deg)	60.00
Preform ID	Diameter (mm)	Time Stamp	Start Time	Operator	Serial Number
test	18	22-Mar-23 22:58:02	22-Mar-23 23:01:07	[no user]	56941311
Radius (mm)	Deflection
-13.690	0.000003
-13.685	0.000018
-13.680	0.000018
-13.675	0.000023
-13.670	0.000003
-13.665	0.000023
-13.660	0.000013
-13.655	0.000003
-13.650	0.000038
-13.645	0.000048
-13.640	0.000038
-13.635	0.000003
-13.630	0.000013
-13.625	0.000038
-13.620	0.000018
-13.615	0.000023
-13.610	0.000038
-13.605	0.000004
-13.600	0.000014
-13.595	0.000009
-13.590	0.000038
-13.585	0.000023
-13.580	0.000029
-13.575	0.000019
-13.570	0.000038
-13.565	0.000019
-13.560	0.000024
-13.555	0.000029
-13.550	0.000024
-13.545	0.000014
-13.540	0.000023
-13.535	0.000039
-13.530	0.000019
-13.525	0.000009
-13.520	0.000019
-13.515	0.000014
-13.510	0.000024
-13.505	0.000004
-13.500	0.000014
-13.495	0.000024
-13.490	0.000024
-13.485	0.000014
-13.480	0.000014
-13.475	-0.000006
-13.470	0.000009
-13.465	0.000044
-13.460	0.000029
-13.455	-0.000001
-13.450	0.000009
-13.445	0.000039
-13.440	0.000014
-13.435	0.000004
-13.430	0.000019
-13.425	0.000024
-13.420	0.000015
-13.415	0.000029
-13.410	0.000005
-13.405	0.000020
-13.400	0.000030
-13.395	0.000034
-13.390	0.000015
-13.385	0.000020
-13.380	0.000035
-13.375	0.000020
-13.370	0.000030
-13.365	0.000005
-13.360	0.000025
-13.355	0.000015
-13.350	0.000040
-13.345	0.000025
-13.340	0.000010
-13.335	0.000015
-13.330	0.000005
-13.325	0.000040
-13.320	0.000030
-13.315	0.000025
-13.310	0.000020
-13.305	0.000010
-13.300	0.000020
-13.295	0.000015
-13.290	0.000025
-13.285	0.000015
-13.280	0.000015
-13.275	0.000020
-13.270	0.000006
-13.265	0.000015
-13.260	0.000025
-13.255	0.000025
-13.250	0.000021
-13.245	0.000021
-13.240	0.000016
-13.235	0.000020
-13.230	0.000025
-13.225	0.000001
-13.220	0.000006
-13.215	0.000020
-13.210	0.000011
-13.205	0.000016
-13.200	0.000016
-13.195	0.000016
-13.190	0.000006
-13.185	0.000011
-13.180	0.000021
-13.175	0.000006
-13.170	0.000016
-13.165	0.000006
-13.160	0.000026
-13.155	0.000006
-13.150	0.000021
-13.145	0.000011
-13.140	0.000016
-13.135	0.000031
-13.130	0.000031
-13.125	0.000006
-13.120	-0.000014
-13.115	0.000016
-13.110	-0.000013
-13.105	-0.000019
-13.100	0.000026
-13.095	0.000021
-13.090	0.000011
-13.085	0.000016
-13.080	0.000026
-13.075	0.000026
-13.070	0.000021
-13.065	0.000001
-13.060	0.000001
-13.055	0.000041
-13.050	0.000002
-13.045	-0.000008
-13.040	0.000001
-13.035	-0.000003
-13.030	-0.000003
-13.025	0.000021
-13.020	-0.000008
-13.015	0.000017
-13.010	-0.000008
-13.005	0.000002
-13.000	-0.000003
-12.995	0.000012
-12.990	0.000022
-12.985	0.000017
-12.980	-0.000023
-12.975	-0.000003
-12.970	-0.000008
-12.965	0.000017
-12.960	-0.000023
-12.955	-0.000018
-12.950	0.000012
-12.945	0.000007
-12.940	-0.000003
-12.935	-0.000003
-12.930	-0.000013
-12.925	-0.000003
-12.920	-0.000008
-12.915	-0.000008
-12.910	-0.000008
-12.905	0.000017
-12.900	0.000002
-12.895	-0.000028
-12.890	0.000007
-12.885	0.000003
-12.880	0.000022
-12.875	-0.000003
-12.870	-0.000003
-12.865	0.000032
-12.860	0.000018
-12.855	0.000007
-12.850	-0.000002
-12.845	0.000003
-12.840	0.000013
-12.835	0.000022
-12.830	-0.000007
-12.825	0.000028
-12.820	0.000023
-12.815	0.000013
-12.810	-0.000007
-12.805	0.000018
-12.800	0.000003
-12.795	-0.000007
-12.790	0.000018
-12.785	-0.000002
-12.780	0.000003
-12.775	0.000013
-12.770	0.000018
-12.765	0.000033
-12.760	0.000013
-12.755	0.000003
-12.750	-0.000011
-12.745	0.000018
-12.740	0.000008
-12.735	-0.000002
-12.730	0.000003
-12.725	0.000033
-12.720	0.000013
-12.715	0.000018
-12.710	-0.000006
-12.705	0.000023
-12.700	0.000018
-12.695	0.000004
-12.690	0.000014
-12.685	0.000014
-12.680	0.000009
-12.675	-0.000001
-12.670	0.000004
-12.665	0.000024
-12.660	-0.000016
-12.655	0.000004
-12.650	0.000004
-12.645	-0.000001
-12.640	-0.000011
-12.635	0.000004
-12.630	-0.000006
-12.625	0.000018
-12.620	-0.000006
-12.615	0.000004
-12.610	-0.000001
-12.605	-0.000001
-12.600	-0.000001
-12.595	-0.000006
-12.590	-0.000011
-12.585	-0.000021
-12.580	-0.000011
-12.575	-0.000001
-12.570	-0.000011
-12.565	-0.000016
-12.560	-0.000006
-12.555	-0.000006
-12.550	-0.000011
-12.545	-0.000006
-12.540	-0.000001
-12.535	-0.000025
-12.530	0.000004
-12.525	-0.000026
-12.520	-0.000016
-12.515	-0.000016
-12.510	-0.000031
-12.505	-0.000001
-12.500	-0.000011
-12.495	-0.000016
-12.490	-0.000016
-12.485	-0.000020
-12.480	0.000014
-12.475	-0.000020
-12.470	-0.000011
-12.465	-0.000020
-12.460	-0.000025
-12.455	-0.000001
-12.450	-0.000020
-12.445	-0.000010
-12.440	-0.000005
-12.435	-0.000015
-12.430	-0.000030
-12.425	-0.000040
-12.420	-0.000040
-12.415	-0.000040
-12.410	-0.000010
-12.405	-0.000010
-12.400	0.000000
-12.395	-0.000025
-12.390	-0.000015
-12.385	-0.000015
-12.380	-0.000005
-12.375	-0.000010
-12.370	-0.000020
-12.365	-0.000015
-12.360	-0.000005
-12.355	-0.000020
-12.350	-0.000030
-12.345	-0.000014
-12.340	-0.000014
-12.335	0.000000
-12.330	-0.000020
-12.325	-0.000019
-12.320	-0.000029
-12.315	-0.000024
-12.310	-0.000009
-12.305	0.000010
-12.300	-0.000004
-12.295	-0.000034
-12.290	-0.000009
-12.285	-0.000004
-12.280	-0.000024
-12.275	-0.000029
-12.270	-0.000010
-12.265	-0.000014
-12.260	-0.000034
-12.255	-0.000029
-12.250	-0.000014
-12.245	-0.000014
-12.240	-0.000034
-12.235	-0.000024
-12.230	-0.000019
-12.225	0.000011
-12.220	-0.000004
-12.215	-0.000019
-12.210	-0.000024
-12.205	-0.000038
-12.200	-0.000024
-12.195	-0.000019
-12.190	-0.000054
-12.185	-0.000009
-12.180	-0.000029
-12.175	-0.000034
-12.170	-0.000024
-12.165	-0.000019
-12.160	-0.000019
-12.155	-0.000024
-12.150	-0.000054
-12.145	-0.000024
-12.140	-0.000024
-12.135	-0.000034
-12.130	-0.000049
-12.125	-0.000004
-12.120	-0.000053
-12.115	-0.000034
-12.110	-0.000024
-12.105	-0.000014
-12.100	-0.000028
-12.095	-0.000038
-12.090	-0.000038
-12.085	-0.000023
-12.080	-0.000058
-12.075	-0.000058
-12.070	-0.000033
-12.065	-0.000043
-12.060	-0.000073
-12.055	-0.000018
-12.050	-0.000033
-12.045	-0.000018
-12.040	-0.000038
-12.035	-0.000033
-12.030	-0.000053
-12.025	-0.000053
-12.020	-0.000048
-12.015	-0.000023
-12.010	-0.000028
-12.005	-0.000028
-12.000	-0.000023
-11.995	-0.000038
-11.990	0.000002
-11.985	-0.000013
-11.980	-0.000023
-11.975	-0.000018
-11.970	-0.000048
-11.965	-0.000043
-11.960	-0.000013
-11.955	-0.000018
-11.950	-0.000102
-11.945	-0.000092
-11.940	-0.000062
-11.935	-0.000047
-11.930	-0.000017
-11.925	-0.000042
-11.920	-0.000032
-11.915	-0.000047
-11.910	-0.000022
-11.905	-0.000032
-11.900	-0.000027
-11.895	-0.000067
-11.890	-0.000042
-11.885	-0.000022
-11.880	-0.000042
-11.875	-0.000062
-11.870	-0.000027
-11.865	-0.000042
-11.860	-0.000052
-11.855	-0.000042
-11.850	-0.000047
-11.845	-0.000047
-11.840	-0.000062
-11.835	-0.000072
-11.830	-0.000072
-11.825	-0.000052
-11.820	-0.000037
-11.815	-0.000062
-11.810	-0.000052
-11.805	-0.000047
-11.800	-0.000032
-11.795	-0.000037
-11.790	-0.000052
-11.785	-0.000057
-11.780	-0.000052
-11.775	-0.000057
-11.770	-0.000072
-11.765	-0.000071
-11.760	-0.000076
-11.755	-0.000062
-11.750	-0.000052
-11.745	-0.000076
-11.740	-0.000047
-11.735	-0.000052
-11.730	-0.000047
-11.725	-0.000052
-11.720	-0.000042
-11.715	-0.000057
-11.710	-0.000066
-11.705	-0.000061
-11.700	-0.000042
-11.695	-0.000046
-11.690	-0.000076
-11.685	-0.000051
-11.680	-0.000056
-11.675	-0.000041
-11.670	-0.000051
-11.665	-0.000051
-11.660	-0.000056
-11.655	-0.000036
-11.650	-0.000036
-11.645	-0.000046
-11.640	-0.000041
-11.635	-0.000036
-11.630	-0.000056
-11.625	-0.000061
-11.620	-0.000061
-11.615	-0.000051
-11.610	-0.000051
-11.605	-0.000046
-11.600	-0.000046
-11.595	-0.000031
-11.590	-0.000066
-11.585	-0.000071
-11.580	-0.000046
-11.575	-0.000041
-11.570	-0.000056
-11.565	-0.000051
-11.560	-0.000051
-11.555	-0.000051
-11.550	-0.000026
-11.545	-0.000056
-11.540	-0.000041
-11.535	-0.000050
-11.530	-0.000066
-11.525	-0.000051
-11.520	-0.000056
-11.515	-0.000021
-11.510	-0.000021
-11.505	-0.000016
-11.500	-0.000021
-11.495	0.000004
-11.490	0.000024
-11.485	0.000024
-11.480	0.000024
-11.475	0.000064
-11.470	0.000083
-11.465	0.000088
-11.460	0.000108
-11.455	0.000104
-11.450	0.000074
-11.445	0.000089
-11.440	0.000069
-11.435	0.000024
-11.430	0.000010
-11.425	0.000020
-11.420	0.000010
-11.415	-0.000005
-11.410	-0.000005
-11.405	-0.000050
-11.400	-0.000010
-11.395	-0.000035
-11.390	-0.000020
-11.385	-0.000035
-11.380	-0.000025
-11.375	-0.000054
-11.370	-0.000039
-11.365	-0.000034
-11.360	-0.000044
-11.355	-0.000019
-11.350	-0.000014
-11.345	-0.000019
-11.340	-0.000034
-11.335	-0.000034
-11.330	-0.000029
-11.325	-0.000029
-11.320	-0.000039
-11.315	-0.000034
-11.310	-0.000024
-11.305	-0.000034
-11.300	-0.000034
-11.295	-0.000049
-11.290	-0.000044
-11.285	-0.000014
-11.280	-0.000034
-11.275	-0.000044
-11.270	-0.000024
-11.265	-0.000009
-11.260	-0.000019
-11.255	-0.000054
-11.250	-0.000049
-11.245	-0.000009
-11.240	-0.000044
-11.235	-0.000039
-11.230	-0.000044
-11.225	-0.000033
-11.220	-0.000014
-11.215	-0.000039
-11.210	-0.000024
-11.205	-0.000009
-11.200	-0.000033
-11.195	-0.000053
-11.190	-0.000039
-11.185	-0.000028
-11.180	-0.000043
-11.175	-0.000039
-11.170	-0.000048
-11.165	-0.000018
-11.160	-0.000018
-11.155	-0.000043
-11.150	-0.000048
-11.145	-0.000033
-11.140	-0.000028
-11.135	-0.000028
-11.130	-0.000043
-11.125	-0.000048
-11.120	-0.000018
-11.115	-0.000038
-11.110	-0.000018
-11.105	-0.000033
-11.100	-0.000033
-11.095	-0.000038
-11.090	-0.000028
-11.085	-0.000033
-11.080	-0.000023
-11.075	-0.000058
-11.070	-0.000018
-11.065	-0.000013
-11.060	-0.000018
-11.055	-0.000043
-11.050	-0.000033
-11.045	-0.000038
-11.040	-0.000043
-11.035	-0.000048
-11.030	-0.000043
-11.025	-0.000028
-11.020	-0.000033
-11.015	-0.000018
-11.010	-0.000033
-11.005	-0.000023
-11.000	-0.000032
-10.995	-0.000037
-10.990	-0.000032
-10.985	-0.000028
-10.980	-0.000013
-10.975	-0.000032
-10.970	-0.000027
-10.965	-0.000037
-10.960	-0.000027
-10.955	-0.000017
-10.950	-0.000047
-10.945	-0.000008
-10.940	-0.000017
-10.935	-0.000032
-10.930	-0.000057
-10.925	-0.000057
-10.920	-0.000052
-10.915	-0.000047
-10.910	-0.000027
-10.905	-0.000052
-10.900	-0.000037
-10.895	-0.000052
-10.890	-0.000062
-10.885	-0.000042
-10.880	-0.000057
-10.875	-0.000027
-10.870	-0.000052
-10.865	-0.000037
-10.860	-0.000047
-10.855	-0.000052
-10.850	-0.000042
-10.845	-0.000072
-10.840	-0.000077
-10.835	-0.000032
-10.830	-0.000047
-10.825	-0.000057
-10.820	-0.000067
-10.815	-0.000047
-10.810	-0.000047
-10.805	-0.000057
-10.800	-0.000052
-10.795	-0.000037
-10.790	-0.000037
-10.785	-0.000052
-10.780	-0.000017
-10.775	-0.000071
-10.770	-0.000037
-10.765	-0.000067
-10.760	-0.000027
-10.755	-0.000032
-10.750	-0.000072
-10.745	-0.000057
-10.740	-0.000052
-10.735	-0.000057
-10.730	-0.000057
-10.725	-0.000047
-10.720	-0.000062
-10.715	-0.000076
-10.710	-0.000062
-10.705	-0.000057
-10.700	-0.000071
-10.695	-0.000056
-10.690	-0.000037
-10.685	-0.000061
-10.680	-0.000071
-10.675	-0.000051
-10.670	-0.000071
-10.665	-0.000061
-10.660	-0.000051
-10.655	-0.000071
-10.650	-0.000061
-10.645	-0.000046
-10.640	-0.000076
-10.635	-0.000046
-10.630	-0.000061
-10.625	-0.000056
-10.620	-0.000066
-10.615	-0.000076
-10.610	-0.000066
-10.605	-0.000071
-10.600	-0.000061
-10.595	-0.000061
-10.590	-0.000066
-10.585	-0.000046
-10.580	-0.000081
-10.575	-0.000076
-10.570	-0.000056
-10.565	-0.000060
-10.560	-0.000066
-10.555	-0.000076
-10.550	-0.000056
-10.545	-0.000066
-10.540	-0.000061
-10.535	-0.000051
-10.530	-0.000061
-10.525	-0.000041
-10.520	-0.000080
-10.515	-0.000061
-10.510	-0.000056
-10.505	-0.000061
-10.500	-0.000076
-10.495	-0.000035
-10.490	-0.000051
-10.485	-0.000056
-10.480	-0.000070
-10.475	-0.000065
-10.470	-0.000080
-10.465	-0.000070
-10.460	-0.000065
-10.455	-0.000060
-10.450	-0.000046
-10.445	-0.000080
-10.440	-0.000065
-10.435	-0.000060
-10.430	-0.000065
-10.425	-0.000080
-10.420	-0.000065
-10.415	-0.000070
-10.410	-0.000070
-10.405	-0.000055
-10.400	-0.000065
-10.395	-0.000080
-10.390	-0.000065
-10.385	-0.000065
-10.380	-0.000070
-10.375	-0.000060
-10.370	-0.000050
-10.365	-0.000075
-10.360	-0.000060
-10.355	-0.000050
-10.350	-0.000080
-10.345	-0.000075
-10.340	-0.000070
-10.335	-0.000070
-10.330	-0.000095
-10.325	-0.000060
-10.320	-0.000089
-10.315	-0.000075
-10.310	-0.000065
-10.305	-0.000055
-10.300	-0.000075
-10.295	-0.000060
-10.290	-0.000075
-10.285	-0.000054
-10.280	-0.000055
-10.275	-0.000075
-10.270	-0.000080
-10.265	-0.000059
-10.260	-0.000054
-10.255	-0.000070
-10.250	-0.000069
-10.245	-0.000059
-10.240	-0.000059
-10.235	-0.000064
-10.230	-0.000069
-10.225	-0.000059
-10.220	-0.000054
-10.215	-0.000079
-10.210	-0.000034
-10.205	-0.000059
-10.200	-0.000034
-10.195	-0.000059
-10.190	-0.000059
-10.185	-0.000049
-10.180	-0.000059
-10.175	-0.000059
-10.170	-0.000049
-10.165	-0.000078
-10.160	-0.000044
-10.155	-0.000064
-10.150	-0.000074
-10.145	-0.000058
-10.140	-0.000034
-10.135	-0.000044
-10.130	-0.000054
-10.125	-0.000063
-10.120	-0.000063
-10.115	-0.000068
-10.110	-0.000043
-10.105	-0.000063
-10.100	-0.000058
-10.095	-0.000053
-10.090	-0.000058
-10.085	-0.000053
-10.080	-0.000063
-10.075	-0.000048
-10.070	-0.000048
-10.065	-0.000048
-10.060	-0.000053
-10.055	-0.000078
-10.050	-0.000073
-10.045	-0.000033
-10.040	-0.000053
-10.035	-0.000058
-10.030	-0.000053
-10.025	-0.000048
-10.020	-0.000058
-10.015	-0.000068
-10.010	-0.000067
-10.005	-0.000068
-10.000	-0.000053
-9.995	-0.000047
-9.990	-0.000043
-9.985	-0.000048
-9.980	-0.000082
-9.975	-0.000062
-9.970	-0.000052
-9.965	-0.000047
-9.960	-0.000057
-9.955	-0.000047
-9.950	-0.000047
-9.945	-0.000037
-9.940	-0.000037
-9.935	-0.000057
-9.930	-0.000052
-9.925	-0.000027
-9.920	-0.000052
-9.915	-0.000047
-9.910	-0.000052
-9.905	-0.000052
-9.900	-0.000032
-9.895	-0.000062
-9.890	-0.000037
-9.885	-0.000052
-9.880	-0.000047
-9.875	-0.000047
-9.870	-0.000037
-9.865	-0.000042
-9.860	-0.000062
-9.855	-0.000047
-9.850	-0.000037
-9.845	-0.000057
-9.840	-0.000057
-9.835	-0.000047
-9.830	-0.000057
-9.825	-0.000027
-9.820	-0.000052
-9.815	-0.000052
-9.810	-0.000037
-9.805	-0.000047
-9.800	-0.000076
-9.795	-0.000052
-9.790	-0.000061
-9.785	-0.000051
-9.780	-0.000071
-9.775	-0.000042
-9.770	-0.000062
-9.765	-0.000031
-9.760	-0.000036
-9.755	-0.000057
-9.750	-0.000056
-9.745	-0.000036
-9.740	-0.000056
-9.735	-0.000071
-9.730	-0.000046
-9.725	-0.000036
-9.720	-0.000046
-9.715	-0.000066
-9.710	-0.000046
-9.705	-0.000041
-9.700	-0.000051
-9.695	-0.000031
-9.690	-0.000056
-9.685	-0.000036
-9.680	-0.000036
-9.675	-0.000051
-9.670	-0.000056
-9.665	-0.000071
-9.660	-0.000056
-9.655	-0.000041
-9.650	-0.000056
-9.645	-0.000066
-9.640	-0.000061
-9.635	-0.000031
-9.630	-0.000056
-9.625	-0.000051
-9.620	-0.000051
-9.615	-0.000036
-9.610	-0.000056
-9.605	-0.000051
-9.600	-0.000051
-9.595	-0.000041
-9.590	-0.000055
-9.585	-0.000056
-9.580	-0.000041
-9.575	-0.000045
-9.570	-0.000050
-9.565	-0.000041
-9.560	-0.000041
-9.555	-0.000015
-9.550	-0.000015
-9.545	-0.000035
-9.540	-0.000050
-9.535	-0.000045
-9.530	-0.000040
-9.525	-0.000050
-9.520	-0.000030
-9.515	-0.000035
-9.510	-0.000030
-9.505	-0.000050
-9.500	-0.000020
-9.495	-0.000030
-9.490	-0.000050
-9.485	-0.000030
-9.480	-0.000025
-9.475	-0.000045
-9.470	-0.000050
-9.465	-0.000035
-9.460	-0.000020
-9.455	-0.000030
-9.450	-0.000045
-9.445	-0.000070
-9.440	-0.000030
-9.435	-0.000020
-9.430	-0.000040
-9.425	-0.000045
-9.420	-0.000030
-9.415	-0.000025
-9.410	-0.000030
-9.405	-0.000050
-9.400	-0.000025
-9.395	-0.000045
-9.390	-0.000030
-9.385	-0.000040
-9.380	-0.000020
-9.375	-0.000015
-9.370	-0.000029
-9.365	-0.000025
-9.360	-0.000064
-9.355	-0.000049
-9.350	-0.000049
-9.345	-0.000024
-9.340	-0.000054
-9.335	-0.000034
-9.330	-0.000029
-9.325	-0.000049
-9.320	-0.000044
-9.315	-0.000034
-9.310	-0.000049
-9.305	-0.000044
-9.300	-0.000064
-9.295	-0.000054
-9.290	-0.000039
-9.285	-0.000044
-9.280	-0.000044
-9.275	-0.000029
-9.270	-0.000029
-9.265	-0.000049
-9.260	-0.000039
-9.255	-0.000044
-9.250	-0.000029
-9.245	-0.000044
-9.240	-0.000054
-9.235	-0.000024
-9.230	-0.000029
-9.225	-0.000049
-9.220	-0.000039
-9.215	-0.000009
-9.210	-0.000009
-9.205	-0.000034
-9.200	-0.000054
-9.195	-0.000039
-9.190	-0.000014
-9.185	-0.000009
-9.180	-0.000044
-9.175	-0.000033
-9.170	-0.000034
-9.165	-0.000044
-9.160	-0.000049
-9.155	-0.000038
-9.150	-0.000053
-9.145	-0.000034
-9.140	-0.000034
-9.135	-0.000063
-9.130	-0.000034
-9.125	-0.000049
-9.120	-0.000024
-9.115	-0.000018
-9.110	-0.000023
-9.105	-0.000049
-9.100	-0.000043
-9.095	-0.000028
-9.090	-0.000018
-9.085	-0.000038
-9.080	-0.000033
-9.075	-0.000013
-9.070	-0.000023
-9.065	-0.000023
-9.060	-0.000048
-9.055	-0.000038
-9.050	-0.000018
-9.045	-0.000038
-9.040	-0.000048
-9.035	-0.000013
-9.030	-0.000058
-9.025	-0.000033
-9.020	-0.000028
-9.015	-0.000028
-9.010	-0.000038
-9.005	-0.000043
-9.000	-0.000038
-8.995	-0.000038
-8.990	-0.000038
-8.985	-0.000053
-8.980	-0.000053
-8.975	-0.000018
-8.970	-0.000033
-8.965	-0.000038
-8.960	-0.000033
-8.955	-0.000038
-8.950	-0.000033
-8.945	-0.000043
-8.940	-0.000038
-8.935	-0.000013
-8.930	-0.000048
-8.925	-0.000013
-8.920	-0.000058
-8.915	-0.000028
-8.910	-0.000058
-8.905	-0.000042
-8.900	-0.000062
-8.895	-0.000062
-8.890	-0.000052
-8.885	-0.000047
-8.880	-0.000052
-8.875	-0.000052
-8.870	-0.000057
-8.865	-0.000042
-8.860	-0.000057
-8.855	-0.000047
-8.850	-0.000057
-8.845	-0.000032
-8.840	-0.000072
-8.835	-0.000042
-8.830	-0.000062
-8.825	-0.000057
-8.820	-0.000032
-8.815	-0.000072
-8.810	-0.000062
-8.805	-0.000062
-8.800	-0.000086
-8.795	-0.000067
-8.790	-0.000057
-8.785	-0.000036
-8.780	-0.000022
-8.775	-0.000076
-8.770	-0.000056
-8.765	-0.000076
-8.760	-0.000086
-8.755	-0.000076
-8.750	-0.000051
-8.745	-0.000081
-8.740	-0.000091
-8.735	-0.000096
-8.730	-0.000125
-8.725	-0.000121
-8.720	-0.000135
-8.715	-0.000205
-8.710	-0.000280
-8.705	-0.000552
-8.700	-0.001539
-8.695	-0.004704
-8.690	-0.011104
-8.685	-0.020349
-8.680	-0.031745
-8.675	-0.045518
-8.670	-0.062492
-8.665	-0.081017
-8.660	-0.094540
-8.655	-0.101754
-8.650	-0.102781
-8.645	-0.099932
-8.640	-0.086329
-8.635	-0.072011
-8.630	-0.064343
-8.625	-0.058829
-8.620	-0.054760
-8.615	-0.051483
-8.610	-0.048948
-8.605	-0.046817
-8.600	-0.045261
-8.595	-0.043868
-8.590	-0.042374
-8.585	-0.040753
-8.580	-0.039457
-8.575	-0.038273
-8.570	-0.037091
-8.565	-0.036036
-8.560	-0.035130
-8.555	-0.034159
-8.550	-0.033283
-8.545	-0.032644
-8.540	-0.031990
-8.535	-0.031218
-8.530	-0.030559
-8.525	-0.029960
-8.520	-0.029460
-8.515	-0.028972
-8.510	-0.028484
-8.505	-0.027990
-8.500	-0.027542
-8.495	-0.027122
-8.490	-0.026719
-8.485	-0.026307
-8.480	-0.025959
-8.475	-0.025543
-8.470	-0.025211
-8.465	-0.024894
-8.460	-0.024611
-8.455	-0.024295
-8.450	-0.024020
-8.445	-0.023738
-8.440	-0.023483
-8.435	-0.023201
-8.430	-0.022946
-8.425	-0.022682
-8.420	-0.022478
-8.415	-0.022184
-8.410	-0.021950
-8.405	-0.021783
-8.400	-0.021580
-8.395	-0.021410
-8.390	-0.021212
-8.385	-0.021032
-8.380	-0.020842
-8.375	-0.020682
-8.370	-0.020518
-8.365	-0.020318
-8.360	-0.020153
-8.355	-0.019990
-8.350	-0.019837
-8.345	-0.019678
-8.340	-0.019529
-8.335	-0.019384
-8.330	-0.019231
-8.325	-0.019101
-8.320	-0.018953
-8.315	-0.018836
-8.310	-0.018661
-8.305	-0.018531
-8.300	-0.018414
-8.295	-0.018283
-8.290	-0.018150
-8.285	-0.018020
-8.280	-0.017885
-8.275	-0.017758
-8.270	-0.017656
-8.265	-0.017533
-8.260	-0.017410
-8.255	-0.017291
-8.250	-0.017221
-8.245	-0.017105
-8.240	-0.016976
-8.235	-0.016882
-8.230	-0.016785
-8.225	-0.016679
-8.220	-0.016597
-8.215	-0.016502
-8.210	-0.016398
-8.205	-0.016280
-8.200	-0.016199
-8.195	-0.016079
-8.190	-0.016017
-8.185	-0.015960
-8.180	-0.015833
-8.175	-0.015763
-8.170	-0.015679
-8.165	-0.015568
-8.160	-0.015515
-8.155	-0.015411
-8.150	-0.015350
-8.145	-0.015261
-8.140	-0.015167
-8.135	-0.015104
-8.130	-0.015029
-8.125	-0.014911
-8.120	-0.014871
-8.115	-0.014796
-8.110	-0.014730
-8.105	-0.014657
-8.100	-0.014613
-8.095	-0.014508
-8.090	-0.014433
-8.085	-0.014368
-8.080	-0.014309
-8.075	-0.014240
-8.070	-0.014177
-8.065	-0.014081
-8.060	-0.014041
-8.055	-0.013968
-8.050	-0.013930
-8.045	-0.013839
-8.040	-0.013785
-8.035	-0.013689
-8.030	-0.013645
-8.025	-0.013623
-8.020	-0.013529
-8.015	-0.013472
-8.010	-0.013432
-8.005	-0.013372
-8.000	-0.013299
-7.995	-0.013272
-7.990	-0.013224
-7.985	-0.013153
-7.980	-0.013081
-7.975	-0.013051
-7.970	-0.012983
-7.965	-0.012916
-7.960	-0.012908
-7.955	-0.012889
-7.950	-0.012864
-7.945	-0.012837
-7.940	-0.012816
-7.935	-0.012791
-7.930	-0.012687
-7.925	-0.012653
-7.920	-0.012589
-7.915	-0.012509
-7.910	-0.012455
-7.905	-0.012414
-7.900	-0.012371
-7.895	-0.012318
-7.890	-0.012260
-7.885	-0.012210
-7.880	-0.012152
-7.875	-0.012089
-7.870	-0.012051
-7.865	-0.012037
-7.860	-0.011963
-7.855	-0.011907
-7.850	-0.011877
-7.845	-0.011842
-7.840	-0.011808
-7.835	-0.011733
-7.830	-0.011708
-7.825	-0.011673
-7.820	-0.011632
-7.815	-0.011584
-7.810	-0.011562
-7.805	-0.011510
-7.800	-0.011443
-7.795	-0.011413
-7.790	-0.011397
-7.785	-0.011359
-7.780	-0.011304
-7.775	-0.011243
-7.770	-0.011231
-7.765	-0.011203
-7.760	-0.011154
-7.755	-0.011124
-7.750	-0.011100
-7.745	-0.011026
-7.740	-0.011010
-7.735	-0.010952
-7.730	-0.010914
-7.725	-0.010878
-7.720	-0.010850
-7.715	-0.010815
-7.710	-0.010766
-7.705	-0.010751
-7.700	-0.010705
-7.695	-0.010679
-7.690	-0.010651
-7.685	-0.010592
-7.680	-0.010573
-7.675	-0.010519
-7.670	-0.010490
-7.665	-0.010483
-7.660	-0.010460
-7.655	-0.010398
-7.650	-0.010378
-7.645	-0.010346
-7.640	-0.010300
-7.635	-0.010262
-7.630	-0.010266
-7.625	-0.010218
-7.620	-0.010198
-7.615	-0.010161
-7.610	-0.010133
-7.605	-0.010115
-7.600	-0.010094
-7.595	-0.010046
-7.590	-0.009994
-7.585	-0.010008
-7.580	-0.009955
-7.575	-0.009945
-7.570	-0.009899
-7.565	-0.009887
-7.560	-0.009856
-7.555	-0.009836
-7.550	-0.009809
-7.545	-0.009753
-7.540	-0.009733
-7.535	-0.009730
-7.530	-0.009712
-7.525	-0.009676
-7.520	-0.009624
-7.515	-0.009619
-7.510	-0.009589
-7.505	-0.009548
-7.500	-0.009521
-7.495	-0.009494
-7.490	-0.009486
-7.485	-0.009468
-7.480	-0.009417
-7.475	-0.009419
-7.470	-0.009378
-7.465	-0.009360
-7.460	-0.009311
-7.455	-0.009300
-7.450	-0.009286
-7.445	-0.009239
-7.440	-0.009236
-7.435	-0.009198
-7.430	-0.009185
-7.425	-0.009146
-7.420	-0.009133
-7.415	-0.009114
-7.410	-0.009060
-7.405	-0.009045
-7.400	-0.009039
-7.395	-0.009006
-7.390	-0.008981
-7.385	-0.008965
-7.380	-0.008938
-7.375	-0.008921
-7.370	-0.008885
-7.365	-0.008875
-7.360	-0.008838
-7.355	-0.008853
-7.350	-0.008822
-7.345	-0.008779
-7.340	-0.008771
-7.335	-0.008725
-7.330	-0.008715
-7.325	-0.008699
-7.320	-0.008682
-7.315	-0.008657
-7.310	-0.008637
-7.305	-0.008614
-7.300	-0.008577
-7.295	-0.008585
-7.290	-0.008542
-7.285	-0.008514
-7.280	-0.008502
-7.275	-0.008496
-7.270	-0.008489
-7.265	-0.008474
-7.260	-0.008430
-7.255	-0.008396
-7.250	-0.008393
-7.245	-0.008360
-7.240	-0.008371
-7.235	-0.008336
-7.230	-0.008295
-7.225	-0.008294
-7.220	-0.008276
-7.215	-0.008256
-7.210	-0.008239
-7.205	-0.008213
-7.200	-0.008188
-7.195	-0.008190
-7.190	-0.008188
-7.185	-0.008149
-7.180	-0.008130
-7.175	-0.008122
-7.170	-0.008085
-7.165	-0.008068
-7.160	-0.008073
-7.155	-0.008022
-7.150	-0.008007
-7.145	-0.008012
-7.140	-0.007976
-7.135	-0.007961
-7.130	-0.007971
-7.125	-0.007946
-7.120	-0.007925
-7.115	-0.007894
-7.110	-0.007876
-7.105	-0.007868
-7.100	-0.007866
-7.095	-0.007821
-7.090	-0.007794
-7.085	-0.007789
-7.080	-0.007760
-7.075	-0.007775
-7.070	-0.007743
-7.065	-0.007746
-7.060	-0.007732
-7.055	-0.007684
-7.050	-0.007656
-7.045	-0.007657
-7.040	-0.007666
-7.035	-0.007619
-7.030	-0.007612
-7.025	-0.007595
-7.020	-0.007577
-7.015	-0.007577
-7.010	-0.007579
-7.005	-0.007540
-7.000	-0.007510
-6.995	-0.007515
-6.990	-0.007493
-6.985	-0.007495
-6.980	-0.007470
-6.975	-0.007447
-6.970	-0.007434
-6.965	-0.007433
-6.960	-0.007404
-6.955	-0.007422
-6.950	-0.007393
-6.945	-0.007370
-6.940	-0.007350
-6.935	-0.007318
-6.930	-0.007325
-6.925	-0.007295
-6.920	-0.007324
-6.915	-0.007282
-6.910	-0.007252
-6.905	-0.007237
-6.900	-0.007237
-6.895	-0.007233
-6.890	-0.007231
-6.885	-0.007184
-6.880	-0.007179
-6.875	-0.007187
-6.870	-0.007147
-6.865	-0.007155
-6.860	-0.007137
-6.855	-0.007106
-6.850	-0.007125
-6.845	-0.007073
-6.840	-0.007067
-6.835	-0.007090
-6.830	-0.007063
-6.825	-0.007025
-6.820	-0.007001
-6.815	-0.007015
-6.810	-0.006982
-6.805	-0.006984
-6.800	-0.006989
-6.795	-0.006940
-6.790	-0.006921
-6.785	-0.006911
-6.780	-0.006902
-6.775	-0.006910
-6.770	-0.006892
-6.765	-0.006858
-6.760	-0.006870
-6.755	-0.006864
-6.750	-0.006828
-6.745	-0.006831
-6.740	-0.006790
-6.735	-0.006807
-6.730	-0.006798
-6.725	-0.006788
-6.720	-0.006782
-6.715	-0.006739
-6.710	-0.006730
-6.705	-0.006728
-6.700	-0.006707
-6.695	-0.006691
-6.690	-0.006682
-6.685	-0.006682
-6.680	-0.006666
-6.675	-0.006654
-6.670	-0.006642
-6.665	-0.006646
-6.660	-0.006601
-6.655	-0.006591
-6.650	-0.006576
-6.645	-0.006562
-6.640	-0.006586
-6.635	-0.006564
-6.630	-0.006541
-6.625	-0.006529
-6.620	-0.006529
-6.615	-0.006520
-6.610	-0.006493
-6.605	-0.006455
-6.600	-0.006461
-6.595	-0.006470
-6.590	-0.006456
-6.585	-0.006448
-6.580	-0.006432
-6.575	-0.006411
-6.570	-0.006378
-6.565	-0.006386
-6.560	-0.006400
-6.555	-0.006384
-6.550	-0.006359
-6.545	-0.006352
-6.540	-0.006323
-6.535	-0.006316
-6.530	-0.006316
-6.525	-0.006302
-6.520	-0.006285
-6.515	-0.006285
-6.510	-0.006285
-6.505	-0.006270
-6.500	-0.006260
-6.495	-0.006238
-6.490	-0.006200
-6.485	-0.006209
-6.480	-0.006212
-6.475	-0.006224
-6.470	-0.006200
-6.465	-0.006179
-6.460	-0.006140
-6.455	-0.006145
-6.450	-0.006136
-6.445	-0.006123
-6.440	-0.006125
-6.435	-0.006112
-6.430	-0.006137
-6.425	-0.006102
-6.420	-0.006074
-6.415	-0.006058
-6.410	-0.006062
-6.405	-0.006053
-6.400	-0.006028
-6.395	-0.006033
-6.390	-0.006026
-6.385	-0.006015
-6.380	-0.006015
-6.375	-0.006009
-6.370	-0.005999
-6.365	-0.005989
-6.360	-0.005964
-6.355	-0.005965
-6.350	-0.005969
-6.345	-0.005935
-6.340	-0.005924
-6.335	-0.005895
-6.330	-0.005914
-6.325	-0.005915
-6.320	-0.005877
-6.315	-0.005878
-6.310	-0.005878
-6.305	-0.005882
-6.300	-0.005836
-6.295	-0.005824
-6.290	-0.005819
-6.285	-0.005809
-6.280	-0.005816
-6.275	-0.005820
-6.270	-0.005788
-6.265	-0.005782
-6.260	-0.005753
-6.255	-0.005778
-6.250	-0.005731
-6.245	-0.005752
-6.240	-0.005743
-6.235	-0.005714
-6.230	-0.005689
-6.225	-0.005689
-6.220	-0.005692
-6.215	-0.005700
-6.210	-0.005694
-6.205	-0.005670
-6.200	-0.005640
-6.195	-0.005633
-6.190	-0.005624
-6.185	-0.005609
-6.180	-0.005623
-6.175	-0.005597
-6.170	-0.005600
-6.165	-0.005572
-6.160	-0.005566
-6.155	-0.005551
-6.150	-0.005546
-6.145	-0.005562
-6.140	-0.005534
-6.135	-0.005524
-6.130	-0.005538
-6.125	-0.005504
-6.120	-0.005494
-6.115	-0.005501
-6.110	-0.005495
-6.105	-0.005496
-6.100	-0.005477
-6.095	-0.005470
-6.090	-0.005451
-6.085	-0.005447
-6.080	-0.005428
-6.075	-0.005434
-6.070	-0.005440
-6.065	-0.005409
-6.060	-0.005417
-6.055	-0.005404
-6.050	-0.005389
-6.045	-0.005375
-6.040	-0.005376
-6.035	-0.005351
-6.030	-0.005362
-6.025	-0.005342
-6.020	-0.005330
-6.015	-0.005323
-6.010	-0.005311
-6.005	-0.005299
-6.000	-0.005297
-5.995	-0.005302
-5.990	-0.005289
-5.985	-0.005288
-5.980	-0.005300
-5.975	-0.005255
-5.970	-0.005264
-5.965	-0.005232
-5.960	-0.005249
-5.955	-0.005250
-5.950	-0.005242
-5.945	-0.005228
-5.940	-0.005244
-5.935	-0.005214
-5.930	-0.005193
-5.925	-0.005208
-5.920	-0.005186
-5.915	-0.005201
-5.910	-0.005191
-5.905	-0.005174
-5.900	-0.005152
-5.895	-0.005135
-5.890	-0.005109
-5.885	-0.005138
-5.880	-0.005118
-5.875	-0.005108
-5.870	-0.005105
-5.865	-0.005128
-5.860	-0.005115
-5.855	-0.005078
-5.850	-0.005086
-5.845	-0.005073
-5.840	-0.005054
-5.835	-0.005072
-5.830	-0.005044
-5.825	-0.005053
-5.820	-0.005045
-5.815	-0.005039
-5.810	-0.005003
-5.805	-0.005010
-5.800	-0.005008
-5.795	-0.004991
-5.790	-0.004992
-5.785	-0.004975
-5.780	-0.004983
-5.775	-0.004985
-5.770	-0.004988
-5.765	-0.004949
-5.760	-0.004963
-5.755	-0.004903
-5.750	-0.004923
-5.745	-0.004915
-5.740	-0.004908
-5.735	-0.004902
-5.730	-0.004912
-5.725	-0.004901
-5.720	-0.004904
-5.715	-0.004879
-5.710	-0.004848
-5.705	-0.004877
-5.700	-0.004844
-5.695	-0.004856
-5.690	-0.004862
-5.685	-0.004841
-5.680	-0.004839
-5.675	-0.004822
-5.670	-0.004818
-5.665	-0.004809
-5.660	-0.004797
-5.655	-0.004789
-5.650	-0.004788
-5.645	-0.004785
-5.640	-0.004756
-5.635	-0.004767
-5.630	-0.004778
-5.625	-0.004746
-5.620	-0.004744
-5.615	-0.004725
-5.610	-0.004735
-5.605	-0.004721
-5.600	-0.004698
-5.595	-0.004695
-5.590	-0.004700
-5.585	-0.004704
-5.580	-0.004681
-5.575	-0.004710
-5.570	-0.004672
-5.565	-0.004663
-5.560	-0.004651
-5.555	-0.004642
-5.550	-0.004631
-5.545	-0.004646
-5.540	-0.004618
-5.535	-0.004652
-5.530	-0.004622
-5.525	-0.004592
-5.520	-0.004624
-5.515	-0.004585
-5.510	-0.004584
-5.505	-0.004578
-5.500	-0.004574
-5.495	-0.004547
-5.490	-0.004563
-5.485	-0.004537
-5.480	-0.004571
-5.475	-0.004553
-5.470	-0.004528
-5.465	-0.004538
-5.460	-0.004524
-5.455	-0.004523
-5.450	-0.004498
-5.445	-0.004478
-5.440	-0.004480
-5.435	-0.004485
-5.430	-0.004491
-5.425	-0.004502
-5.420	-0.004467
-5.415	-0.004451
-5.410	-0.004431
-5.405	-0.004436
-5.400	-0.004430
-5.395	-0.004433
-5.390	-0.004438
-5.385	-0.004415
-5.380	-0.004392
-5.375	-0.004426
-5.370	-0.004421
-5.365	-0.004396
-5.360	-0.004386
-5.355	-0.004346
-5.350	-0.004369
-5.345	-0.004355
-5.340	-0.004359
-5.335	-0.004372
-5.330	-0.004358
-5.325	-0.004348
-5.320	-0.004341
-5.315	-0.004335
-5.310	-0.004320
-5.305	-0.004301
-5.300	-0.004302
-5.295	-0.004303
-5.290	-0.004308
-5.285	-0.004283
-5.280	-0.004291
-5.275	-0.004287
-5.270	-0.004263
-5.265	-0.004285
-5.260	-0.004264
-5.255	-0.004250
-5.250	-0.004243
-5.245	-0.004238
-5.240	-0.004218
-5.235	-0.004232
-5.230	-0.004253
-5.225	-0.004218
-5.220	-0.004205
-5.215	-0.004201
-5.210	-0.004190
-5.205	-0.004191
-5.200	-0.004189
-5.195	-0.004184
-5.190	-0.004189
-5.185	-0.004163
-5.180	-0.004177
-5.175	-0.004140
-5.170	-0.004185
-5.165	-0.004152
-5.160	-0.004154
-5.155	-0.004124
-5.150	-0.004120
-5.145	-0.004122
-5.140	-0.004109
-5.135	-0.004109
-5.130	-0.004109
-5.125	-0.004097
-5.120	-0.004101
-5.115	-0.004098
-5.110	-0.004097
-5.105	-0.004087
-5.100	-0.004076
-5.095	-0.004055
-5.090	-0.004054
-5.085	-0.004053
-5.080	-0.004025
-5.075	-0.004065
-5.070	-0.004036
-5.065	-0.004040
-5.060	-0.004007
-5.055	-0.004011
-5.050	-0.004019
-5.045	-0.004001
-5.040	-0.003984
-5.035	-0.003992
-5.030	-0.003972
-5.025	-0.003976
-5.020	-0.003969
-5.015	-0.003978
-5.010	-0.003945
-5.005	-0.003974
-5.000	-0.003968
-4.995	-0.003914
-4.990	-0.003929
-4.985	-0.003900
-4.980	-0.003924
-4.975	-0.003921
-4.970	-0.003922
-4.965	-0.003891
-4.960	-0.003923
-4.955	-0.003908
-4.950	-0.003897
-4.945	-0.003893
-4.940	-0.003876
-4.935	-0.003858
-4.930	-0.003838
-4.925	-0.003835
-4.920	-0.003855
-4.915	-0.003865
-4.910	-0.003860
-4.905	-0.003848
-4.900	-0.003850
-4.895	-0.003829
-4.890	-0.003819
-4.885	-0.003818
-4.880	-0.003795
-4.875	-0.003784
-4.870	-0.003794
-4.865	-0.003778
-4.860	-0.003782
-4.855	-0.003782
-4.850	-0.003777
-4.845	-0.003767
-4.840	-0.003763
-4.835	-0.003740
-4.830	-0.003751
-4.825	-0.003752
-4.820	-0.003740
-4.815	-0.003703
-4.810	-0.003722
-4.805	-0.003689
-4.800	-0.003718
-4.795	-0.003732
-4.790	-0.003703
-4.785	-0.003696
-4.780	-0.003713
-4.775	-0.003677
-4.770	-0.003687
-4.765	-0.003702
-4.760	-0.003677
-4.755	-0.003668
-4.750	-0.003639
-4.745	-0.003640
-4.740	-0.003638
-4.735	-0.003641
-4.730	-0.003618
-4.725	-0.003612
-4.720	-0.003615
-4.715	-0.003620
-4.710	-0.003604
-4.705	-0.003620
-4.700	-0.003588
-4.695	-0.003594
-4.690	-0.003554
-4.685	-0.003583
-4.680	-0.003558
-4.675	-0.003568
-4.670	-0.003588
-4.665	-0.003557
-4.660	-0.003563
-4.655	-0.003559
-4.650	-0.003554
-4.645	-0.003539
-4.640	-0.003551
-4.635	-0.003543
-4.630	-0.003514
-4.625	-0.003510
-4.620	-0.003515
-4.615	-0.003512
-4.610	-0.003497
-4.605	-0.003501
-4.600	-0.003505
-4.595	-0.003486
-4.590	-0.003501
-4.585	-0.003496
-4.580	-0.003476
-4.575	-0.003468
-4.570	-0.003449
-4.565	-0.003435
-4.560	-0.003432
-4.555	-0.003426
-4.550	-0.003431
-4.545	-0.003420
-4.540	-0.003407
-4.535	-0.003416
-4.530	-0.003425
-4.525	-0.003414
-4.520	-0.003407
-4.515	-0.003373
-4.510	-0.003388
-4.505	-0.003384
-4.500	-0.003386
-4.495	-0.003383
-4.490	-0.003369
-4.485	-0.003366
-4.480	-0.003359
-4.475	-0.003378
-4.470	-0.003358
-4.465	-0.003352
-4.460	-0.003344
-4.455	-0.003350
-4.450	-0.003350
-4.445	-0.003313
-4.440	-0.003315
-4.435	-0.003307
-4.430	-0.003307
-4.425	-0.003283
-4.420	-0.003307
-4.415	-0.003315
-4.410	-0.003301
-4.405	-0.003274
-4.400	-0.003280
-4.395	-0.003289
-4.390	-0.003289
-4.385	-0.003248
-4.380	-0.003269
-4.375	-0.003268
-4.370	-0.003277
-4.365	-0.003267
-4.360	-0.003236
-4.355	-0.003218
-4.350	-0.003224
-4.345	-0.003204
-4.340	-0.003220
-4.335	-0.003214
-4.330	-0.003219
-4.325	-0.003209
-4.320	-0.003230
-4.315	-0.003205
-4.310	-0.003223
-4.305	-0.003199
-4.300	-0.003182
-4.295	-0.003184
-4.290	-0.003180
-4.285	-0.003156
-4.280	-0.003160
-4.275	-0.003147
-4.270	-0.003147
-4.265	-0.003125
-4.260	-0.003137
-4.255	-0.003146
-4.250	-0.003151
-4.245	-0.003125
-4.240	-0.003151
-4.235	-0.003130
-4.230	-0.003110
-4.225	-0.003131
-4.220	-0.003125
-4.215	-0.003092
-4.210	-0.003082
-4.205	-0.003049
-4.200	-0.003092
-4.195	-0.003094
-4.190	-0.003100
-4.185	-0.003088
-4.180	-0.003066
-4.175	-0.003091
-4.170	-0.003081
-4.165	-0.003052
-4.160	-0.003065
-4.155	-0.003056
-4.150	-0.003027
-4.145	-0.003018
-4.140	-0.003041
-4.135	-0.003019
-4.130	-0.003019
-4.125	-0.003008
-4.120	-0.003012
-4.115	-0.003021
-4.110	-0.002996
-4.105	-0.003014
-4.100	-0.003016
-4.095	-0.003003
-4.090	-0.003008
-4.085	-0.003008
-4.080	-0.003003
-4.075	-0.002989
-4.070	-0.002988
-4.065	-0.002965
-4.060	-0.002963
-4.055	-0.002975
-4.050	-0.002965
-4.045	-0.002959
-4.040	-0.002970
-4.035	-0.002953
-4.030	-0.002944
-4.025	-0.002957
-4.020	-0.002948
-4.015	-0.002958
-4.010	-0.002943
-4.005	-0.002953
-4.000	-0.002934
-3.995	-0.002936
-3.990	-0.002935
-3.985	-0.002936
-3.980	-0.002935
-3.975	-0.002935
-3.970	-0.002951
-3.965	-0.002935
-3.960	-0.002906
-3.955	-0.002937
-3.950	-0.002971
-3.945	-0.002936
-3.940	-0.002933
-3.935	-0.002932
-3.930	-0.002936
-3.925	-0.002936
-3.920	-0.002960
-3.915	-0.002962
-3.910	-0.002943
-3.905	-0.002969
-3.900	-0.002958
-3.895	-0.002975
-3.890	-0.003009
-3.885	-0.002997
-3.880	-0.003033
-3.875	-0.003038
-3.870	-0.003060
-3.865	-0.003134
-3.860	-0.003147
-3.855	-0.003225
-3.850	-0.003304
-3.845	-0.003385
-3.840	-0.003514
-3.835	-0.003661
-3.830	-0.003830
-3.825	-0.004051
-3.820	-0.004351
-3.815	-0.004651
-3.810	-0.005037
-3.805	-0.005511
-3.800	-0.006049
-3.795	-0.006747
-3.790	-0.007525
-3.785	-0.008462
-3.780	-0.009561
-3.775	-0.010815
-3.770	-0.011722
-3.765	-0.011446
-3.760	-0.009382
-3.755	-0.006535
-3.750	-0.003648
-3.745	0.000171
-3.740	0.005549
-3.735	0.009292
-3.730	0.009101
-3.725	0.006440
-3.720	0.003109
-3.715	-0.000072
-3.710	-0.002625
-3.705	-0.004579
-3.700	-0.005951
-3.695	-0.006977
-3.690	-0.007692
-3.685	-0.008292
-3.680	-0.008807
-3.675	-0.009356
-3.670	-0.009873
-3.665	-0.010392
-3.660	-0.010855
-3.655	-0.011370
-3.650	-0.011887
-3.645	-0.012378
-3.640	-0.012855
-3.635	-0.013332
-3.630	-0.013727
-3.625	-0.014082
-3.620	-0.014361
-3.615	-0.014479
-3.610	-0.014275
-3.605	-0.013317
-3.600	-0.011192
-3.595	-0.007914
-3.590	-0.004275
-3.585	-0.000520
-3.580	0.003585
-3.575	0.007471
-3.570	0.009140
-3.565	0.008135
-3.560	0.005565
-3.555	0.002647
-3.550	0.000072
-3.545	-0.002028
-3.540	-0.003530
-3.535	-0.004564
-3.530	-0.005268
-3.525	-0.005836
-3.520	-0.006211
-3.515	-0.006478
-3.510	-0.006764
-3.505	-0.007041
-3.500	-0.007410
-3.495	-0.007746
-3.490	-0.008171
-3.485	-0.008560
-3.480	-0.009024
-3.475	-0.009423
-3.470	-0.009798
-3.465	-0.010193
-3.460	-0.010561
-3.455	-0.010918
-3.450	-0.011199
-3.445	-0.011425
-3.440	-0.011562
-3.435	-0.011546
-3.430	-0.011033
-3.425	-0.009568
-3.420	-0.007027
-3.415	-0.003644
-3.410	-0.000302
-3.405	0.003417
-3.400	0.007247
-3.395	0.009878
-3.390	0.010028
-3.385	0.008067
-3.380	0.005250
-3.375	0.002486
-3.370	0.000245
-3.365	-0.001471
-3.360	-0.002678
-3.355	-0.003557
-3.350	-0.004182
-3.345	-0.004606
-3.340	-0.004921
-3.335	-0.005250
-3.330	-0.005574
-3.325	-0.005907
-3.320	-0.006244
-3.315	-0.006561
-3.310	-0.006915
-3.305	-0.007253
-3.300	-0.007595
-3.295	-0.007969
-3.290	-0.008306
-3.285	-0.008642
-3.280	-0.008983
-3.275	-0.009341
-3.270	-0.009660
-3.265	-0.009911
-3.260	-0.010153
-3.255	-0.010317
-3.250	-0.010419
-3.245	-0.010288
-3.240	-0.009549
-3.235	-0.007781
-3.230	-0.005084
-3.225	-0.001930
-3.220	0.001228
-3.215	0.004909
-3.210	0.008337
-3.205	0.010216
-3.200	0.009740
-3.195	0.007594
-3.190	0.004986
-3.185	0.002533
-3.180	0.000596
-3.175	-0.000979
-3.170	-0.002084
-3.165	-0.002824
-3.160	-0.003389
-3.155	-0.003806
-3.150	-0.004144
-3.145	-0.004423
-3.140	-0.004678
-3.135	-0.004981
-3.130	-0.005271
-3.125	-0.005517
-3.120	-0.005809
-3.115	-0.006145
-3.110	-0.006468
-3.105	-0.006780
-3.100	-0.007150
-3.095	-0.007517
-3.090	-0.007847
-3.085	-0.008153
-3.080	-0.008440
-3.075	-0.008772
-3.070	-0.009018
-3.065	-0.009263
-3.060	-0.009407
-3.055	-0.009509
-3.050	-0.009512
-3.045	-0.009289
-3.040	-0.008540
-3.035	-0.006776
-3.030	-0.004053
-3.025	-0.000924
-3.020	0.002163
-3.015	0.005619
-3.010	0.008708
-3.005	0.010339
-3.000	0.009841
-2.995	0.007846
-2.990	0.005429
-2.985	0.003151
-2.980	0.001271
-2.975	-0.000274
-2.970	-0.001334
-2.965	-0.002123
-2.960	-0.002652
-2.955	-0.003043
-2.950	-0.003336
-2.945	-0.003620
-2.940	-0.003926
-2.935	-0.004177
-2.930	-0.004431
-2.925	-0.004652
-2.920	-0.004883
-2.915	-0.005141
-2.910	-0.005421
-2.905	-0.005693
-2.900	-0.005987
-2.895	-0.006327
-2.890	-0.006613
-2.885	-0.006935
-2.880	-0.007262
-2.875	-0.007543
-2.870	-0.007813
-2.865	-0.008007
-2.860	-0.008216
-2.855	-0.008426
-2.850	-0.008589
-2.845	-0.008772
-2.840	-0.008809
-2.835	-0.008763
-2.830	-0.008440
-2.825	-0.007628
-2.820	-0.005983
-2.815	-0.003405
-2.810	-0.000631
-2.805	0.002394
-2.800	0.005577
-2.795	0.008595
-2.790	0.010259
-2.785	0.010011
-2.780	0.008373
-2.775	0.006102
-2.770	0.003896
-2.765	0.001977
-2.760	0.000475
-2.755	-0.000616
-2.750	-0.001358
-2.745	-0.001848
-2.740	-0.002259
-2.735	-0.002649
-2.730	-0.002973
-2.725	-0.003265
-2.720	-0.003474
-2.715	-0.003623
-2.710	-0.003765
-2.705	-0.003955
-2.700	-0.004167
-2.695	-0.004407
-2.690	-0.004641
-2.685	-0.004889
-2.680	-0.005182
-2.675	-0.005447
-2.670	-0.005680
-2.665	-0.005950
-2.660	-0.006231
-2.655	-0.006504
-2.650	-0.006782
-2.645	-0.007068
-2.640	-0.007278
-2.635	-0.007448
-2.630	-0.007600
-2.625	-0.007749
-2.620	-0.007878
-2.615	-0.007937
-2.610	-0.007981
-2.605	-0.007965
-2.600	-0.007848
-2.595	-0.007405
-2.590	-0.006406
-2.585	-0.004499
-2.580	-0.002064
-2.575	0.000596
-2.570	0.003410
-2.565	0.006510
-2.560	0.008994
-2.555	0.010019
-2.550	0.009408
-2.545	0.007766
-2.540	0.005792
-2.535	0.003822
-2.530	0.002195
-2.525	0.000919
-2.520	-0.000045
-2.515	-0.000752
-2.510	-0.001302
-2.505	-0.001768
-2.500	-0.002061
-2.495	-0.002246
-2.490	-0.002477
-2.485	-0.002712
-2.480	-0.002908
-2.475	-0.003094
-2.470	-0.003242
-2.465	-0.003354
-2.460	-0.003544
-2.455	-0.003695
-2.450	-0.003869
-2.445	-0.004026
-2.440	-0.004210
-2.435	-0.004469
-2.430	-0.004724
-2.425	-0.004969
-2.420	-0.005158
-2.415	-0.005358
-2.410	-0.005552
-2.405	-0.005783
-2.400	-0.006004
-2.395	-0.006171
-2.390	-0.006347
-2.385	-0.006498
-2.380	-0.006640
-2.375	-0.006779
-2.370	-0.006921
-2.365	-0.007060
-2.360	-0.007146
-2.355	-0.007204
-2.350	-0.007218
-2.345	-0.007075
-2.340	-0.006763
-2.335	-0.006067
-2.330	-0.004754
-2.325	-0.002724
-2.320	-0.000396
-2.315	0.002104
-2.310	0.004812
-2.305	0.007480
-2.300	0.009237
-2.295	0.009613
-2.290	0.008810
-2.285	0.007288
-2.280	0.005572
-2.275	0.003902
-2.270	0.002510
-2.265	0.001357
-2.260	0.000399
-2.255	-0.000334
-2.250	-0.000894
-2.245	-0.001300
-2.240	-0.001595
-2.235	-0.001811
-2.230	-0.001983
-2.225	-0.002087
-2.220	-0.002213
-2.215	-0.002329
-2.210	-0.002465
-2.205	-0.002587
-2.200	-0.002708
-2.195	-0.002886
-2.190	-0.003049
-2.185	-0.003220
-2.180	-0.003375
-2.175	-0.003517
-2.170	-0.003652
-2.165	-0.003780
-2.160	-0.003914
-2.155	-0.004105
-2.150	-0.004259
-2.145	-0.004436
-2.140	-0.004609
-2.135	-0.004801
-2.130	-0.004977
-2.125	-0.005151
-2.120	-0.005302
-2.115	-0.005478
-2.110	-0.005649
-2.105	-0.005768
-2.100	-0.005861
-2.095	-0.005940
-2.090	-0.006039
-2.085	-0.006143
-2.080	-0.006209
-2.075	-0.006284
-2.070	-0.006328
-2.065	-0.006300
-2.060	-0.006269
-2.055	-0.006079
-2.050	-0.005774
-2.045	-0.005055
-2.040	-0.003761
-2.035	-0.001892
-2.030	0.000122
-2.025	0.002375
-2.020	0.004833
-2.015	0.007300
-2.010	0.008885
-2.005	0.009315
-2.000	0.008783
-1.995	0.007577
-1.990	0.006134
-1.985	0.004610
-1.980	0.003227
-1.975	0.002018
-1.970	0.001088
-1.965	0.000390
-1.960	-0.000126
-1.955	-0.000464
-1.950	-0.000730
-1.945	-0.000971
-1.940	-0.001176
-1.935	-0.001331
-1.930	-0.001517
-1.925	-0.001680
-1.920	-0.001870
-1.915	-0.002021
-1.910	-0.002139
-1.905	-0.002228
-1.900	-0.002287
-1.895	-0.002374
-1.890	-0.002433
-1.885	-0.002519
-1.880	-0.002574
-1.875	-0.002675
-1.870	-0.002807
-1.865	-0.002961
-1.860	-0.003103
-1.855	-0.003222
-1.850	-0.003344
-1.845	-0.003486
-1.840	-0.003597
-1.835	-0.003757
-1.830	-0.003894
-1.825	-0.004043
-1.820	-0.004211
-1.815	-0.004350
-1.810	-0.004482
-1.805	-0.004612
-1.800	-0.004708
-1.795	-0.004811
-1.790	-0.004838
-1.785	-0.004904
-1.780	-0.004959
-1.775	-0.005028
-1.770	-0.005078
-1.765	-0.005130
-1.760	-0.005159
-1.755	-0.005192
-1.750	-0.005236
-1.745	-0.005231
-1.740	-0.005217
-1.735	-0.005219
-1.730	-0.005126
-1.725	-0.005023
-1.720	-0.004820
-1.715	-0.004445
-1.710	-0.003706
-1.705	-0.002569
-1.700	-0.001060
-1.695	0.000764
-1.690	0.002787
-1.685	0.004963
-1.680	0.006857
-1.675	0.008156
-1.670	0.008654
-1.665	0.008383
-1.660	0.007562
-1.655	0.006355
-1.650	0.005103
-1.645	0.003845
-1.640	0.002844
-1.635	0.001981
-1.630	0.001326
-1.625	0.000746
-1.620	0.000338
-1.615	-0.000010
-1.610	-0.000325
-1.605	-0.000575
-1.600	-0.000776
-1.595	-0.000957
-1.590	-0.001075
-1.585	-0.001158
-1.580	-0.001231
-1.575	-0.001292
-1.570	-0.001345
-1.565	-0.001388
-1.560	-0.001408
-1.555	-0.001464
-1.550	-0.001557
-1.545	-0.001635
-1.540	-0.001725
-1.535	-0.001803
-1.530	-0.001886
-1.525	-0.001955
-1.520	-0.002032
-1.515	-0.002123
-1.510	-0.002245
-1.505	-0.002314
-1.500	-0.002327
-1.495	-0.002323
-1.490	-0.002373
-1.485	-0.002456
-1.480	-0.002589
-1.475	-0.002739
-1.470	-0.002818
-1.465	-0.002889
-1.460	-0.002979
-1.455	-0.003042
-1.450	-0.003082
-1.445	-0.003146
-1.440	-0.003233
-1.435	-0.003312
-1.430	-0.003400
-1.425	-0.003494
-1.420	-0.003575
-1.415	-0.003656
-1.410	-0.003728
-1.405	-0.003742
-1.400	-0.003808
-1.395	-0.003836
-1.390	-0.003856
-1.385	-0.003869
-1.380	-0.003923
-1.375	-0.003932
-1.370	-0.003950
-1.365	-0.003981
-1.360	-0.004002
-1.355	-0.004032
-1.350	-0.004087
-1.345	-0.004082
-1.340	-0.004111
-1.335	-0.004081
-1.330	-0.004052
-1.325	-0.003977
-1.320	-0.003885
-1.315	-0.003791
-1.310	-0.003634
-1.305	-0.003442
-1.300	-0.003179
-1.295	-0.002742
-1.290	-0.002010
-1.285	-0.001060
-1.280	0.000061
-1.275	0.001452
-1.270	0.003005
-1.265	0.004603
-1.260	0.005952
-1.255	0.006901
-1.250	0.007298
-1.245	0.007145
-1.240	0.006674
-1.235	0.005958
-1.230	0.005211
-1.225	0.004424
-1.220	0.003643
-1.215	0.002894
-1.210	0.002244
-1.205	0.001726
-1.200	0.001284
-1.195	0.000960
-1.190	0.000699
-1.185	0.000468
-1.180	0.000316
-1.175	0.000173
-1.170	0.000071
-1.165	-0.000057
-1.160	-0.000209
-1.155	-0.000352
-1.150	-0.000489
-1.145	-0.000597
-1.140	-0.000773
-1.135	-0.000866
-1.130	-0.000871
-1.125	-0.000856
-1.120	-0.000875
-1.115	-0.000954
-1.110	-0.000998
-1.105	-0.001018
-1.100	-0.000993
-1.095	-0.000881
-1.090	-0.000817
-1.085	-0.000796
-1.080	-0.000812
-1.075	-0.000882
-1.070	-0.000965
-1.065	-0.001048
-1.060	-0.001117
-1.055	-0.001133
-1.050	-0.001202
-1.045	-0.001255
-1.040	-0.001295
-1.035	-0.001336
-1.030	-0.001400
-1.025	-0.001485
-1.020	-0.001529
-1.015	-0.001562
-1.010	-0.001563
-1.005	-0.001584
-1.000	-0.001588
-0.995	-0.001609
-0.990	-0.001653
-0.985	-0.001674
-0.980	-0.001683
-0.975	-0.001751
-0.970	-0.001786
-0.965	-0.001787
-0.960	-0.001792
-0.955	-0.001843
-0.950	-0.001872
-0.945	-0.001905
-0.940	-0.001916
-0.935	-0.001873
-0.930	-0.001858
-0.925	-0.001883
-0.920	-0.001931
-0.915	-0.001973
-0.910	-0.002032
-0.905	-0.002074
-0.900	-0.002113
-0.895	-0.002110
-0.890	-0.002116
-0.885	-0.002088
-0.880	-0.002087
-0.875	-0.002085
-0.870	-0.002100
-0.865	-0.002137
-0.860	-0.002199
-0.855	-0.002230
-0.850	-0.002294
-0.845	-0.002274
-0.840	-0.002273
-0.835	-0.002230
-0.830	-0.002138
-0.825	-0.002021
-0.820	-0.001910
-0.815	-0.001780
-0.810	-0.001726
-0.805	-0.001681
-0.800	-0.001691
-0.795	-0.001706
-0.790	-0.001686
-0.785	-0.001714
-0.780	-0.001709
-0.775	-0.001674
-0.770	-0.001630
-0.765	-0.001566
-0.760	-0.001498
-0.755	-0.001429
-0.750	-0.001336
-0.745	-0.001239
-0.740	-0.001239
-0.735	-0.001259
-0.730	-0.001282
-0.725	-0.001266
-0.720	-0.001203
-0.715	-0.001114
-0.710	-0.000982
-0.705	-0.000835
-0.700	-0.000678
-0.695	-0.000550
-0.690	-0.000442
-0.685	-0.000373
-0.680	-0.000329
-0.675	-0.000265
-0.670	-0.000192
-0.665	-0.000104
-0.660	0.000029
-0.655	0.000171
-0.650	0.000377
-0.645	0.000726
-0.640	0.001192
-0.635	0.001944
-0.630	0.003016
-0.625	0.004615
-0.620	0.006677
-0.615	0.009319
-0.610	0.012215
-0.605	0.015311
-0.600	0.018379
-0.595	0.021432
-0.590	0.024055
-0.585	0.026231
-0.580	0.027695
-0.575	0.028509
-0.570	0.028653
-0.565	0.028177
-0.560	0.027179
-0.555	0.025771
-0.550	0.024164
-0.545	0.022376
-0.540	0.020591
-0.535	0.018809
-0.530	0.017222
-0.525	0.015748
-0.520	0.014374
-0.515	0.013140
-0.510	0.012030
-0.505	0.011127
-0.500	0.010415
-0.495	0.009867
-0.490	0.009445
-0.485	0.009109
-0.480	0.008702
-0.475	0.008286
-0.470	0.007896
-0.465	0.007500
-0.460	0.007182
-0.455	0.006853
-0.450	0.006623
-0.445	0.006471
-0.440	0.006395
-0.435	0.006348
-0.430	0.006246
-0.425	0.006122
-0.420	0.006016
-0.415	0.005835
-0.410	0.005549
-0.405	0.005247
-0.400	0.004973
-0.395	0.004795
-0.390	0.004783
-0.385	0.004883
-0.380	0.004878
-0.375	0.004834
-0.370	0.004600
-0.365	0.004178
-0.360	0.003847
-0.355	0.003872
-0.350	0.004147
-0.345	0.004410
-0.340	0.004454
-0.335	0.004419
-0.330	0.004407
-0.325	0.004591
-0.320	0.004928
-0.315	0.005286
-0.310	0.005219
-0.305	0.004728
-0.300	0.004341
-0.295	0.004403
-0.290	0.004544
-0.285	0.004482
-0.280	0.004117
-0.275	0.003638
-0.270	0.003312
-0.265	0.003075
-0.260	0.002728
-0.255	0.002552
-0.250	0.002850
-0.245	0.003425
-0.240	0.003830
-0.235	0.003993
-0.230	0.003745
-0.225	0.003443
-0.220	0.003218
-0.215	0.002542
-0.210	0.001904
-0.205	0.001582
-0.200	0.001153
-0.195	0.001492
-0.190	0.002419
-0.185	0.002157
-0.180	0.000562
-0.175	-0.000199
-0.170	-0.000076
-0.165	-0.000567
-0.160	-0.000712
-0.155	-0.000709
-0.150	-0.001642
-0.145	-0.002727
-0.140	-0.001606
-0.135	0.000646
-0.130	-0.001484
-0.125	-0.004228
-0.120	-0.002662
-0.115	-0.004781
-0.110	-0.004958
-0.105	-0.002963
-0.100	-0.004415
-0.095	-0.006113
-0.090	-0.004409
-0.085	-0.006085
-0.080	-0.003864
-0.075	-0.000819
-0.070	-0.000294
-0.065	-0.004523
-0.060	-0.007961
-0.055	-0.005316
-0.050	-0.001223
-0.045	0.001538
-0.040	-0.003414
-0.035	-0.005811
-0.030	0.000076
-0.025	-0.001897
-0.020	0.000194
-0.015	-0.004028
-0.010	0.001304
-0.005	0.001827
0.000	-0.000056
0.005	-0.004042
0.010	0.005102
0.015	-0.000988
0.020	0.000387
0.025	0.001015
0.030	0.005370
0.035	0.000465
0.040	-0.000020
0.045	0.005285
0.050	0.003681
0.055	0.000071
0.060	0.003404
0.065	0.005277
0.070	0.004364
0.075	0.004595
0.080	0.003210
0.085	0.005300
0.090	0.005510
0.095	0.002238
0.100	0.000308
0.105	0.003538
0.110	0.007775
0.115	0.006046
0.120	0.003313
0.125	0.002179
0.130	0.001471
0.135	0.001890
0.140	0.003962
0.145	0.002096
0.150	-0.000918
0.155	-0.000169
0.160	0.002787
0.165	0.002794
0.170	0.000602
0.175	-0.001182
0.180	-0.001163
0.185	0.000279
0.190	0.000338
0.195	-0.001332
0.200	-0.002606
0.205	-0.002998
0.210	-0.002704
0.215	-0.002078
0.220	-0.001853
0.225	-0.002235
0.230	-0.003004
0.235	-0.003794
0.240	-0.004110
0.245	-0.004193
0.250	-0.004606
0.255	-0.004794
0.260	-0.003930
0.265	-0.002744
0.270	-0.002189
0.275	-0.002413
0.280	-0.003165
0.285	-0.004121
0.290	-0.004690
0.295	-0.004849
0.300	-0.004639
0.305	-0.004149
0.310	-0.003854
0.315	-0.003890
0.320	-0.003971
0.325	-0.004100
0.330	-0.004231
0.335	-0.004254
0.340	-0.004166
0.345	-0.004139
0.350	-0.004228
0.355	-0.004432
0.360	-0.004704
0.365	-0.005090
0.370	-0.005501
0.375	-0.005695
0.380	-0.005574
0.385	-0.005293
0.390	-0.005116
0.395	-0.005063
0.400	-0.005258
0.405	-0.005581
0.410	-0.005888
0.415	-0.006022
0.420	-0.005910
0.425	-0.005619
0.430	-0.005367
0.435	-0.005299
0.440	-0.005511
0.445	-0.005982
0.450	-0.006509
0.455	-0.007068
0.460	-0.007543
0.465	-0.007958
0.470	-0.008215
0.475	-0.008300
0.480	-0.008303
0.485	-0.008294
0.490	-0.008339
0.495	-0.008527
0.500	-0.008860
0.505	-0.009412
0.510	-0.010139
0.515	-0.011080
0.520	-0.012135
0.525	-0.013359
0.530	-0.014654
0.535	-0.016083
0.540	-0.017639
0.545	-0.019292
0.550	-0.021001
0.555	-0.022820
0.560	-0.024618
0.565	-0.026398
0.570	-0.027831
0.575	-0.028832
0.580	-0.029285
0.585	-0.028986
0.590	-0.027888
0.595	-0.025990
0.600	-0.023452
0.605	-0.020437
0.610	-0.017203
0.615	-0.013679
0.620	-0.010436
0.625	-0.007497
0.630	-0.005138
0.635	-0.003297
0.640	-0.002025
0.645	-0.001177
0.650	-0.000708
0.655	-0.000381
0.660	-0.000224
0.665	-0.000072
0.670	0.000051
0.675	0.000115
0.680	0.000227
0.685	0.000316
0.690	0.000360
0.695	0.000424
0.700	0.000478
0.705	0.000561
0.710	0.000644
0.715	0.000719
0.720	0.000822
0.725	0.000905
0.730	0.000989
0.735	0.001082
0.740	0.001161
0.745	0.001313
0.750	0.001407
0.755	0.001529
0.760	0.001564
0.765	0.001584
0.770	0.001617
0.775	0.001600
0.780	0.001610
0.785	0.001602
0.790	0.001611
0.795	0.001645
0.800	0.001665
0.805	0.001720
0.810	0.001822
0.815	0.001916
0.820	0.001989
0.825	0.002008
0.830	0.002028
0.835	0.002036
0.840	0.002070
0.845	0.002088
0.850	0.002065
0.855	0.002051
0.860	0.001992
0.865	0.001969
0.870	0.001954
0.875	0.001956
0.880	0.001990
0.885	0.002041
0.890	0.002074
0.895	0.002101
0.900	0.002102
0.905	0.002083
0.910	0.002049
0.915	0.001979
0.920	0.001950
0.925	0.001975
0.930	0.001979
0.935	0.001995
0.940	0.001971
0.945	0.001964
0.950	0.001896
0.955	0.001864
0.960	0.001805
0.965	0.001800
0.970	0.001796
0.975	0.001771
0.980	0.001771
0.985	0.001742
0.990	0.001721
0.995	0.001711
1.000	0.001712
1.005	0.001664
1.010	0.001634
1.015	0.001603
1.020	0.001520
1.025	0.001447
1.030	0.001416
1.035	0.001371
1.040	0.001342
1.045	0.001269
1.050	0.001220
1.055	0.001171
1.060	0.001132
1.065	0.001078
1.070	0.001034
1.075	0.001005
1.080	0.001020
1.085	0.001039
1.090	0.001068
1.095	0.001069
1.100	0.001083
1.105	0.001078
1.110	0.001063
1.115	0.001015
1.120	0.000975
1.125	0.000862
1.130	0.000779
1.135	0.000657
1.140	0.000578
1.145	0.000495
1.150	0.000421
1.155	0.000416
1.160	0.000387
1.165	0.000323
1.170	0.000255
1.175	0.000156
1.180	0.000014
1.185	-0.000128
1.190	-0.000295
1.195	-0.000521
1.200	-0.000771
1.205	-0.001139
1.210	-0.001576
1.215	-0.002102
1.220	-0.002703
1.225	-0.003377
1.230	-0.004139
1.235	-0.004923
1.240	-0.005676
1.245	-0.006410
1.250	-0.006910
1.255	-0.007118
1.260	-0.006986
1.265	-0.006385
1.270	-0.005365
1.275	-0.004040
1.280	-0.002509
1.285	-0.000826
1.290	0.000710
1.295	0.001948
1.300	0.002770
1.305	0.003175
1.310	0.003428
1.315	0.003592
1.320	0.003710
1.325	0.003837
1.330	0.003939
1.335	0.003983
1.340	0.004014
1.345	0.004009
1.350	0.003997
1.355	0.003982
1.360	0.003967
1.365	0.003944
1.370	0.003932
1.375	0.003886
1.380	0.003871
1.385	0.003842
1.390	0.003804
1.395	0.003765
1.400	0.003717
1.405	0.003707
1.410	0.003663
1.415	0.003650
1.420	0.003597
1.425	0.003535
1.430	0.003454
1.435	0.003409
1.440	0.003354
1.445	0.003281
1.450	0.003177
1.455	0.003145
1.460	0.003105
1.465	0.003079
1.470	0.003018
1.475	0.002904
1.480	0.002825
1.485	0.002689
1.490	0.002614
1.495	0.002484
1.500	0.002406
1.505	0.002260
1.510	0.002205
1.515	0.002081
1.520	0.002008
1.525	0.001988
1.530	0.001953
1.535	0.001880
1.540	0.001870
1.545	0.001835
1.550	0.001820
1.555	0.001762
1.560	0.001693
1.565	0.001586
1.570	0.001503
1.575	0.001454
1.580	0.001376
1.585	0.001293
1.590	0.001160
1.595	0.000994
1.600	0.000817
1.605	0.000664
1.610	0.000512
1.615	0.000311
1.620	0.000056
1.625	-0.000225
1.630	-0.000597
1.635	-0.001086
1.640	-0.001703
1.645	-0.002504
1.650	-0.003472
1.655	-0.004598
1.660	-0.005714
1.665	-0.006857
1.670	-0.007757
1.675	-0.008305
1.680	-0.008158
1.685	-0.007281
1.690	-0.005827
1.695	-0.004024
1.700	-0.001976
1.705	0.000277
1.710	0.002288
1.715	0.003710
1.720	0.004405
1.725	0.004763
1.730	0.004930
1.735	0.005088
1.740	0.005182
1.745	0.005249
1.750	0.005282
1.755	0.005257
1.760	0.005203
1.765	0.005165
1.770	0.005140
1.775	0.005117
1.780	0.005074
1.785	0.005005
1.790	0.004939
1.795	0.004841
1.800	0.004738
1.805	0.004597
1.810	0.004483
1.815	0.004333
1.820	0.004215
1.825	0.004094
1.830	0.003965
1.835	0.003825
1.840	0.003718
1.845	0.003623
1.850	0.003512
1.855	0.003421
1.860	0.003346
1.865	0.003217
1.870	0.003114
1.875	0.002993
1.880	0.002875
1.885	0.002759
1.890	0.002709
1.895	0.002565
1.900	0.002453
1.905	0.002326
1.910	0.002135
1.915	0.001982
1.920	0.001815
1.925	0.001710
1.930	0.001587
1.935	0.001426
1.940	0.001289
1.945	0.001167
1.950	0.001025
1.955	0.000824
1.960	0.000519
1.965	0.000111
1.970	-0.000428
1.975	-0.001113
1.980	-0.001932
1.985	-0.002972
1.990	-0.004180
1.995	-0.005639
2.000	-0.007115
2.005	-0.008315
2.010	-0.008835
2.015	-0.008445
2.020	-0.007217
2.025	-0.005439
2.030	-0.003344
2.035	-0.000758
2.040	0.001903
2.045	0.004060
2.050	0.005214
2.055	0.005745
2.060	0.005953
2.065	0.006091
2.070	0.006142
2.075	0.006147
2.080	0.006152
2.085	0.006079
2.090	0.006044
2.095	0.005938
2.100	0.005870
2.105	0.005807
2.110	0.005742
2.115	0.005656
2.120	0.005528
2.125	0.005408
2.130	0.005238
2.135	0.005028
2.140	0.004851
2.145	0.004673
2.150	0.004512
2.155	0.004364
2.160	0.004192
2.165	0.004038
2.170	0.003825
2.175	0.003656
2.180	0.003459
2.185	0.003229
2.190	0.003086
2.195	0.002955
2.200	0.002808
2.205	0.002623
2.210	0.002509
2.215	0.002382
2.220	0.002318
2.225	0.002256
2.230	0.002150
2.235	0.001984
2.240	0.001803
2.245	0.001548
2.250	0.001224
2.255	0.000810
2.260	0.000388
2.265	-0.000206
2.270	-0.000990
2.275	-0.002105
2.280	-0.003563
2.285	-0.005259
2.290	-0.006971
2.295	-0.008386
2.300	-0.009058
2.305	-0.008707
2.310	-0.007485
2.315	-0.005688
2.320	-0.003407
2.325	-0.000435
2.330	0.002672
2.335	0.005105
2.340	0.006339
2.345	0.006851
2.350	0.007013
2.355	0.007087
2.360	0.007107
2.365	0.007076
2.370	0.007006
2.375	0.006889
2.380	0.006779
2.385	0.006650
2.390	0.006524
2.395	0.006405
2.400	0.006234
2.405	0.006065
2.410	0.005838
2.415	0.005585
2.420	0.005354
2.425	0.005074
2.430	0.004845
2.435	0.004635
2.440	0.004451
2.445	0.004198
2.450	0.003977
2.455	0.003743
2.460	0.003576
2.465	0.003467
2.470	0.003345
2.475	0.003221
2.480	0.003132
2.485	0.002929
2.490	0.002712
2.495	0.002473
2.500	0.002209
2.505	0.001928
2.510	0.001662
2.515	0.001297
2.520	0.000718
2.525	-0.000106
2.530	-0.001265
2.535	-0.002765
2.540	-0.004518
2.545	-0.006482
2.550	-0.008047
2.555	-0.009008
2.560	-0.008953
2.565	-0.007911
2.570	-0.006227
2.575	-0.003916
2.580	-0.000972
2.585	0.002496
2.590	0.005359
2.595	0.007024
2.600	0.007683
2.605	0.007951
2.610	0.008020
2.615	0.007979
2.620	0.007929
2.625	0.007809
2.630	0.007676
2.635	0.007460
2.640	0.007260
2.645	0.007077
2.650	0.006873
2.655	0.006621
2.660	0.006390
2.665	0.006140
2.670	0.005860
2.675	0.005621
2.680	0.005357
2.685	0.005077
2.690	0.004850
2.695	0.004630
2.700	0.004416
2.705	0.004187
2.710	0.003919
2.715	0.003672
2.720	0.003431
2.725	0.003207
2.730	0.003003
2.735	0.002780
2.740	0.002584
2.745	0.002304
2.750	0.001904
2.755	0.001343
2.760	0.000518
2.765	-0.000704
2.770	-0.002246
2.775	-0.004180
2.780	-0.006206
2.785	-0.008011
2.790	-0.009072
2.795	-0.009006
2.800	-0.007960
2.805	-0.006171
2.810	-0.003641
2.815	-0.000172
2.820	0.003583
2.825	0.006597
2.830	0.008069
2.835	0.008605
2.840	0.008720
2.845	0.008708
2.850	0.008585
2.855	0.008407
2.860	0.008217
2.865	0.008010
2.870	0.007791
2.875	0.007541
2.880	0.007260
2.885	0.006954
2.890	0.006653
2.895	0.006367
2.900	0.006098
2.905	0.005835
2.910	0.005582
2.915	0.005345
2.920	0.005035
2.925	0.004755
2.930	0.004477
2.935	0.004223
2.940	0.004004
2.945	0.003756
2.950	0.003527
2.955	0.003243
2.960	0.002948
2.965	0.002481
2.970	0.001843
2.975	0.000829
2.980	-0.000527
2.985	-0.002374
2.990	-0.004419
2.995	-0.006579
3.000	-0.008325
3.005	-0.009170
3.010	-0.008768
3.015	-0.007382
3.020	-0.005273
3.025	-0.002111
3.030	0.001760
3.035	0.005649
3.040	0.008009
3.045	0.009041
3.050	0.009324
3.055	0.009349
3.060	0.009282
3.065	0.009158
3.070	0.008978
3.075	0.008767
3.080	0.008497
3.085	0.008231
3.090	0.007983
3.095	0.007657
3.100	0.007371
3.105	0.007085
3.110	0.006799
3.115	0.006466
3.120	0.006087
3.125	0.005738
3.130	0.005441
3.135	0.005116
3.140	0.004850
3.145	0.004590
3.150	0.004353
3.155	0.004052
3.160	0.003716
3.165	0.003254
3.170	0.002642
3.175	0.001691
3.180	0.000418
3.185	-0.001363
3.190	-0.003431
3.195	-0.005741
3.200	-0.007726
3.205	-0.008821
3.210	-0.008565
3.215	-0.007162
3.220	-0.005056
3.225	-0.001964
3.230	0.001967
3.235	0.006154
3.240	0.008834
3.245	0.010002
3.250	0.010296
3.255	0.010282
3.260	0.010131
3.265	0.009932
3.270	0.009700
3.275	0.009451
3.280	0.009156
3.285	0.008822
3.290	0.008477
3.295	0.008132
3.300	0.007772
3.305	0.007385
3.310	0.007065
3.315	0.006748
3.320	0.006390
3.325	0.006029
3.330	0.005685
3.335	0.005364
3.340	0.005040
3.345	0.004726
3.350	0.004354
3.355	0.003797
3.360	0.003004
3.365	0.001848
3.370	0.000359
3.375	-0.001643
3.380	-0.003939
3.385	-0.006326
3.390	-0.008059
3.395	-0.008589
3.400	-0.007784
3.405	-0.006002
3.410	-0.003433
3.415	0.000286
3.420	0.004723
3.425	0.008645
3.430	0.010703
3.435	0.011411
3.440	0.011506
3.445	0.011402
3.450	0.011195
3.455	0.010945
3.460	0.010631
3.465	0.010281
3.470	0.009891
3.475	0.009519
3.480	0.009095
3.485	0.008664
3.490	0.008282
3.495	0.007902
3.500	0.007504
3.505	0.007113
3.510	0.006763
3.515	0.006430
3.520	0.006117
3.525	0.005754
3.530	0.005286
3.535	0.004603
3.540	0.003616
3.545	0.002173
3.550	0.000282
3.555	-0.002114
3.560	-0.004562
3.565	-0.006599
3.570	-0.007400
3.575	-0.006717
3.580	-0.004910
3.585	-0.002225
3.590	0.001482
3.595	0.006213
3.600	0.010459
3.605	0.013180
3.610	0.014115
3.615	0.014315
3.620	0.014205
3.625	0.013958
3.630	0.013651
3.635	0.013232
3.640	0.012800
3.645	0.012355
3.650	0.011825
3.655	0.011340
3.660	0.010826
3.665	0.010303
3.670	0.009804
3.675	0.009304
3.680	0.008717
3.685	0.008151
3.690	0.007511
3.695	0.006720
3.700	0.005628
3.705	0.004118
3.710	0.002118
3.715	-0.000417
3.720	-0.003203
3.725	-0.005882
3.730	-0.007333
3.735	-0.006818
3.740	-0.004852
3.745	-0.002502
3.750	0.000691
3.755	0.005179
3.760	0.009725
3.765	0.012306
3.770	0.012019
3.775	0.010701
3.780	0.009439
3.785	0.008323
3.790	0.007473
3.795	0.006718
3.800	0.006071
3.805	0.005525
3.810	0.005060
3.815	0.004707
3.820	0.004384
3.825	0.004102
3.830	0.003878
3.835	0.003687
3.840	0.003555
3.845	0.003423
3.850	0.003289
3.855	0.003227
3.860	0.003163
3.865	0.003112
3.870	0.003069
3.875	0.003038
3.880	0.003019
3.885	0.002998
3.890	0.002960
3.895	0.002986
3.900	0.002961
3.905	0.002943
3.910	0.002932
3.915	0.002939
3.920	0.002944
3.925	0.002895
3.930	0.002904
3.935	0.002916
3.940	0.002918
3.945	0.002906
3.950	0.002907
3.955	0.002905
3.960	0.002925
3.965	0.002925
3.970	0.002914
3.975	0.002906
3.980	0.002910
3.985	0.002940
3.990	0.002934
3.995	0.002915
4.000	0.002939
4.005	0.002929
4.010	0.002940
4.015	0.002934
4.020	0.002945
4.025	0.002949
4.030	0.002941
4.035	0.002958
4.040	0.002923
4.045	0.002925
4.050	0.002937
4.055	0.002970
4.060	0.002961
4.065	0.002975
4.070	0.002947
4.075	0.002941
4.080	0.002970
4.085	0.002963
4.090	0.002960
4.095	0.002968
4.100	0.002984
4.105	0.002975
4.110	0.002969
4.115	0.002999
4.120	0.002976
4.125	0.003013
4.130	0.003017
4.135	0.003019
4.140	0.002994
4.145	0.003034
4.150	0.003038
4.155	0.003033
4.160	0.003048
4.165	0.003060
4.170	0.003058
4.175	0.003051
4.180	0.003071
4.185	0.003082
4.190	0.003085
4.195	0.003084
4.200	0.003094
4.205	0.003108
4.210	0.003093
4.215	0.003078
4.220	0.003097
4.225	0.003089
4.230	0.003092
4.235	0.003099
4.240	0.003119
4.245	0.003110
4.250	0.003109
4.255	0.003154
4.260	0.003133
4.265	0.003154
4.270	0.003167
4.275	0.003136
4.280	0.003152
4.285	0.003137
4.290	0.003133
4.295	0.003128
4.300	0.003151
4.305	0.003183
4.310	0.003173
4.315	0.003180
4.320	0.003227
4.325	0.003203
4.330	0.003235
4.335	0.003217
4.340	0.003223
4.345	0.003217
4.350	0.003258
4.355	0.003217
4.360	0.003253
4.365	0.003244
4.370	0.003234
4.375	0.003259
4.380	0.003277
4.385	0.003273
4.390	0.003286
4.395	0.003306
4.400	0.003296
4.405	0.003291
4.410	0.003306
4.415	0.003278
4.420	0.003284
4.425	0.003297
4.430	0.003310
4.435	0.003319
4.440	0.003315
4.445	0.003317
4.450	0.003320
4.455	0.003298
4.460	0.003323
4.465	0.003312
4.470	0.003350
4.475	0.003355
4.480	0.003355
4.485	0.003366
4.490	0.003380
4.495	0.003395
4.500	0.003400
4.505	0.003393
4.510	0.003424
4.515	0.003384
4.520	0.003419
4.525	0.003401
4.530	0.003389
4.535	0.003397
4.540	0.003432
4.545	0.003432
4.550	0.003417
4.555	0.003442
4.560	0.003437
4.565	0.003445
4.570	0.003452
4.575	0.003475
4.580	0.003470
4.585	0.003479
4.590	0.003474
4.595	0.003475
4.600	0.003466
4.605	0.003505
4.610	0.003496
4.615	0.003498
4.620	0.003498
4.625	0.003496
4.630	0.003505
4.635	0.003510
4.640	0.003529
4.645	0.003529
4.650	0.003539
4.655	0.003543
4.660	0.003549
4.665	0.003541
4.670	0.003559
4.675	0.003564
4.680	0.003569
4.685	0.003566
4.690	0.003572
4.695	0.003593
4.700	0.003578
4.705	0.003587
4.710	0.003577
4.715	0.003583
4.720	0.003585
4.725	0.003589
4.730	0.003595
4.735	0.003609
4.740	0.003610
4.745	0.003607
4.750	0.003629
4.755	0.003663
4.760	0.003634
4.765	0.003643
4.770	0.003649
4.775	0.003643
4.780	0.003648
4.785	0.003688
4.790	0.003684
4.795	0.003671
4.800	0.003681
4.805	0.003682
4.810	0.003688
4.815	0.003688
4.820	0.003705
4.825	0.003700
4.830	0.003699
4.835	0.003695
4.840	0.003713
4.845	0.003724
4.850	0.003714
4.855	0.003748
4.860	0.003747
4.865	0.003749
4.870	0.003757
4.875	0.003760
4.880	0.003771
4.885	0.003778
4.890	0.003764
4.895	0.003759
4.900	0.003769
4.905	0.003794
4.910	0.003810
4.915	0.003787
4.920	0.003808
4.925	0.003817
4.930	0.003817
4.935	0.003821
4.940	0.003823
4.945	0.003839
4.950	0.003839
4.955	0.003854
4.960	0.003852
4.965	0.003864
4.970	0.003877
4.975	0.003879
4.980	0.003893
4.985	0.003891
4.990	0.003888
4.995	0.003882
5.000	0.003882
5.005	0.003893
5.010	0.003902
5.015	0.003941
5.020	0.003936
5.025	0.003934
5.030	0.003946
5.035	0.003946
5.040	0.003938
5.045	0.003992
5.050	0.003945
5.055	0.003958
5.060	0.003987
5.065	0.003978
5.070	0.003995
5.075	0.003980
5.080	0.003996
5.085	0.004006
5.090	0.004009
5.095	0.004031
5.100	0.004036
5.105	0.004052
5.110	0.004043
5.115	0.004053
5.120	0.004039
5.125	0.004042
5.130	0.004058
5.135	0.004060
5.140	0.004065
5.145	0.004085
5.150	0.004091
5.155	0.004085
5.160	0.004090
5.165	0.004113
5.170	0.004119
5.175	0.004108
5.180	0.004136
5.185	0.004140
5.190	0.004114
5.195	0.004149
5.200	0.004146
5.205	0.004168
5.210	0.004139
5.215	0.004145
5.220	0.004177
5.225	0.004189
5.230	0.004179
5.235	0.004171
5.240	0.004185
5.245	0.004204
5.250	0.004212
5.255	0.004232
5.260	0.004228
5.265	0.004220
5.270	0.004214
5.275	0.004246
5.280	0.004247
5.285	0.004256
5.290	0.004242
5.295	0.004277
5.300	0.004263
5.305	0.004269
5.310	0.004288
5.315	0.004304
5.320	0.004272
5.325	0.004315
5.330	0.004315
5.335	0.004315
5.340	0.004328
5.345	0.004325
5.350	0.004327
5.355	0.004339
5.360	0.004345
5.365	0.004372
5.370	0.004364
5.375	0.004368
5.380	0.004358
5.385	0.004370
5.390	0.004387
5.395	0.004406
5.400	0.004395
5.405	0.004410
5.410	0.004408
5.415	0.004435
5.420	0.004436
5.425	0.004434
5.430	0.004440
5.435	0.004457
5.440	0.004467
5.445	0.004469
5.450	0.004487
5.455	0.004473
5.460	0.004487
5.465	0.004499
5.470	0.004502
5.475	0.004501
5.480	0.004512
5.485	0.004523
5.490	0.004521
5.495	0.004542
5.500	0.004521
5.505	0.004558
5.510	0.004556
5.515	0.004553
5.520	0.004568
5.525	0.004571
5.530	0.004586
5.535	0.004589
5.540	0.004584
5.545	0.004615
5.550	0.004609
5.555	0.004622
5.560	0.004627
5.565	0.004620
5.570	0.004650
5.575	0.004645
5.580	0.004651
5.585	0.004654
5.590	0.004668
5.595	0.004664
5.600	0.004675
5.605	0.004692
5.610	0.004682
5.615	0.004702
5.620	0.004697
5.625	0.004724
5.630	0.004708
5.635	0.004726
5.640	0.004750
5.645	0.004724
5.650	0.004767
5.655	0.004747
5.660	0.004756
5.665	0.004768
5.670	0.004759
5.675	0.004807
5.680	0.004789
5.685	0.004796
5.690	0.004813
5.695	0.004799
5.700	0.004799
5.705	0.004841
5.710	0.004853
5.715	0.004856
5.720	0.004836
5.725	0.004848
5.730	0.004886
5.735	0.004876
5.740	0.004857
5.745	0.004892
5.750	0.004898
5.755	0.004885
5.760	0.004907
5.765	0.004914
5.770	0.004910
5.775	0.004922
5.780	0.004917
5.785	0.004927
5.790	0.004947
5.795	0.004961
5.800	0.004955
5.805	0.004964
5.810	0.004992
5.815	0.004969
5.820	0.004975
5.825	0.005003
5.830	0.005015
5.835	0.005042
5.840	0.005040
5.845	0.005031
5.850	0.005063
5.855	0.005030
5.860	0.005082
5.865	0.005085
5.870	0.005060
5.875	0.005079
5.880	0.005105
5.885	0.005099
5.890	0.005129
5.895	0.005124
5.900	0.005134
5.905	0.005144
5.910	0.005160
5.915	0.005153
5.920	0.005185
5.925	0.005193
5.930	0.005188
5.935	0.005194
5.940	0.005172
5.945	0.005191
5.950	0.005223
5.955	0.005245
5.960	0.005212
5.965	0.005219
5.970	0.005277
5.975	0.005279
5.980	0.005274
5.985	0.005272
5.990	0.005305
5.995	0.005295
6.000	0.005303
6.005	0.005316
6.010	0.005340
6.015	0.005356
6.020	0.005333
6.025	0.005369
6.030	0.005368
6.035	0.005374
6.040	0.005374
6.045	0.005388
6.050	0.005409
6.055	0.005412
6.060	0.005389
6.065	0.005450
6.070	0.005441
6.075	0.005440
6.080	0.005444
6.085	0.005468
6.090	0.005486
6.095	0.005470
6.100	0.005498
6.105	0.005469
6.110	0.005485
6.115	0.005513
6.120	0.005513
6.125	0.005507
6.130	0.005538
6.135	0.005556
6.140	0.005555
6.145	0.005552
6.150	0.005566
6.155	0.005595
6.160	0.005589
6.165	0.005603
6.170	0.005625
6.175	0.005624
6.180	0.005650
6.185	0.005629
6.190	0.005652
6.195	0.005672
6.200	0.005675
6.205	0.005667
6.210	0.005691
6.215	0.005683
6.220	0.005699
6.225	0.005726
6.230	0.005727
6.235	0.005745
6.240	0.005754
6.245	0.005772
6.250	0.005757
6.255	0.005784
6.260	0.005782
6.265	0.005788
6.270	0.005822
6.275	0.005809
6.280	0.005797
6.285	0.005826
6.290	0.005836
6.295	0.005861
6.300	0.005842
6.305	0.005881
6.310	0.005872
6.315	0.005868
6.320	0.005892
6.325	0.005915
6.330	0.005927
6.335	0.005923
6.340	0.005921
6.345	0.005944
6.350	0.005964
6.355	0.005966
6.360	0.005966
6.365	0.005991
6.370	0.005997
6.375	0.006020
6.380	0.006018
6.385	0.006025
6.390	0.006029
6.395	0.006041
6.400	0.006045
6.405	0.006061
6.410	0.006057
6.415	0.006084
6.420	0.006107
6.425	0.006117
6.430	0.006127
6.435	0.006117
6.440	0.006149
6.445	0.006150
6.450	0.006153
6.455	0.006151
6.460	0.006181
6.465	0.006177
6.470	0.006190
6.475	0.006224
6.480	0.006215
6.485	0.006222
6.490	0.006230
6.495	0.006257
6.500	0.006232
6.505	0.006255
6.510	0.006288
6.515	0.006280
6.520	0.006297
6.525	0.006322
6.530	0.006330
6.535	0.006292
6.540	0.006318
6.545	0.006368
6.550	0.006363
6.555	0.006370
6.560	0.006385
6.565	0.006391
6.570	0.006415
6.575	0.006416
6.580	0.006433
6.585	0.006454
6.590	0.006466
6.595	0.006455
6.600	0.006496
6.605	0.006481
6.610	0.006499
6.615	0.006510
6.620	0.006514
6.625	0.006540
6.630	0.006535
6.635	0.006556
6.640	0.006592
6.645	0.006573
6.650	0.006599
6.655	0.006596
6.660	0.006623
6.665	0.006646
6.670	0.006636
6.675	0.006649
6.680	0.006672
6.685	0.006678
6.690	0.006699
6.695	0.006705
6.700	0.006706
6.705	0.006723
6.710	0.006737
6.715	0.006758
6.720	0.006783
6.725	0.006781
6.730	0.006811
6.735	0.006809
6.740	0.006821
6.745	0.006826
6.750	0.006836
6.755	0.006853
6.760	0.006868
6.765	0.006863
6.770	0.006885
6.775	0.006918
6.780	0.006924
6.785	0.006920
6.790	0.006951
6.795	0.006940
6.800	0.006959
6.805	0.006984
6.810	0.006998
6.815	0.007006
6.820	0.007024
6.825	0.007040
6.830	0.007045
6.835	0.007067
6.840	0.007076
6.845	0.007080
6.850	0.007104
6.855	0.007118
6.860	0.007127
6.865	0.007129
6.870	0.007188
6.875	0.007144
6.880	0.007193
6.885	0.007196
6.890	0.007212
6.895	0.007222
6.900	0.007256
6.905	0.007250
6.910	0.007280
6.915	0.007279
6.920	0.007272
6.925	0.007295
6.930	0.007333
6.935	0.007333
6.940	0.007371
6.945	0.007379
6.950	0.007408
6.955	0.007409
6.960	0.007418
6.965	0.007426
6.970	0.007442
6.975	0.007468
6.980	0.007477
6.985	0.007494
6.990	0.007506
6.995	0.007523
7.000	0.007539
7.005	0.007562
7.010	0.007575
7.015	0.007580
7.020	0.007588
7.025	0.007593
7.030	0.007629
7.035	0.007659
7.040	0.007666
7.045	0.007689
7.050	0.007704
7.055	0.007699
7.060	0.007724
7.065	0.007745
7.070	0.007745
7.075	0.007772
7.080	0.007798
7.085	0.007797
7.090	0.007837
7.095	0.007849
7.100	0.007857
7.105	0.007869
7.110	0.007900
7.115	0.007896
7.120	0.007900
7.125	0.007935
7.130	0.007954
7.135	0.007981
7.140	0.007992
7.145	0.007999
7.150	0.008004
7.155	0.008059
7.160	0.008049
7.165	0.008085
7.170	0.008083
7.175	0.008100
7.180	0.008129
7.185	0.008156
7.190	0.008154
7.195	0.008190
7.200	0.008199
7.205	0.008238
7.210	0.008244
7.215	0.008257
7.220	0.008261
7.225	0.008306
7.230	0.008345
7.235	0.008351
7.240	0.008391
7.245	0.008375
7.250	0.008411
7.255	0.008426
7.260	0.008434
7.265	0.008458
7.270	0.008476
7.275	0.008472
7.280	0.008502
7.285	0.008537
7.290	0.008543
7.295	0.008573
7.300	0.008598
7.305	0.008610
7.310	0.008648
7.315	0.008669
7.320	0.008688
7.325	0.008706
7.330	0.008720
7.335	0.008738
7.340	0.008754
7.345	0.008784
7.350	0.008814
7.355	0.008798
7.360	0.008832
7.365	0.008850
7.370	0.008889
7.375	0.008892
7.380	0.008933
7.385	0.008943
7.390	0.008962
7.395	0.009008
7.400	0.008986
7.405	0.009059
7.410	0.009047
7.415	0.009058
7.420	0.009107
7.425	0.009131
7.430	0.009148
7.435	0.009158
7.440	0.009191
7.445	0.009205
7.450	0.009240
7.455	0.009261
7.460	0.009284
7.465	0.009316
7.470	0.009336
7.475	0.009368
7.480	0.009392
7.485	0.009410
7.490	0.009431
7.495	0.009457
7.500	0.009479
7.505	0.009495
7.510	0.009506
7.515	0.009543
7.520	0.009582
7.525	0.009618
7.530	0.009625
7.535	0.009655
7.540	0.009695
7.545	0.009714
7.550	0.009711
7.555	0.009764
7.560	0.009786
7.565	0.009804
7.570	0.009855
7.575	0.009889
7.580	0.009897
7.585	0.009913
7.590	0.009936
7.595	0.009975
7.600	0.009987
7.605	0.010035
7.610	0.010049
7.615	0.010072
7.620	0.010125
7.625	0.010157
7.630	0.010170
7.635	0.010219
7.640	0.010240
7.645	0.010238
7.650	0.010273
7.655	0.010288
7.660	0.010312
7.665	0.010367
7.670	0.010396
7.675	0.010429
7.680	0.010463
7.685	0.010487
7.690	0.010515
7.695	0.010566
7.700	0.010579
7.705	0.010627
7.710	0.010656
7.715	0.010703
7.720	0.010702
7.725	0.010755
7.730	0.010773
7.735	0.010820
7.740	0.010836
7.745	0.010891
7.750	0.010953
7.755	0.010974
7.760	0.011016
7.765	0.011019
7.770	0.011077
7.775	0.011127
7.780	0.011139
7.785	0.011178
7.790	0.011224
7.795	0.011270
7.800	0.011285
7.805	0.011345
7.810	0.011378
7.815	0.011395
7.820	0.011444
7.825	0.011501
7.830	0.011526
7.835	0.011564
7.840	0.011611
7.845	0.011669
7.850	0.011710
7.855	0.011722
7.860	0.011773
7.865	0.011824
7.870	0.011860
7.875	0.011912
7.880	0.011955
7.885	0.012009
7.890	0.012056
7.895	0.012111
7.900	0.012143
7.905	0.012176
7.910	0.012198
7.915	0.012295
7.920	0.012297
7.925	0.012358
7.930	0.012407
7.935	0.012429
7.940	0.012457
7.945	0.012527
7.950	0.012592
7.955	0.012627
7.960	0.012669
7.965	0.012733
7.970	0.012780
7.975	0.012850
7.980	0.012844
7.985	0.012920
7.990	0.012967
7.995	0.013012
8.000	0.013070
8.005	0.013116
8.010	0.013175
8.015	0.013225
8.020	0.013282
8.025	0.013355
8.030	0.013401
8.035	0.013431
8.040	0.013530
8.045	0.013579
8.050	0.013623
8.055	0.013698
8.060	0.013735
8.065	0.013798
8.070	0.013887
8.075	0.013940
8.080	0.014003
8.085	0.014062
8.090	0.014135
8.095	0.014206
8.100	0.014277
8.105	0.014339
8.110	0.014413
8.115	0.014455
8.120	0.014529
8.125	0.014598
8.130	0.014678
8.135	0.014721
8.140	0.014809
8.145	0.014896
8.150	0.014948
8.155	0.015041
8.160	0.015121
8.165	0.015190
8.170	0.015282
8.175	0.015344
8.180	0.015463
8.185	0.015528
8.190	0.015599
8.195	0.015693
8.200	0.015773
8.205	0.015876
8.210	0.015952
8.215	0.016051
8.220	0.016125
8.225	0.016224
8.230	0.016326
8.235	0.016415
8.240	0.016513
8.245	0.016614
8.250	0.016706
8.255	0.016811
8.260	0.016908
8.265	0.017024
8.270	0.017125
8.275	0.017244
8.280	0.017358
8.285	0.017479
8.290	0.017580
8.295	0.017677
8.300	0.017806
8.305	0.017931
8.310	0.018071
8.315	0.018167
8.320	0.018317
8.325	0.018425
8.330	0.018572
8.335	0.018730
8.340	0.018849
8.345	0.018984
8.350	0.019144
8.355	0.019296
8.360	0.019431
8.365	0.019554
8.370	0.019735
8.375	0.019910
8.380	0.020052
8.385	0.020205
8.390	0.020360
8.395	0.020573
8.400	0.020751
8.405	0.020951
8.410	0.021115
8.415	0.021324
8.420	0.021492
8.425	0.021709
8.430	0.021919
8.435	0.022080
8.440	0.022347
8.445	0.022570
8.450	0.022740
8.455	0.022970
8.460	0.023227
8.465	0.023529
8.470	0.023809
8.475	0.024094
8.480	0.024414
8.485	0.024709
8.490	0.025026
8.495	0.025356
8.500	0.025708
8.505	0.026070
8.510	0.026462
8.515	0.026862
8.520	0.027260
8.525	0.027728
8.530	0.028131
8.535	0.028619
8.540	0.029124
8.545	0.029636
8.550	0.030215
8.555	0.030865
8.560	0.031518
8.565	0.032225
8.570	0.032951
8.575	0.033710
8.580	0.034526
8.585	0.035474
8.590	0.036491
8.595	0.037574
8.600	0.038724
8.605	0.040058
8.610	0.041452
8.615	0.042848
8.620	0.044128
8.625	0.045554
8.630	0.047409
8.635	0.049691
8.640	0.052731
8.645	0.056066
8.650	0.061264
8.655	0.067366
8.660	0.078167
8.665	0.088779
8.670	0.092831
8.675	0.096719
8.680	0.095300
8.685	0.088598
8.690	0.074478
8.695	0.058047
8.700	0.041354
8.705	0.025032
8.710	0.012302
8.715	0.003792
8.720	0.000886
8.725	0.000314
8.730	0.000230
8.735	0.000176
8.740	0.000156
8.745	0.000141
8.750	0.000102
8.755	0.000097
8.760	0.000097
8.765	0.000117
8.770	0.000092
8.775	0.000087
8.780	0.000092
8.785	0.000087
8.790	0.000092
8.795	0.000067
8.800	0.000082
8.805	0.000068
8.810	0.000082
8.815	0.000072
8.820	0.000063
8.825	0.000088
8.830	0.000078
8.835	0.000068
8.840	0.000073
8.845	0.000078
8.850	0.000068
8.855	0.000058
8.860	0.000063
8.865	0.000078
8.870	0.000078
8.875	0.000068
8.880	0.000078
8.885	0.000073
8.890	0.000043
8.895	0.000048
8.900	0.000048
8.905	0.000083
8.910	0.000053
8.915	0.000078
8.920	0.000043
8.925	0.000063
8.930	0.000068
8.935	0.000063
8.940	0.000058
8.945	0.000068
8.950	0.000073
8.955	0.000068
8.960	0.000073
8.965	0.000078
8.970	0.000063
8.975	0.000063
8.980	0.000063
8.985	0.000044
8.990	0.000054
8.995	0.000049
9.000	0.000049
9.005	0.000054
9.010	0.000044
9.015	0.000039
9.020	0.000044
9.025	0.000064
9.030	0.000054
9.035	0.000049
9.040	0.000064
9.045	0.000074
9.050	0.000049
9.055	0.000079
9.060	0.000039
9.065	0.000059
9.070	0.000054
9.075	0.000059
9.080	0.000059
9.085	0.000049
9.090	0.000044
9.095	0.000069
9.100	0.000054
9.105	0.000054
9.110	0.000049
9.115	0.000049
9.120	0.000044
9.125	0.000069
9.130	0.000030
9.135	0.000059
9.140	0.000054
9.145	0.000055
9.150	0.000054
9.155	0.000054
9.160	0.000044
9.165	0.000045
9.170	0.000050
9.175	0.000069
9.180	0.000069
9.185	0.000050
9.190	0.000074
9.195	0.000065
9.200	0.000079
9.205	0.000060
9.210	0.000060
9.215	0.000050
9.220	0.000065
9.225	0.000060
9.230	0.000065
9.235	0.000055
9.240	0.000050
9.245	0.000065
9.250	0.000065
9.255	0.000075
9.260	0.000070
9.265	0.000065
9.270	0.000080
9.275	0.000075
9.280	0.000050
9.285	0.000090
9.290	0.000021
9.295	0.000070
9.300	0.000060
9.305	0.000095
9.310	0.000085
9.315	0.000070
9.320	0.000075
9.325	0.000105
9.330	0.000065
9.335	0.000090
9.340	0.000105
9.345	0.000090
9.350	0.000095
9.355	0.000095
9.360	0.000115
9.365	0.000120
9.370	0.000135
9.375	0.000120
9.380	0.000125
9.385	0.000140
9.390	0.000169
9.395	0.000194
9.400	0.000169
9.405	0.000159
9.410	0.000154
9.415	0.000125
9.420	0.000090
9.425	0.000076
9.430	0.000056
9.435	0.000046
9.440	0.000021
9.445	0.000026
9.450	0.000007
9.455	0.000012
9.460	0.000021
9.465	0.000002
9.470	0.000002
9.475	0.000027
9.480	0.000017
9.485	0.000002
9.490	0.000022
9.495	0.000002
9.500	-0.000008
9.505	0.000012
9.510	-0.000003
9.515	-0.000023
9.520	-0.000013
9.525	0.000007
9.530	-0.000008
9.535	0.000002
9.540	0.000012
9.545	0.000022
9.550	-0.000013
9.555	0.000032
9.560	0.000012
9.565	-0.000003
9.570	0.000007
9.575	-0.000002
9.580	0.000022
9.585	0.000007
9.590	-0.000003
9.595	0.000008
9.600	0.000003
9.605	0.000017
9.610	-0.000017
9.615	0.000003
9.620	0.000013
9.625	0.000013
9.630	-0.000002
9.635	0.000013
9.640	-0.000017
9.645	-0.000002
9.650	-0.000007
9.655	0.000033
9.660	0.000013
9.665	-0.000017
9.670	0.000013
9.675	-0.000007
9.680	0.000003
9.685	0.000023
9.690	-0.000012
9.695	-0.000007
9.700	-0.000002
9.705	-0.000002
9.710	0.000008
9.715	0.000003
9.720	0.000003
9.725	-0.000002
9.730	-0.000002
9.735	-0.000002
9.740	-0.000002
9.745	-0.000012
9.750	-0.000007
9.755	-0.000002
9.760	-0.000012
9.765	-0.000007
9.770	-0.000007
9.775	0.000014
9.780	0.000004
9.785	-0.000006
9.790	0.000008
9.795	0.000009
9.800	0.000009
9.805	-0.000031
9.810	-0.000006
9.815	0.000004
9.820	0.000014
9.825	-0.000006
9.830	-0.000011
9.835	0.000004
9.840	0.000019
9.845	0.000009
9.850	-0.000006
9.855	-0.000001
9.860	-0.000016
9.865	0.000004
9.870	-0.000011
9.875	0.000014
9.880	-0.000005
9.885	0.000014
9.890	0.000014
9.895	0.000014
9.900	0.000034
9.905	-0.000001
9.910	0.000014
9.915	-0.000000
9.920	0.000019
9.925	0.000029
9.930	0.000005
9.935	0.000020
9.940	-0.000000
9.945	0.000015
9.950	0.000010
9.955	0.000010
9.960	0.000005
9.965	-0.000000
9.970	-0.000000
9.975	0.000010
9.980	-0.000000
9.985	0.000010
9.990	-0.000015
9.995	0.000010
10.000	0.000005
10.005	0.000020
10.010	-0.000005
10.015	0.000030
10.020	0.000010
10.025	-0.000005
10.030	0.000005
10.035	-0.000015
10.040	0.000005
10.045	0.000000
10.050	0.000010
10.055	0.000000
10.060	0.000030
10.065	0.000005
10.070	0.000005
10.075	-0.000009
10.080	0.000015
10.085	0.000010
10.090	0.000006
10.095	-0.000009
10.100	-0.000004
10.105	0.000025
10.110	0.000001
10.115	0.000001
10.120	-0.000024
10.125	0.000001
10.130	0.000026
10.135	0.000006
10.140	-0.000004
10.145	0.000016
10.150	0.000031
10.155	0.000016
10.160	0.000021
10.165	0.000011
10.170	0.000011
10.175	0.000021
10.180	0.000006
10.185	-0.000004
10.190	0.000016
10.195	0.000011
10.200	-0.000004
10.205	0.000006
10.210	0.000001
10.215	0.000016
10.220	0.000006
10.225	0.000011
10.230	0.000021
10.235	-0.000004
10.240	-0.000009
10.245	0.000021
10.250	0.000021
10.255	0.000006
10.260	-0.000009
10.265	0.000021
10.270	0.000002
10.275	-0.000028
10.280	0.000006
10.285	-0.000003
10.290	0.000026
10.295	0.000001
10.300	0.000002
10.305	-0.000008
10.310	-0.000013
10.315	-0.000039
10.320	-0.000044
10.325	-0.000044
10.330	0.000000
10.335	0.000442
10.340	0.000287
10.345	0.000051
10.350	0.000041
10.355	0.000031
10.360	0.000012
10.365	0.000017
10.370	0.000012
10.375	0.000007
10.380	-0.000003
10.385	0.000027
10.390	0.000002
10.395	0.000022
10.400	0.000012
10.405	0.000007
10.410	0.000002
10.415	0.000012
10.420	0.000017
10.425	0.000007
10.430	0.000012
10.435	0.000002
10.440	0.000027
10.445	0.000012
10.450	0.000022
10.455	-0.000018
10.460	-0.000008
10.465	0.000007
10.470	-0.000002
10.475	0.000012
10.480	0.000027
10.485	0.000013
10.490	-0.000007
10.495	0.000013
10.500	0.000018
10.505	0.000022
10.510	0.000003
10.515	-0.000017
10.520	-0.000007
10.525	-0.000002
10.530	0.000008
10.535	-0.000002
10.540	0.000013
10.545	-0.000012
10.550	0.000003
10.555	0.000028
10.560	-0.000012
10.565	0.000003
10.570	-0.000012
10.575	0.000013
10.580	0.000013
10.585	-0.000002
10.590	-0.000002
10.595	0.000008
10.600	0.000008
10.605	-0.000012
10.610	0.000008
10.615	-0.000002
10.620	-0.000017
10.625	0.000003
10.630	-0.000012
10.635	0.000003
10.640	-0.000022
10.645	-0.000032
10.650	0.000013
10.655	-0.000002
10.660	-0.000017
10.665	-0.000012
10.670	-0.000007
10.675	-0.000017
10.680	-0.000002
10.685	-0.000012
10.690	-0.000022
10.695	-0.000022
10.700	-0.000022
10.705	0.000003
10.710	-0.000012
10.715	0.000004
10.720	0.000009
10.725	-0.000031
10.730	-0.000001
10.735	0.000009
10.740	0.000009
10.745	-0.000011
10.750	-0.000016
10.755	-0.000011
10.760	-0.000021
10.765	-0.000011
10.770	-0.000021
10.775	-0.000031
10.780	-0.000001
10.785	-0.000011
10.790	-0.000001
10.795	0.000008
10.800	-0.000011
10.805	0.000024
10.810	-0.000016
10.815	-0.000006
10.820	-0.000031
10.825	-0.000021
10.830	-0.000006
10.835	-0.000006
10.840	-0.000016
10.845	-0.000001
10.850	-0.000011
10.855	-0.000016
10.860	-0.000026
10.865	-0.000011
10.870	0.000009
10.875	-0.000006
10.880	-0.000016
10.885	-0.000016
10.890	-0.000016
10.895	0.000004
10.900	-0.000005
10.905	-0.000011
10.910	-0.000001
10.915	0.000005
10.920	-0.000000
10.925	-0.000005
10.930	-0.000015
10.935	0.000005
10.940	0.000010
10.945	-0.000015
10.950	0.000009
10.955	-0.000005
10.960	-0.000010
10.965	-0.000015
10.970	0.000010
10.975	-0.000005
10.980	-0.000005
10.985	-0.000010
10.990	-0.000015
10.995	0.000025
11.000	-0.000015
11.005	-0.000010
11.010	-0.000010
11.015	0.000015
11.020	0.000005
11.025	0.000005
11.030	0.000000
11.035	0.000015
11.040	0.000010
11.045	0.000020
11.050	0.000005
11.055	-0.000004
11.060	0.000006
11.065	0.000015
11.070	0.000006
11.075	0.000011
11.080	-0.000004
11.085	-0.000004
11.090	0.000011
11.095	-0.000004
11.100	0.000030
11.105	0.000016
11.110	0.000011
11.115	-0.000004
11.120	0.000011
11.125	0.000016
11.130	0.000011
11.135	-0.000004
11.140	0.000001
11.145	0.000006
11.150	0.000026
11.155	-0.000009
11.160	-0.000009
11.165	0.000006
11.170	0.000006
11.175	0.000006
11.180	0.000001
11.185	-0.000014
11.190	0.000006
11.195	-0.000009
11.200	-0.000009
11.205	-0.000019
11.210	-0.000009
11.215	-0.000004
11.220	-0.000014
11.225	-0.000019
11.230	-0.000009
11.235	-0.000004
11.240	-0.000014
11.245	-0.000034
11.250	-0.000014
11.255	0.000001
11.260	-0.000009
11.265	0.000020
11.270	0.000099
11.275	0.000218
11.280	0.000337
11.285	0.000337
11.290	0.000238
11.295	0.000169
11.300	0.000070
11.305	0.000056
11.310	0.000051
11.315	0.000012
11.320	0.000032
11.325	-0.000008
11.330	0.000017
11.335	-0.000008
11.340	0.000017
11.345	-0.000018
11.350	0.000002
11.355	-0.000003
11.360	0.000017
11.365	0.000007
11.370	-0.000008
11.375	-0.000003
11.380	-0.000013
11.385	-0.000008
11.390	0.000017
11.395	-0.000012
11.400	-0.000007
11.405	-0.000013
11.410	0.000002
11.415	0.000003
11.420	-0.000012
11.425	-0.000003
11.430	0.000008
11.435	0.000008
11.440	-0.000012
11.445	-0.000022
11.450	-0.000007
11.455	-0.000012
11.460	-0.000012
11.465	0.000002
11.470	-0.000007
11.475	-0.000022
11.480	0.000008
11.485	-0.000022
11.490	-0.000032
11.495	-0.000002
11.500	-0.000041
11.505	-0.000022
11.510	0.000012
11.515	-0.000002
11.520	-0.000012
11.525	-0.000012
11.530	-0.000012
11.535	-0.000012
11.540	-0.000012
11.545	-0.000027
11.550	0.000003
11.555	-0.000012
11.560	-0.000002
11.565	-0.000037
11.570	-0.000012
11.575	-0.000012
11.580	-0.000017
11.585	-0.000002
11.590	-0.000027
11.595	-0.000002
11.600	-0.000021
11.605	-0.000032
11.610	0.000008
11.615	-0.000001
11.620	-0.000021
11.625	-0.000026
11.630	-0.000007
11.635	0.000009
11.640	0.000004
11.645	-0.000026
11.650	0.000004
11.655	-0.000001
11.660	-0.000016
11.665	-0.000041
11.670	0.000003
11.675	0.000004
11.680	-0.000006
11.685	-0.000026
11.690	-0.000031
11.695	-0.000011
11.700	-0.000006
11.705	-0.000016
11.710	-0.000026
11.715	0.000004
11.720	-0.000021
11.725	-0.000031
11.730	-0.000021
11.735	-0.000011
11.740	-0.000026
11.745	-0.000016
11.750	-0.000021
11.755	-0.000016
11.760	-0.000031
11.765	-0.000016
11.770	-0.000046
11.775	-0.000045
11.780	-0.000031
11.785	-0.000036
11.790	-0.000006
11.795	-0.000001
11.800	-0.000011
11.805	-0.000016
11.810	-0.000025
11.815	-0.000005
11.820	-0.000015
11.825	-0.000030
11.830	-0.000021
11.835	-0.000025
11.840	-0.000030
11.845	-0.000025
11.850	-0.000020
11.855	-0.000030
11.860	-0.000020
11.865	-0.000015
11.870	-0.000015
11.875	-0.000020
11.880	-0.000015
11.885	-0.000020
11.890	-0.000010
11.895	-0.000010
11.900	-0.000030
11.905	-0.000030
11.910	-0.000025
11.915	-0.000020
11.920	-0.000025
11.925	-0.000020
11.930	-0.000010
11.935	-0.000020
11.940	-0.000020
11.945	-0.000014
11.950	-0.000019
11.955	-0.000005
11.960	-0.000015
11.965	-0.000015
11.970	-0.000020
11.975	-0.000035
11.980	-0.000015
11.985	-0.000015
11.990	-0.000005
11.995	-0.000020
12.000	-0.000039
12.005	-0.000009
12.010	-0.000029
12.015	-0.000015
12.020	-0.000020
12.025	-0.000029
12.030	-0.000009
12.035	-0.000010
12.040	-0.000044
12.045	-0.000004
12.050	-0.000014
12.055	-0.000039
12.060	-0.000019
12.065	-0.000009
12.070	-0.000009
12.075	-0.000024
12.080	-0.000004
12.085	0.000001
12.090	-0.000024
12.095	-0.000004
12.100	-0.000044
12.105	0.000011
12.110	-0.000024
12.115	-0.000044
12.120	-0.000024
12.125	-0.000009
12.130	-0.000004
12.135	-0.000029
12.140	-0.000014
12.145	-0.000018
12.150	-0.000019
12.155	-0.000029
12.160	-0.000034
12.165	-0.000018
12.170	-0.000004
12.175	-0.000029
12.180	-0.000024
12.185	-0.000008
12.190	-0.000023
12.195	-0.000014
12.200	-0.000028
12.205	-0.000023
12.210	0.000006
12.215	-0.000028
12.220	-0.000023
12.225	0.000002
12.230	-0.000003
12.235	-0.000028
12.240	-0.000038
12.245	0.000012
12.250	-0.000008
12.255	-0.000028
12.260	-0.000013
12.265	-0.000032
12.270	-0.000013
12.275	-0.000018
12.280	-0.000028
12.285	-0.000028
12.290	-0.000023
12.295	-0.000023
12.300	-0.000018
12.305	-0.000003
12.310	-0.000018
12.315	-0.000038
12.320	-0.000023
12.325	-0.000017
12.330	-0.000018
12.335	-0.000028
12.340	-0.000023
12.345	0.000002
12.350	0.000002
12.355	-0.000033
12.360	-0.000013
12.365	-0.000032
12.370	-0.000028
12.375	-0.000028
12.380	-0.000018
12.385	0.000002
12.390	-0.000018
12.395	-0.000023
12.400	-0.000018
12.405	-0.000022
12.410	-0.000018
12.415	-0.000037
12.420	-0.000017
12.425	-0.000022
12.430	-0.000022
12.435	-0.000022
12.440	-0.000037
12.445	-0.000022
12.450	-0.000027
12.455	-0.000012
12.460	0.000007
12.465	-0.000002
12.470	-0.000037
12.475	-0.000032
12.480	-0.000027
12.485	-0.000017
12.490	-0.000012
12.495	-0.000027
12.500	-0.000027
12.505	-0.000012
12.510	-0.000022
12.515	-0.000021
12.520	-0.000022
12.525	0.000008
12.530	-0.000032
12.535	-0.000021
12.540	-0.000007
12.545	-0.000042
12.550	-0.000017
12.555	-0.000022
12.560	-0.000022
12.565	-0.000022
12.570	-0.000027
12.575	-0.000031
12.580	-0.000017
12.585	-0.000001
12.590	-0.000001
12.595	-0.000027
12.600	-0.000036
12.605	0.000009
12.610	-0.000006
12.615	-0.000046
12.620	-0.000031
12.625	-0.000021
12.630	-0.000011
12.635	-0.000051
12.640	-0.000001
12.645	-0.000001
12.650	-0.000021
12.655	-0.000046
12.660	-0.000046
12.665	-0.000046
12.670	-0.000016
12.675	-0.000021
12.680	-0.000021
12.685	-0.000031
12.690	-0.000031
12.695	-0.000031
12.700	-0.000031
12.705	0.000014
12.710	-0.000016
12.715	-0.000026
12.720	-0.000026
12.725	-0.000006
12.730	-0.000031
12.735	-0.000006
12.740	-0.000026
12.745	-0.000025
12.750	-0.000031
12.755	-0.000031
12.760	-0.000006
12.765	-0.000016
12.770	-0.000045
12.775	-0.000026
12.780	-0.000031
12.785	-0.000011
12.790	-0.000011
12.795	-0.000016
12.800	-0.000026
12.805	0.000009
12.810	-0.000025
12.815	-0.000030
12.820	-0.000035
12.825	-0.000010
12.830	-0.000015
12.835	-0.000015
12.840	-0.000020
12.845	-0.000025
12.850	-0.000025
12.855	-0.000005
12.860	-0.000035
12.865	-0.000025
12.870	0.000015
12.875	-0.000025
12.880	-0.000030
12.885	-0.000010
12.890	-0.000020
12.895	-0.000030
12.900	-0.000010
12.905	-0.000025
12.910	-0.000025
12.915	-0.000039
12.920	-0.000024
12.925	-0.000010
12.930	-0.000010
12.935	0.000001
12.940	-0.000019
12.945	-0.000024
12.950	-0.000019
12.955	-0.000024
12.960	-0.000009
12.965	-0.000034
12.970	-0.000029
12.975	-0.000014
12.980	-0.000019
12.985	-0.000014
12.990	-0.000044
12.995	-0.000019
13.000	-0.000004
13.005	-0.000009
13.010	-0.000019
13.015	-0.000019
13.020	-0.000009
13.025	-0.000004
13.030	0.000011
13.035	0.000001
13.040	0.000006
13.045	-0.000019
13.050	-0.000009
13.055	0.000006
13.060	0.000006
13.065	-0.000004
13.070	-0.000018
13.075	-0.000023
13.080	0.000002
13.085	0.000001
13.090	0.000011
13.095	-0.000003
13.100	-0.000003
13.105	-0.000009
13.110	-0.000018
13.115	0.000002
13.120	-0.000008
13.125	0.000002
13.130	-0.000003
13.135	0.000007
13.140	-0.000033
13.145	-0.000013
13.150	0.000002
13.155	-0.000018
13.160	-0.000003
13.165	-0.000008
13.170	0.000002
13.175	-0.000008
13.180	-0.000023
13.185	-0.000013
13.190	0.000002
13.195	-0.000003
13.200	-0.000003
13.205	-0.000017
13.210	0.000017
13.215	-0.000008
13.220	0.000002
13.225	0.000022
13.230	0.000002
13.235	-0.000018
13.240	-0.000003
13.245	-0.000003
13.250	0.000002
13.255	-0.000003
13.260	0.000007
13.265	0.000022
13.270	-0.000002
13.275	-0.000027
13.280	0.000017
13.285	-0.000012
13.290	-0.000032
13.295	0.000003
13.300	-0.000002
13.305	0.000003
13.310	-0.000002
13.315	-0.000017
13.320	0.000003
13.325	-0.000012
13.330	-0.000007
13.335	0.000007
13.340	-0.000027
13.345	-0.000007
13.350	-0.000002
13.355	0.000008
13.360	-0.000027
13.365	-0.000002
13.370	0.000018
13.375	-0.000017
13.380	0.000018
13.385	-0.000027
13.390	0.000018
13.395	0.000003
13.400	0.000013
13.405	-0.000002
13.410	0.000003
13.415	0.000003
13.420	-0.000007
13.425	-0.000027
13.430	-0.000017
13.435	-0.000026
13.440	-0.000036
13.445	-0.000012
13.450	-0.000012
13.455	-0.000021
13.460	-0.000031
13.465	-0.000032
13.470	-0.000022
13.475	-0.000021
13.480	-0.000026
13.485	-0.000027
13.490	-0.000022
13.495	0.000004
13.500	-0.000006
13.505	-0.000027
13.510	-0.000027
13.515	-0.000011
13.520	-0.000006
13.525	-0.000012
13.530	-0.000027
13.535	-0.000021
13.540	-0.000016
13.545	-0.000036
13.550	-0.000031
13.555	-0.000021
13.560	-0.000026
13.565	-0.000036
13.570	-0.000021
13.575	-0.000016
13.580	-0.000031
13.585	-0.000021
13.590	-0.000031
13.595	-0.000026
13.600	-0.000051
13.605	-0.000021
13.610	-0.000036
13.615	-0.000031
13.620	-0.000026
13.625	-0.000011
13.630	-0.000016
13.635	-0.000021
13.640	-0.000016
13.645	-0.000046
13.650	-0.000021
13.655	-0.000026
13.660	-0.000036
13.665	-0.000016
13.670	-0.000011
13.675	-0.000006
13.680	-0.000011
13.685	0.000048
13.690	-0.000071
13.695	-0.000090
13.700	-0.000021
13.705	-0.000031
13.710	-0.000035
