PK2650 Power Data
Z Position (mm)	110.000	W Position (deg)	144.00
Preform ID	Diameter (mm)	Time Stamp	Start Time	Operator	Serial Number
Test 1	25	03-Nov-22 18:05:01	03-Nov-22 18:07:55	[no user]	266007708
Radius (mm)	Power
-26.285	83091.4
-26.280	83094.3
-26.275	83076.4
-26.270	83066.4
-26.265	83091.4
-26.260	83106.3
-26.255	83100.3
-26.250	83109.3
-26.245	83096.3
-26.240	83103.3
-26.235	83100.3
-26.230	83097.3
-26.225	83106.3
-26.220	83105.3
-26.215	83114.3
-26.210	83106.3
-26.205	83085.4
-26.200	83097.3
-26.195	83132.3
-26.190	83123.3
-26.185	83133.3
-26.180	83129.3
-26.175	83135.3
-26.170	83124.3
-26.165	83121.3
-26.160	83129.3
-26.155	83131.3
-26.150	83137.3
-26.145	83115.3
-26.140	83106.3
-26.135	83109.3
-26.130	83137.3
-26.125	83138.3
-26.120	83136.3
-26.115	83138.3
-26.110	83137.3
-26.105	83138.3
-26.100	83139.3
-26.095	83131.3
-26.090	83145.3
-26.085	83141.3
-26.080	83133.3
-26.075	83122.3
-26.070	83117.3
-26.065	83138.3
-26.060	83161.3
-26.055	83158.3
-26.050	83160.3
-26.045	83148.3
-26.040	83154.3
-26.035	83136.3
-26.030	83141.3
-26.025	83148.3
-26.020	83149.3
-26.015	83151.3
-26.010	83136.3
-26.005	83116.3
-26.000	83138.3
-25.995	83164.3
-25.990	83152.3
-25.985	83145.3
-25.980	83149.3
-25.975	83154.3
-25.970	83147.3
-25.965	83158.3
-25.960	83156.3
-25.955	83161.3
-25.950	83168.3
-25.945	83159.3
-25.940	83136.3
-25.935	83133.3
-25.930	83175.3
-25.925	83173.3
-25.920	83168.3
-25.915	83168.3
-25.910	83168.3
-25.905	83168.3
-25.900	83157.3
-25.895	83165.3
-25.890	83163.3
-25.885	83158.3
-25.880	83158.3
-25.875	83134.3
-25.870	83133.3
-25.865	83167.3
-25.860	83167.3
-25.855	83165.3
-25.850	83162.3
-25.845	83159.3
-25.840	83164.3
-25.835	83155.3
-25.830	83169.3
-25.825	83163.3
-25.820	83169.3
-25.815	83173.3
-25.810	83155.3
-25.805	83133.3
-25.800	83159.3
-25.795	83177.3
-25.790	83182.3
-25.785	83181.3
-25.780	83180.3
-25.775	83169.3
-25.770	83168.3
-25.765	83155.3
-25.760	83163.3
-25.755	83156.3
-25.750	83161.3
-25.745	83146.3
-25.740	83143.3
-25.735	83148.3
-25.730	83183.3
-25.725	83177.3
-25.720	83166.3
-25.715	83163.3
-25.710	83166.3
-25.705	83160.3
-25.700	83163.3
-25.695	83160.3
-25.690	83175.3
-25.685	83170.3
-25.680	83167.3
-25.675	83144.3
-25.670	83137.3
-25.665	83168.3
-25.660	83179.3
-25.655	83176.3
-25.650	83183.3
-25.645	83173.3
-25.640	83179.3
-25.635	83167.3
-25.630	83168.3
-25.625	83163.3
-25.620	83167.3
-25.615	83165.3
-25.610	83141.3
-25.605	83131.3
-25.600	83165.3
-25.595	83171.3
-25.590	83171.3
-25.585	83164.3
-25.580	83168.3
-25.575	83163.3
-25.570	83153.3
-25.565	83158.3
-25.560	83161.3
-25.555	83162.3
-25.550	83168.3
-25.545	83162.3
-25.540	83137.3
-25.535	83140.3
-25.530	83172.3
-25.525	83176.3
-25.520	83178.3
-25.515	83178.3
-25.510	83176.3
-25.505	83164.3
-25.500	83170.3
-25.495	83164.3
-25.490	83175.3
-25.485	83158.3
-25.480	83152.3
-25.475	83138.3
-25.470	83137.3
-25.465	83166.3
-25.460	83179.3
-25.455	83173.3
-25.450	83164.3
-25.445	83157.3
-25.440	83150.3
-25.435	83157.3
-25.430	83161.3
-25.425	83156.3
-25.420	83169.3
-25.415	83170.3
-25.410	83147.3
-25.405	83132.3
-25.400	83154.3
-25.395	83176.3
-25.390	83170.3
-25.385	83171.3
-25.380	83184.3
-25.375	83174.3
-25.370	83167.3
-25.365	83163.3
-25.360	83168.3
-25.355	83154.3
-25.350	83160.3
-25.345	83137.3
-25.340	83129.3
-25.335	83143.3
-25.330	83179.3
-25.325	83170.3
-25.320	83163.3
-25.315	83158.3
-25.310	83161.3
-25.305	83147.3
-25.300	83160.3
-25.295	83150.3
-25.290	83165.3
-25.285	83170.3
-25.280	83167.3
-25.275	83138.3
-25.270	83135.3
-25.265	83171.3
-25.260	83176.3
-25.255	83171.3
-25.250	83174.3
-25.245	83171.3
-25.240	83164.3
-25.235	83166.3
-25.230	83161.3
-25.225	83170.3
-25.220	83160.3
-25.215	83148.3
-25.210	83138.3
-25.205	83127.3
-25.200	83156.3
-25.195	83172.3
-25.190	83167.3
-25.185	83167.3
-25.180	83154.3
-25.175	83153.3
-25.170	83150.3
-25.165	83157.3
-25.160	83151.3
-25.155	83161.3
-25.150	83162.3
-25.145	83144.3
-25.140	83128.3
-25.135	83129.3
-25.130	83166.3
-25.125	83175.3
-25.120	83174.3
-25.115	83158.3
-25.110	83168.3
-25.105	83164.3
-25.100	83161.3
-25.095	83154.3
-25.090	83149.3
-25.085	83161.3
-25.080	83141.3
-25.075	83114.3
-25.070	83126.3
-25.065	83154.3
-25.060	83164.3
-25.055	83159.3
-25.050	83160.3
-25.045	83149.3
-25.040	83138.3
-25.035	83145.3
-25.030	83142.3
-25.025	83152.3
-25.020	83162.3
-25.015	83161.3
-25.010	83138.3
-25.005	83139.3
-25.000	83149.3
-24.995	83158.3
-24.990	83161.3
-24.985	83158.3
-24.980	83161.3
-24.975	83153.3
-24.970	83154.3
-24.965	83144.3
-24.960	83150.3
-24.955	83153.3
-24.950	83153.3
-24.945	83122.3
-24.940	83106.3
-24.935	83123.3
-24.930	83157.3
-24.925	83146.3
-24.920	83154.3
-24.915	83150.3
-24.910	83143.3
-24.905	83136.3
-24.900	83133.3
-24.895	83123.3
-24.890	83144.3
-24.885	83151.3
-24.880	83136.3
-24.875	83117.3
-24.870	83120.3
-24.865	83149.3
-24.860	83152.3
-24.855	83148.3
-24.850	83144.3
-24.845	83141.3
-24.840	83145.3
-24.835	83137.3
-24.830	83142.3
-24.825	83136.3
-24.820	83135.3
-24.815	83130.3
-24.810	83112.3
-24.805	83101.3
-24.800	83126.3
-24.795	83132.3
-24.790	83138.3
-24.785	83127.3
-24.780	83131.3
-24.775	83122.3
-24.770	83121.3
-24.765	83113.3
-24.760	83121.3
-24.755	83130.3
-24.750	83129.3
-24.745	83120.3
-24.740	83102.3
-24.735	83110.3
-24.730	83143.3
-24.725	83134.3
-24.720	83135.3
-24.715	83134.3
-24.710	83126.3
-24.705	83122.3
-24.700	83127.3
-24.695	83116.3
-24.690	83118.3
-24.685	83126.3
-24.680	83100.3
-24.675	83082.4
-24.670	83092.4
-24.665	83109.3
-24.660	83127.3
-24.655	83120.3
-24.650	83125.3
-24.645	83103.3
-24.640	83109.3
-24.635	83096.4
-24.630	83103.3
-24.625	83100.3
-24.620	83111.3
-24.615	83115.3
-24.610	83092.4
-24.605	83083.4
-24.600	83105.3
-24.595	83121.3
-24.590	83124.3
-24.585	83123.3
-24.580	83119.3
-24.575	83109.3
-24.570	83103.3
-24.565	83095.4
-24.560	83109.3
-24.555	83103.3
-24.550	83107.3
-24.545	83083.4
-24.540	83067.4
-24.535	83084.4
-24.530	83119.3
-24.525	83112.3
-24.520	83107.3
-24.515	83097.4
-24.510	83101.3
-24.505	83090.4
-24.500	83092.4
-24.495	83087.4
-24.490	83105.3
-24.485	83101.3
-24.480	83092.4
-24.475	83070.4
-24.470	83068.4
-24.465	83108.3
-24.460	83110.3
-24.455	83111.3
-24.450	83108.3
-24.445	83093.4
-24.440	83094.4
-24.435	83091.4
-24.430	83097.3
-24.425	83088.4
-24.420	83099.4
-24.415	83094.4
-24.410	83063.4
-24.405	83055.4
-24.400	83092.4
-24.395	83094.4
-24.390	83095.4
-24.385	83093.4
-24.380	83090.4
-24.375	83077.4
-24.370	83085.4
-24.365	83073.4
-24.360	83080.4
-24.355	83083.4
-24.350	83102.3
-24.345	83070.4
-24.340	83062.4
-24.335	83069.4
-24.330	83092.4
-24.325	83096.4
-24.320	83099.4
-24.315	83100.4
-24.310	83091.4
-24.305	83085.4
-24.300	83084.4
-24.295	83091.4
-24.290	83083.4
-24.285	83089.4
-24.280	83074.4
-24.275	83052.4
-24.270	83060.4
-24.265	83090.4
-24.260	83094.4
-24.255	83086.4
-24.250	83082.4
-24.245	83084.4
-24.240	83081.4
-24.235	83081.4
-24.230	83079.4
-24.225	83075.4
-24.220	83083.4
-24.215	83088.4
-24.210	83072.4
-24.205	83058.4
-24.200	83085.4
-24.195	83097.4
-24.190	83095.4
-24.185	83092.4
-24.180	83088.4
-24.175	83089.4
-24.170	83082.4
-24.165	83074.4
-24.160	83080.4
-24.155	83076.4
-24.150	83082.4
-24.145	83063.4
-24.140	83052.4
-24.135	83062.4
-24.130	83098.4
-24.125	83078.4
-24.120	83081.4
-24.115	83073.4
-24.110	83077.4
-24.105	83079.4
-24.100	83077.4
-24.095	83080.4
-24.090	83095.4
-24.085	83094.4
-24.080	83080.4
-24.075	83059.4
-24.070	83058.4
-24.065	83086.4
-24.060	83098.4
-24.055	83089.4
-24.050	83095.4
-24.045	83098.4
-24.040	83082.4
-24.035	83071.4
-24.030	83080.4
-24.025	83083.4
-24.020	83085.4
-24.015	83078.4
-24.010	83052.4
-24.005	83053.4
-24.000	83084.4
-23.995	83087.4
-23.990	83078.4
-23.985	83077.4
-23.980	83079.4
-23.975	83076.4
-23.970	83080.4
-23.965	83072.4
-23.960	83077.4
-23.955	83083.4
-23.950	83085.4
-23.945	83067.4
-23.940	83058.4
-23.935	83068.4
-23.930	83094.4
-23.925	83090.4
-23.920	83088.4
-23.915	83091.4
-23.910	83092.4
-23.905	83081.4
-23.900	83084.4
-23.895	83090.4
-23.890	83085.4
-23.885	83088.4
-23.880	83060.4
-23.875	83056.4
-23.870	83073.4
-23.865	83089.4
-23.860	83094.4
-23.855	83085.4
-23.850	83088.4
-23.845	83088.4
-23.840	83087.4
-23.835	83086.4
-23.830	83091.4
-23.825	83099.4
-23.820	83114.3
-23.815	83101.4
-23.810	83080.4
-23.805	83075.4
-23.800	83104.3
-23.795	83113.3
-23.790	83116.3
-23.785	83107.3
-23.780	83111.3
-23.775	83104.3
-23.770	83107.3
-23.765	83100.4
-23.760	83104.4
-23.755	83095.4
-23.750	83100.4
-23.745	83075.4
-23.740	83064.4
-23.735	83090.4
-23.730	83117.3
-23.725	83112.3
-23.720	83105.3
-23.715	83090.4
-23.710	83104.3
-23.705	83084.4
-23.700	83100.4
-23.695	83096.4
-23.690	83109.3
-23.685	83105.3
-23.680	83093.4
-23.675	83074.4
-23.670	83078.4
-23.665	83111.3
-23.660	83118.3
-23.655	83110.3
-23.650	83112.3
-23.645	83105.3
-23.640	83107.3
-23.635	83096.4
-23.630	83102.4
-23.625	83098.4
-23.620	83098.4
-23.615	83093.4
-23.610	83074.4
-23.605	83083.4
-23.600	83111.3
-23.595	83107.3
-23.590	83116.3
-23.585	83102.3
-23.580	83097.3
-23.575	83093.4
-23.570	83108.3
-23.565	83099.4
-23.560	83096.4
-23.555	83107.3
-23.550	83121.3
-23.545	83093.4
-23.540	83080.4
-23.535	83096.4
-23.530	83122.3
-23.525	83116.3
-23.520	83114.3
-23.515	83118.3
-23.510	83123.3
-23.505	83111.3
-23.500	83116.3
-23.495	83112.3
-23.490	83108.3
-23.485	83109.3
-23.480	83096.4
-23.475	83077.4
-23.470	83099.3
-23.465	83125.3
-23.460	83120.3
-23.455	83115.3
-23.450	83127.3
-23.445	83114.3
-23.440	83120.3
-23.435	83122.3
-23.430	83121.3
-23.425	83115.3
-23.420	83137.3
-23.415	83114.3
-23.410	83105.3
-23.405	83099.3
-23.400	83130.3
-23.395	83131.3
-23.390	83134.3
-23.385	83130.3
-23.380	83128.3
-23.375	83130.3
-23.370	83124.3
-23.365	83129.3
-23.360	83127.3
-23.355	83128.3
-23.350	83127.3
-23.345	83110.3
-23.340	83099.3
-23.335	83121.3
-23.330	83141.3
-23.325	83134.3
-23.320	83131.3
-23.315	83123.3
-23.310	83130.3
-23.305	83123.3
-23.300	83137.3
-23.295	83135.3
-23.290	83138.3
-23.285	83147.3
-23.280	83130.3
-23.275	83115.3
-23.270	83126.3
-23.265	83152.3
-23.260	83149.3
-23.255	83148.3
-23.250	83147.3
-23.245	83153.3
-23.240	83139.3
-23.235	83137.3
-23.230	83146.3
-23.225	83140.3
-23.220	83146.3
-23.215	83131.3
-23.210	83113.3
-23.205	83113.3
-23.200	83155.3
-23.195	83158.3
-23.190	83145.3
-23.185	83140.3
-23.180	83147.3
-23.175	83137.3
-23.170	83143.3
-23.165	83135.3
-23.160	83141.3
-23.155	83139.3
-23.150	83150.3
-23.145	83124.3
-23.140	83118.3
-23.135	83141.3
-23.130	83158.3
-23.125	83165.3
-23.120	83148.3
-23.115	83154.3
-23.110	83157.3
-23.105	83154.3
-23.100	83143.3
-23.095	83145.3
-23.090	83145.3
-23.085	83146.3
-23.080	83127.3
-23.075	83120.3
-23.070	83137.3
-23.065	83157.3
-23.060	83163.3
-23.055	83150.3
-23.050	83148.3
-23.045	83147.3
-23.040	83147.3
-23.035	83143.3
-23.030	83148.3
-23.025	83151.3
-23.020	83166.3
-23.015	83162.3
-23.010	83139.3
-23.005	83125.3
-23.000	83167.3
-22.995	83170.3
-22.990	83168.3
-22.985	83160.3
-22.980	83151.3
-22.975	83156.3
-22.970	83151.3
-22.965	83150.3
-22.960	83147.3
-22.955	83147.3
-22.950	83149.3
-22.945	83113.3
-22.940	83125.3
-22.935	83151.3
-22.930	83171.3
-22.925	83162.3
-22.920	83159.3
-22.915	83148.3
-22.910	83151.3
-22.905	83140.3
-22.900	83150.3
-22.895	83149.3
-22.890	83157.3
-22.885	83160.3
-22.880	83147.3
-22.875	83126.3
-22.870	83140.3
-22.865	83163.3
-22.860	83172.3
-22.855	83159.3
-22.850	83165.3
-22.845	83161.3
-22.840	83147.3
-22.835	83148.3
-22.830	83161.3
-22.825	83154.3
-22.820	83149.3
-22.815	83134.3
-22.810	83124.3
-22.805	83130.3
-22.800	83157.3
-22.795	83159.3
-22.790	83158.3
-22.785	83153.3
-22.780	83145.3
-22.775	83143.3
-22.770	83147.3
-22.765	83147.3
-22.760	83156.3
-22.755	83152.3
-22.750	83155.3
-22.745	83138.3
-22.740	83127.3
-22.735	83150.3
-22.730	83163.3
-22.725	83159.3
-22.720	83159.3
-22.715	83154.3
-22.710	83161.3
-22.705	83159.3
-22.700	83153.3
-22.695	83154.3
-22.690	83156.3
-22.685	83154.3
-22.680	83125.3
-22.675	83111.3
-22.670	83137.3
-22.665	83153.3
-22.660	83155.3
-22.655	83149.3
-22.650	83157.3
-22.645	83149.3
-22.640	83155.3
-22.635	83144.3
-22.630	83146.3
-22.625	83141.3
-22.620	83160.3
-22.615	83150.3
-22.610	83138.3
-22.605	83124.3
-22.600	83165.3
-22.595	83166.3
-22.590	83165.3
-22.585	83160.3
-22.580	83163.3
-22.575	83157.3
-22.570	83145.3
-22.565	83153.3
-22.560	83159.3
-22.555	83151.3
-22.550	83142.3
-22.545	83123.3
-22.540	83123.3
-22.535	83149.3
-22.530	83159.3
-22.525	83155.3
-22.520	83158.3
-22.515	83148.3
-22.510	83148.3
-22.505	83143.3
-22.500	83153.3
-22.495	83150.3
-22.490	83162.3
-22.485	83155.3
-22.480	83152.3
-22.475	83125.3
-22.470	83143.3
-22.465	83169.3
-22.460	83172.3
-22.455	83167.3
-22.450	83172.3
-22.445	83164.3
-22.440	83162.3
-22.435	83156.3
-22.430	83161.3
-22.425	83163.3
-22.420	83157.3
-22.415	83136.3
-22.410	83128.3
-22.405	83137.3
-22.400	83165.3
-22.395	83166.3
-22.390	83157.3
-22.385	83163.3
-22.380	83158.3
-22.375	83152.3
-22.370	83153.3
-22.365	83145.3
-22.360	83157.3
-22.355	83157.3
-22.350	83163.3
-22.345	83135.3
-22.340	83134.3
-22.335	83156.3
-22.330	83176.3
-22.325	83172.3
-22.320	83163.3
-22.315	83165.3
-22.310	83158.3
-22.305	83156.3
-22.300	83159.3
-22.295	83163.3
-22.290	83164.3
-22.285	83162.3
-22.280	83137.3
-22.275	83113.3
-22.270	83140.3
-22.265	83162.3
-22.260	83166.3
-22.255	83157.3
-22.250	83154.3
-22.245	83146.3
-22.240	83154.3
-22.235	83145.3
-22.230	83155.3
-22.225	83155.3
-22.220	83162.3
-22.215	83144.3
-22.210	83130.3
-22.205	83133.3
-22.200	83165.3
-22.195	83163.3
-22.190	83168.3
-22.185	83163.3
-22.180	83156.3
-22.175	83154.3
-22.170	83156.3
-22.165	83158.3
-22.160	83163.3
-22.155	83156.3
-22.150	83143.3
-22.145	83119.3
-22.140	83117.3
-22.135	83157.3
-22.130	83153.3
-22.125	83160.3
-22.120	83148.3
-22.115	83152.3
-22.110	83145.3
-22.105	83145.3
-22.100	83138.3
-22.095	83153.3
-22.090	83157.3
-22.085	83158.3
-22.080	83133.3
-22.075	83122.3
-22.070	83140.3
-22.065	83159.3
-22.060	83174.3
-22.055	83161.3
-22.050	83155.3
-22.045	83150.3
-22.040	83146.3
-22.035	83147.3
-22.030	83153.3
-22.025	83149.3
-22.020	83148.3
-22.015	83129.3
-22.010	83117.3
-22.005	83117.3
-22.000	83150.3
-21.995	83149.3
-21.990	83147.3
-21.985	83143.3
-21.980	83143.3
-21.975	83142.3
-21.970	83130.3
-21.965	83134.3
-21.960	83140.3
-21.955	83152.3
-21.950	83143.3
-21.945	83124.3
-21.940	83115.3
-21.935	83148.3
-21.930	83149.3
-21.925	83157.3
-21.920	83165.3
-21.915	83145.3
-21.910	83149.3
-21.905	83141.3
-21.900	83143.3
-21.895	83140.3
-21.890	83150.3
-21.885	83133.3
-21.880	83114.3
-21.875	83097.3
-21.870	83131.3
-21.865	83139.3
-21.860	83145.3
-21.855	83134.3
-21.850	83138.3
-21.845	83131.3
-21.840	83137.3
-21.835	83131.3
-21.830	83126.3
-21.825	83130.3
-21.820	83143.3
-21.815	83117.3
-21.810	83106.3
-21.805	83114.3
-21.800	83153.3
-21.795	83150.3
-21.790	83152.3
-21.785	83129.3
-21.780	83137.3
-21.775	83125.3
-21.770	83132.3
-21.765	83132.3
-21.760	83145.3
-21.755	83130.3
-21.750	83119.3
-21.745	83096.3
-21.740	83102.3
-21.735	83125.3
-21.730	83133.3
-21.725	83126.3
-21.720	83118.3
-21.715	83128.3
-21.710	83126.3
-21.705	83119.3
-21.700	83127.3
-21.695	83127.3
-21.690	83136.3
-21.685	83129.3
-21.680	83107.3
-21.675	83093.3
-21.670	83111.3
-21.665	83132.3
-21.660	83144.3
-21.655	83133.3
-21.650	83139.3
-21.645	83121.3
-21.640	83131.3
-21.635	83125.3
-21.630	83128.3
-21.625	83116.3
-21.620	83124.3
-21.615	83104.3
-21.610	83091.4
-21.605	83104.3
-21.600	83130.3
-21.595	83124.3
-21.590	83117.3
-21.585	83126.3
-21.580	83109.3
-21.575	83115.3
-21.570	83125.3
-21.565	83113.3
-21.560	83122.3
-21.555	83118.3
-21.550	83118.3
-21.545	83093.3
-21.540	83092.4
-21.535	83129.3
-21.530	83135.3
-21.525	83129.3
-21.520	83133.3
-21.515	83126.3
-21.510	83124.3
-21.505	83112.3
-21.500	83118.3
-21.495	83113.3
-21.490	83119.3
-21.485	83112.3
-21.480	83095.4
-21.475	83080.4
-21.470	83120.3
-21.465	83121.3
-21.460	83117.3
-21.455	83113.3
-21.450	83109.3
-21.445	83113.3
-21.440	83107.3
-21.435	83114.3
-21.430	83114.3
-21.425	83110.3
-21.420	83115.3
-21.415	83091.4
-21.410	83066.4
-21.405	83076.4
-21.400	83104.3
-21.395	83095.4
-21.390	83094.4
-21.385	83077.4
-21.380	83055.4
-21.375	83005.5
-21.370	82950.5
-21.365	82862.6
-21.360	82755.7
-21.355	82601.9
-21.350	82386.2
-21.345	82093.5
-21.340	81745.9
-21.335	81342.3
-21.330	80875.8
-21.325	80423.4
-21.320	79971.0
-21.315	79504.6
-21.310	78985.3
-21.305	78397.0
-21.300	77765.9
-21.295	77178.7
-21.290	76579.5
-21.285	75865.3
-21.280	74973.3
-21.275	74009.4
-21.270	73468.1
-21.265	73303.6
-21.260	72907.0
-21.255	72796.0
-21.250	73526.4
-21.245	73731.2
-21.240	73643.0
-21.235	74388.4
-21.230	75404.6
-21.225	76360.8
-21.220	76863.4
-21.215	76529.6
-21.210	75277.4
-21.205	74583.7
-21.200	75341.1
-21.195	75951.6
-21.190	75557.7
-21.185	75987.4
-21.180	76461.0
-21.175	74999.9
-21.170	74952.9
-21.165	76851.5
-21.160	77817.8
-21.155	78145.5
-21.150	78083.5
-21.145	77744.7
-21.140	76760.3
-21.135	75562.2
-21.130	76075.8
-21.125	77161.0
-21.120	77379.8
-21.115	77689.5
-21.110	78407.9
-21.105	78581.7
-21.100	77831.3
-21.095	76211.4
-21.090	75359.9
-21.085	76675.0
-21.080	78091.9
-21.075	77018.7
-21.070	74878.3
-21.065	74805.3
-21.060	77038.6
-21.055	78499.5
-21.050	78557.5
-21.045	78021.8
-21.040	77803.9
-21.035	77995.8
-21.030	77889.9
-21.025	77667.0
-21.020	78026.7
-21.015	78641.2
-21.010	78961.0
-21.005	78921.0
-21.000	78765.1
-20.995	78639.1
-20.990	78542.2
-20.985	78523.2
-20.980	78465.2
-20.975	78484.2
-20.970	78837.9
-20.965	79287.6
-20.960	79489.4
-20.955	79458.4
-20.950	79208.6
-20.945	78731.9
-20.940	78332.2
-20.935	78336.2
-20.930	78543.0
-20.925	78818.8
-20.920	79015.6
-20.915	79022.6
-20.910	79004.6
-20.905	79092.6
-20.900	79233.4
-20.895	79317.4
-20.890	79292.4
-20.885	79211.4
-20.880	79141.4
-20.875	79071.5
-20.870	79115.4
-20.865	79207.4
-20.860	79286.3
-20.855	79376.2
-20.850	79423.2
-20.845	79394.2
-20.840	79349.2
-20.835	79263.3
-20.830	79182.3
-20.825	79110.3
-20.820	79038.4
-20.815	78871.5
-20.810	78787.6
-20.805	78846.5
-20.800	78952.4
-20.795	79008.4
-20.790	79090.3
-20.785	79155.2
-20.780	79225.2
-20.775	79244.1
-20.770	79221.2
-20.765	79179.2
-20.760	79193.2
-20.755	79234.1
-20.750	79313.0
-20.745	79363.0
-20.740	79389.0
-20.735	79444.9
-20.730	79525.9
-20.725	79584.8
-20.720	79650.8
-20.715	79707.7
-20.710	79742.7
-20.705	79802.6
-20.700	79848.6
-20.695	79872.6
-20.690	79883.5
-20.685	79894.5
-20.680	79906.5
-20.675	79932.5
-20.670	79989.4
-20.665	80014.4
-20.660	80034.4
-20.655	80010.4
-20.650	79988.4
-20.645	79955.4
-20.640	79933.4
-20.635	79910.4
-20.630	79897.4
-20.625	79887.4
-20.620	79875.4
-20.615	79878.4
-20.610	79909.4
-20.605	79942.4
-20.600	79989.3
-20.595	80024.3
-20.590	80020.3
-20.585	79997.3
-20.580	80005.3
-20.575	80017.3
-20.570	80033.3
-20.565	80002.3
-20.560	79968.3
-20.555	79946.3
-20.550	79939.3
-20.545	79941.3
-20.540	79989.3
-20.535	80084.2
-20.530	80159.1
-20.525	80209.1
-20.520	80273.0
-20.515	80287.0
-20.510	80301.0
-20.505	80357.0
-20.500	80384.9
-20.495	80411.9
-20.490	80445.9
-20.485	80442.9
-20.480	80430.9
-20.475	80431.9
-20.470	80474.8
-20.465	80483.8
-20.460	80492.8
-20.455	80490.8
-20.450	80502.8
-20.445	80484.8
-20.440	80468.8
-20.435	80488.8
-20.430	80490.8
-20.425	80489.8
-20.420	80488.8
-20.415	80443.8
-20.410	80415.8
-20.405	80424.8
-20.400	80442.8
-20.395	80449.8
-20.390	80455.8
-20.385	80444.8
-20.380	80422.8
-20.375	80383.8
-20.370	80372.8
-20.365	80378.8
-20.360	80393.8
-20.355	80392.8
-20.350	80347.8
-20.345	80324.8
-20.340	80315.9
-20.335	80332.8
-20.330	80320.8
-20.325	80293.9
-20.320	80264.9
-20.315	80247.9
-20.310	80258.9
-20.305	80262.9
-20.300	80288.8
-20.295	80331.8
-20.290	80359.8
-20.285	80363.8
-20.280	80387.8
-20.275	80422.7
-20.270	80495.7
-20.265	80533.6
-20.260	80561.6
-20.255	80580.6
-20.250	80614.6
-20.245	80637.5
-20.240	80655.5
-20.235	80671.5
-20.230	80692.5
-20.225	80722.5
-20.220	80728.5
-20.215	80712.5
-20.210	80706.5
-20.205	80723.5
-20.200	80722.5
-20.195	80691.5
-20.190	80691.5
-20.185	80687.5
-20.180	80691.5
-20.175	80666.5
-20.170	80644.5
-20.165	80627.5
-20.160	80641.5
-20.155	80661.5
-20.150	80646.5
-20.145	80630.5
-20.140	80638.5
-20.135	80678.4
-20.130	80695.4
-20.125	80706.4
-20.120	80708.4
-20.115	80718.4
-20.110	80723.4
-20.105	80727.4
-20.100	80728.4
-20.095	80736.4
-20.090	80750.4
-20.085	80749.4
-20.080	80739.4
-20.075	80744.4
-20.070	80789.3
-20.065	80813.3
-20.060	80832.3
-20.055	80858.3
-20.050	80886.2
-20.045	80897.2
-20.040	80909.2
-20.035	80937.2
-20.030	80950.2
-20.025	80962.2
-20.020	80983.2
-20.015	80971.2
-20.010	80967.2
-20.005	80987.1
-20.000	81001.1
-19.995	80995.1
-19.990	80998.1
-19.985	80990.1
-19.980	80995.1
-19.975	80995.1
-19.970	81003.1
-19.965	81000.1
-19.960	81004.1
-19.955	81006.1
-19.950	80992.1
-19.945	80967.1
-19.940	80979.1
-19.935	81012.1
-19.930	81019.1
-19.925	81022.1
-19.920	81033.1
-19.915	81045.1
-19.910	81047.1
-19.905	81039.1
-19.900	81038.1
-19.895	81026.1
-19.890	81014.1
-19.885	80984.1
-19.880	80973.1
-19.875	80971.1
-19.870	81001.1
-19.865	80993.1
-19.860	80990.1
-19.855	80971.1
-19.850	80950.1
-19.845	80916.1
-19.840	80899.1
-19.835	80882.1
-19.830	80882.1
-19.825	80872.1
-19.820	80863.2
-19.815	80820.2
-19.810	80785.2
-19.805	80774.2
-19.800	80784.2
-19.795	80789.2
-19.790	80798.2
-19.785	80772.2
-19.780	80752.2
-19.775	80730.2
-19.770	80732.2
-19.765	80752.2
-19.760	80758.2
-19.755	80757.2
-19.750	80714.2
-19.745	80696.2
-19.740	80729.2
-19.735	80768.2
-19.730	80772.2
-19.725	80771.2
-19.720	80796.2
-19.715	80772.2
-19.710	80777.2
-19.705	80770.2
-19.700	80776.2
-19.695	80773.2
-19.690	80779.2
-19.685	80759.2
-19.680	80743.2
-19.675	80742.2
-19.670	80786.1
-19.665	80789.1
-19.660	80789.1
-19.655	80779.1
-19.650	80781.1
-19.645	80783.1
-19.640	80779.1
-19.635	80773.1
-19.630	80765.1
-19.625	80760.1
-19.620	80750.2
-19.615	80715.2
-19.610	80718.2
-19.605	80756.1
-19.600	80783.1
-19.595	80784.1
-19.590	80784.1
-19.585	80752.1
-19.580	80739.1
-19.575	80742.1
-19.570	80740.1
-19.565	80739.1
-19.560	80745.1
-19.555	80742.1
-19.550	80736.1
-19.545	80737.1
-19.540	80754.1
-19.535	80789.1
-19.530	80807.1
-19.525	80818.1
-19.520	80835.1
-19.515	80858.0
-19.510	80893.0
-19.505	80925.0
-19.500	80949.0
-19.495	80948.0
-19.490	80937.0
-19.485	80917.0
-19.480	80932.0
-19.475	80955.0
-19.470	80998.9
-19.465	81004.9
-19.460	81029.9
-19.455	81020.9
-19.450	81026.9
-19.445	81051.9
-19.440	81074.9
-19.435	81081.9
-19.430	81102.8
-19.425	81120.8
-19.420	81131.8
-19.415	81109.8
-19.410	81088.8
-19.405	81104.8
-19.400	81115.8
-19.395	81110.8
-19.390	81111.8
-19.385	81092.8
-19.380	81091.8
-19.375	81073.8
-19.370	81058.9
-19.365	81047.9
-19.360	81043.9
-19.355	81024.9
-19.350	80991.9
-19.345	80968.9
-19.340	80977.9
-19.335	81001.9
-19.330	80996.9
-19.325	80994.9
-19.320	80988.9
-19.315	80974.9
-19.310	80959.9
-19.305	80929.9
-19.300	80923.9
-19.295	80929.9
-19.290	80950.9
-19.285	80952.9
-19.280	80965.9
-19.275	80950.9
-19.270	80969.9
-19.265	80972.9
-19.260	81009.9
-19.255	81032.8
-19.250	81042.8
-19.245	81039.8
-19.240	81053.8
-19.235	81063.8
-19.230	81086.8
-19.225	81114.8
-19.220	81152.7
-19.215	81159.7
-19.210	81173.7
-19.205	81220.7
-19.200	81249.7
-19.195	81265.7
-19.190	81278.6
-19.185	81282.6
-19.180	81300.6
-19.175	81305.6
-19.170	81320.6
-19.165	81334.6
-19.160	81356.6
-19.155	81363.6
-19.150	81352.6
-19.145	81344.6
-19.140	81352.6
-19.135	81368.6
-19.130	81363.6
-19.125	81349.6
-19.120	81344.6
-19.115	81339.6
-19.110	81341.6
-19.105	81318.6
-19.100	81319.6
-19.095	81303.6
-19.090	81291.6
-19.085	81260.6
-19.080	81224.7
-19.075	81214.7
-19.070	81251.6
-19.065	81250.6
-19.060	81220.7
-19.055	81200.7
-19.050	81201.7
-19.045	81190.7
-19.040	81180.7
-19.035	81175.7
-19.030	81186.7
-19.025	81216.7
-19.020	81227.6
-19.015	81204.7
-19.010	81196.7
-19.005	81218.6
-19.000	81222.6
-18.995	81215.6
-18.990	81222.6
-18.985	81223.6
-18.980	81217.6
-18.975	81217.6
-18.970	81216.6
-18.965	81231.6
-18.960	81227.6
-18.955	81232.6
-18.950	81216.6
-18.945	81201.6
-18.940	81215.6
-18.935	81216.6
-18.930	81199.6
-18.925	81194.6
-18.920	81193.6
-18.915	81180.7
-18.910	81177.7
-18.905	81179.7
-18.900	81187.6
-18.895	81185.6
-18.890	81203.6
-18.885	81192.6
-18.880	81182.6
-18.875	81179.6
-18.870	81212.6
-18.865	81206.6
-18.860	81198.6
-18.855	81180.6
-18.850	81175.6
-18.845	81167.6
-18.840	81173.6
-18.835	81168.6
-18.830	81169.6
-18.825	81166.6
-18.820	81139.7
-18.815	81098.7
-18.810	81108.7
-18.805	81144.6
-18.800	81155.6
-18.795	81169.6
-18.790	81179.6
-18.785	81187.6
-18.780	81178.6
-18.775	81170.6
-18.770	81178.6
-18.765	81178.6
-18.760	81197.6
-18.755	81194.6
-18.750	81175.6
-18.745	81151.6
-18.740	81201.6
-18.735	81234.6
-18.730	81267.5
-18.725	81259.5
-18.720	81278.5
-18.715	81294.5
-18.710	81322.5
-18.705	81341.5
-18.700	81360.5
-18.695	81367.5
-18.690	81369.5
-18.685	81364.5
-18.680	81371.5
-18.675	81388.4
-18.670	81424.4
-18.665	81419.4
-18.660	81411.4
-18.655	81414.4
-18.650	81414.4
-18.645	81423.4
-18.640	81449.4
-18.635	81447.4
-18.630	81463.4
-18.625	81471.4
-18.620	81477.4
-18.615	81445.4
-18.610	81446.4
-18.605	81483.4
-18.600	81501.3
-18.595	81505.3
-18.590	81517.3
-18.585	81513.3
-18.580	81525.3
-18.575	81521.3
-18.570	81530.3
-18.565	81526.3
-18.560	81540.3
-18.555	81534.3
-18.550	81528.3
-18.545	81519.3
-18.540	81547.3
-18.535	81563.3
-18.530	81571.3
-18.525	81565.3
-18.520	81553.3
-18.515	81540.3
-18.510	81545.3
-18.505	81549.3
-18.500	81561.3
-18.495	81563.3
-18.490	81581.3
-18.485	81558.3
-18.480	81542.3
-18.475	81545.3
-18.470	81580.3
-18.465	81575.3
-18.460	81574.3
-18.455	81579.3
-18.450	81578.3
-18.445	81566.3
-18.440	81565.3
-18.435	81569.3
-18.430	81562.3
-18.425	81556.3
-18.420	81549.3
-18.415	81529.3
-18.410	81543.3
-18.405	81557.3
-18.400	81564.3
-18.395	81557.3
-18.390	81554.3
-18.385	81554.3
-18.380	81559.3
-18.375	81568.3
-18.370	81565.3
-18.365	81578.3
-18.360	81586.2
-18.355	81594.2
-18.350	81568.3
-18.345	81544.3
-18.340	81564.3
-18.335	81580.2
-18.330	81592.2
-18.325	81582.2
-18.320	81595.2
-18.315	81583.2
-18.310	81583.2
-18.305	81572.3
-18.300	81582.2
-18.295	81580.2
-18.290	81585.2
-18.285	81553.3
-18.280	81554.3
-18.275	81561.3
-18.270	81591.2
-18.265	81595.2
-18.260	81596.2
-18.255	81596.2
-18.250	81593.2
-18.245	81598.2
-18.240	81592.2
-18.235	81591.2
-18.230	81603.2
-18.225	81606.2
-18.220	81600.2
-18.215	81579.2
-18.210	81577.2
-18.205	81606.2
-18.200	81620.2
-18.195	81615.2
-18.190	81622.2
-18.185	81611.2
-18.180	81605.2
-18.175	81596.2
-18.170	81591.2
-18.165	81578.2
-18.160	81560.2
-18.155	81556.2
-18.150	81526.3
-18.145	81518.3
-18.140	81534.2
-18.135	81533.3
-18.130	81532.2
-18.125	81523.3
-18.120	81515.3
-18.115	81493.3
-18.110	81482.3
-18.105	81475.3
-18.100	81475.3
-18.095	81472.3
-18.090	81460.3
-18.085	81443.3
-18.080	81421.3
-18.075	81433.3
-18.070	81458.3
-18.065	81460.3
-18.060	81445.3
-18.055	81427.3
-18.050	81408.3
-18.045	81384.4
-18.040	81377.4
-18.035	81363.4
-18.030	81371.4
-18.025	81359.4
-18.020	81360.4
-18.015	81332.4
-18.010	81339.4
-18.005	81368.4
-18.000	81372.4
-17.995	81354.4
-17.990	81362.4
-17.985	81368.4
-17.980	81373.4
-17.975	81392.3
-17.970	81407.3
-17.965	81408.3
-17.960	81417.3
-17.955	81418.3
-17.950	81403.3
-17.945	81407.3
-17.940	81446.3
-17.935	81452.3
-17.930	81480.3
-17.925	81482.3
-17.920	81487.3
-17.915	81480.3
-17.910	81505.2
-17.905	81490.3
-17.900	81501.2
-17.895	81501.2
-17.890	81506.2
-17.885	81485.3
-17.880	81483.3
-17.875	81509.2
-17.870	81540.2
-17.865	81538.2
-17.860	81535.2
-17.855	81527.2
-17.850	81523.2
-17.845	81530.2
-17.840	81534.2
-17.835	81532.2
-17.830	81549.2
-17.825	81545.2
-17.820	81540.2
-17.815	81522.2
-17.810	81525.2
-17.805	81549.2
-17.800	81554.2
-17.795	81553.2
-17.790	81565.2
-17.785	81554.2
-17.780	81559.2
-17.775	81565.2
-17.770	81575.2
-17.765	81561.2
-17.760	81570.2
-17.755	81551.2
-17.750	81534.2
-17.745	81513.2
-17.740	81559.2
-17.735	81566.2
-17.730	81579.2
-17.725	81586.2
-17.720	81578.2
-17.715	81589.2
-17.710	81594.2
-17.705	81592.2
-17.700	81598.2
-17.695	81606.1
-17.690	81620.1
-17.685	81605.1
-17.680	81598.1
-17.675	81611.1
-17.670	81646.1
-17.665	81647.1
-17.660	81652.1
-17.655	81640.1
-17.650	81643.1
-17.645	81642.1
-17.640	81651.1
-17.635	81647.1
-17.630	81650.1
-17.625	81651.1
-17.620	81646.1
-17.615	81617.1
-17.610	81632.1
-17.605	81658.1
-17.600	81666.1
-17.595	81648.1
-17.590	81658.1
-17.585	81636.1
-17.580	81641.1
-17.575	81641.1
-17.570	81638.1
-17.565	81632.1
-17.560	81629.1
-17.555	81627.1
-17.550	81605.1
-17.545	81591.1
-17.540	81626.1
-17.535	81622.1
-17.530	81624.1
-17.525	81614.1
-17.520	81615.1
-17.515	81618.1
-17.510	81622.1
-17.505	81614.1
-17.500	81623.1
-17.495	81622.1
-17.490	81626.1
-17.485	81590.1
-17.480	81584.1
-17.475	81605.1
-17.470	81636.1
-17.465	81627.1
-17.460	81645.1
-17.455	81632.1
-17.450	81629.1
-17.445	81615.1
-17.440	81630.1
-17.435	81635.1
-17.430	81647.1
-17.425	81649.1
-17.420	81640.1
-17.415	81622.1
-17.410	81649.1
-17.405	81687.0
-17.400	81702.0
-17.395	81688.0
-17.390	81687.0
-17.385	81687.0
-17.380	81689.0
-17.375	81686.0
-17.370	81693.0
-17.365	81700.0
-17.360	81689.0
-17.355	81672.0
-17.350	81656.1
-17.345	81663.0
-17.340	81692.0
-17.335	81702.0
-17.330	81703.0
-17.325	81691.0
-17.320	81700.0
-17.315	81694.0
-17.310	81705.0
-17.305	81701.0
-17.300	81715.0
-17.295	81713.0
-17.290	81729.0
-17.285	81717.0
-17.280	81718.0
-17.275	81727.0
-17.270	81761.0
-17.265	81763.0
-17.260	81764.0
-17.255	81769.0
-17.250	81762.0
-17.245	81761.0
-17.240	81769.0
-17.235	81759.0
-17.230	81772.0
-17.225	81783.0
-17.220	81771.0
-17.215	81755.0
-17.210	81765.0
-17.205	81783.0
-17.200	81784.0
-17.195	81778.0
-17.190	81776.0
-17.185	81760.0
-17.180	81770.0
-17.175	81769.0
-17.170	81781.0
-17.165	81784.9
-17.160	81790.9
-17.155	81785.9
-17.150	81767.0
-17.145	81766.0
-17.140	81781.9
-17.135	81783.9
-17.130	81774.9
-17.125	81777.9
-17.120	81763.0
-17.115	81748.0
-17.110	81750.0
-17.105	81745.0
-17.100	81755.0
-17.095	81749.0
-17.090	81751.0
-17.085	81730.0
-17.080	81732.0
-17.075	81759.0
-17.070	81764.9
-17.065	81761.0
-17.060	81756.0
-17.055	81762.0
-17.050	81763.0
-17.045	81768.9
-17.040	81769.9
-17.035	81769.9
-17.030	81783.9
-17.025	81789.9
-17.020	81777.9
-17.015	81747.0
-17.010	81766.9
-17.005	81789.9
-17.000	81787.9
-16.995	81791.9
-16.990	81803.9
-16.985	81806.9
-16.980	81810.9
-16.975	81808.9
-16.970	81800.9
-16.965	81811.9
-16.960	81810.9
-16.955	81790.9
-16.950	81774.9
-16.945	81775.9
-16.940	81813.9
-16.935	81809.9
-16.930	81811.9
-16.925	81807.9
-16.920	81805.9
-16.915	81784.9
-16.910	81793.9
-16.905	81792.9
-16.900	81797.9
-16.895	81803.9
-16.890	81802.9
-16.885	81781.9
-16.880	81762.9
-16.875	81785.9
-16.870	81810.9
-16.865	81804.9
-16.860	81805.9
-16.855	81809.9
-16.850	81800.9
-16.845	81808.9
-16.840	81796.9
-16.835	81783.9
-16.830	81788.9
-16.825	81781.9
-16.820	81764.9
-16.815	81752.9
-16.810	81767.9
-16.805	81770.9
-16.800	81767.9
-16.795	81756.9
-16.790	81750.9
-16.785	81736.9
-16.780	81731.0
-16.775	81724.0
-16.770	81713.0
-16.765	81715.0
-16.760	81716.0
-16.755	81699.0
-16.750	81690.0
-16.745	81677.0
-16.740	81715.0
-16.735	81720.0
-16.730	81721.9
-16.725	81725.9
-16.720	81715.0
-16.715	81700.0
-16.710	81706.0
-16.705	81705.0
-16.700	81703.0
-16.695	81701.0
-16.690	81714.0
-16.685	81681.0
-16.680	81685.0
-16.675	81712.0
-16.670	81722.9
-16.665	81703.0
-16.660	81705.0
-16.655	81700.0
-16.650	81704.0
-16.645	81691.0
-16.640	81703.0
-16.635	81694.0
-16.630	81704.0
-16.625	81723.9
-16.620	81711.9
-16.615	81681.0
-16.610	81694.0
-16.605	81721.9
-16.600	81719.9
-16.595	81709.9
-16.590	81704.0
-16.585	81694.0
-16.580	81691.0
-16.575	81693.0
-16.570	81696.0
-16.565	81686.0
-16.560	81683.0
-16.555	81665.0
-16.550	81646.0
-16.545	81641.0
-16.540	81680.0
-16.535	81678.0
-16.530	81670.0
-16.525	81659.0
-16.520	81663.0
-16.515	81649.0
-16.510	81661.0
-16.505	81663.0
-16.500	81665.0
-16.495	81677.0
-16.490	81681.0
-16.485	81653.0
-16.480	81638.0
-16.475	81660.0
-16.470	81676.0
-16.465	81670.0
-16.460	81665.0
-16.455	81660.0
-16.450	81658.0
-16.445	81649.0
-16.440	81652.0
-16.435	81650.0
-16.430	81656.0
-16.425	81664.0
-16.420	81647.0
-16.415	81634.0
-16.410	81664.0
-16.405	81695.9
-16.400	81695.9
-16.395	81693.9
-16.390	81695.9
-16.385	81684.9
-16.380	81683.9
-16.375	81675.0
-16.370	81685.9
-16.365	81691.9
-16.360	81712.9
-16.355	81702.9
-16.350	81690.9
-16.345	81692.9
-16.340	81723.9
-16.335	81724.9
-16.330	81722.9
-16.325	81732.9
-16.320	81731.9
-16.315	81721.9
-16.310	81723.9
-16.305	81718.9
-16.300	81721.9
-16.295	81724.9
-16.290	81735.9
-16.285	81703.9
-16.280	81715.9
-16.275	81736.9
-16.270	81748.9
-16.265	81756.9
-16.260	81760.9
-16.255	81750.9
-16.250	81742.9
-16.245	81730.9
-16.240	81727.9
-16.235	81728.9
-16.230	81750.9
-16.225	81749.9
-16.220	81729.9
-16.215	81719.9
-16.210	81734.9
-16.205	81754.9
-16.200	81745.9
-16.195	81754.9
-16.190	81743.9
-16.185	81740.9
-16.180	81730.9
-16.175	81720.9
-16.170	81712.9
-16.165	81707.9
-16.160	81704.9
-16.155	81674.9
-16.150	81662.9
-16.145	81671.9
-16.140	81700.9
-16.135	81702.9
-16.130	81693.9
-16.125	81683.9
-16.120	81679.9
-16.115	81663.9
-16.110	81659.9
-16.105	81651.0
-16.100	81639.0
-16.095	81635.0
-16.090	81637.0
-16.085	81611.0
-16.080	81610.0
-16.075	81618.0
-16.070	81620.0
-16.065	81606.0
-16.060	81598.0
-16.055	81602.0
-16.050	81586.0
-16.045	81580.0
-16.040	81565.0
-16.035	81545.0
-16.030	81544.0
-16.025	81550.0
-16.020	81533.0
-16.015	81517.1
-16.010	81533.0
-16.005	81551.0
-16.000	81550.0
-15.995	81557.0
-15.990	81562.0
-15.985	81555.0
-15.980	81557.0
-15.975	81566.0
-15.970	81567.0
-15.965	81562.0
-15.960	81569.0
-15.955	81564.0
-15.950	81550.0
-15.945	81531.0
-15.940	81578.0
-15.935	81579.0
-15.930	81583.0
-15.925	81583.0
-15.920	81588.0
-15.915	81593.0
-15.910	81601.0
-15.905	81606.0
-15.900	81602.0
-15.895	81603.0
-15.890	81604.0
-15.885	81597.0
-15.880	81593.0
-15.875	81619.0
-15.870	81634.0
-15.865	81641.9
-15.860	81652.9
-15.855	81654.9
-15.850	81672.9
-15.845	81653.9
-15.840	81663.9
-15.835	81660.9
-15.830	81680.9
-15.825	81687.9
-15.820	81674.9
-15.815	81661.9
-15.810	81681.9
-15.805	81714.9
-15.800	81730.9
-15.795	81722.9
-15.790	81733.9
-15.785	81739.9
-15.780	81731.9
-15.775	81741.9
-15.770	81746.9
-15.765	81747.9
-15.760	81763.9
-15.755	81734.9
-15.750	81730.9
-15.745	81738.9
-15.740	81774.8
-15.735	81770.8
-15.730	81777.8
-15.725	81778.8
-15.720	81773.8
-15.715	81770.8
-15.710	81774.8
-15.705	81766.8
-15.700	81770.8
-15.695	81778.8
-15.690	81787.8
-15.685	81759.8
-15.680	81749.9
-15.675	81775.8
-15.670	81786.8
-15.665	81784.8
-15.660	81789.8
-15.655	81782.8
-15.650	81775.8
-15.645	81762.8
-15.640	81767.8
-15.635	81762.8
-15.630	81772.8
-15.625	81775.8
-15.620	81740.9
-15.615	81714.9
-15.610	81739.9
-15.605	81758.8
-15.600	81751.8
-15.595	81755.8
-15.590	81755.8
-15.585	81739.9
-15.580	81743.9
-15.575	81740.9
-15.570	81730.9
-15.565	81731.9
-15.560	81744.8
-15.555	81730.9
-15.550	81711.9
-15.545	81711.9
-15.540	81732.9
-15.535	81732.9
-15.530	81738.9
-15.525	81732.9
-15.520	81730.9
-15.515	81720.9
-15.510	81727.9
-15.505	81720.9
-15.500	81728.9
-15.495	81727.9
-15.490	81720.9
-15.485	81695.9
-15.480	81700.9
-15.475	81725.9
-15.470	81735.8
-15.465	81722.9
-15.460	81718.9
-15.455	81725.9
-15.450	81723.9
-15.445	81714.9
-15.440	81716.9
-15.435	81717.9
-15.430	81723.9
-15.425	81722.9
-15.420	81698.9
-15.415	81678.9
-15.410	81701.9
-15.405	81714.9
-15.400	81722.9
-15.395	81721.9
-15.390	81737.8
-15.385	81733.8
-15.380	81728.9
-15.375	81720.9
-15.370	81733.8
-15.365	81732.8
-15.360	81738.8
-15.355	81708.9
-15.350	81705.9
-15.345	81707.9
-15.340	81737.8
-15.335	81745.8
-15.330	81743.8
-15.325	81739.8
-15.320	81738.8
-15.315	81739.8
-15.310	81751.8
-15.305	81756.8
-15.300	81761.8
-15.295	81754.8
-15.290	81761.8
-15.285	81720.8
-15.280	81728.8
-15.275	81756.8
-15.270	81762.8
-15.265	81764.8
-15.260	81769.8
-15.255	81762.8
-15.250	81755.8
-15.245	81747.8
-15.240	81751.8
-15.235	81747.8
-15.230	81752.8
-15.225	81751.8
-15.220	81727.8
-15.215	81698.9
-15.210	81734.8
-15.205	81733.8
-15.200	81733.8
-15.195	81719.8
-15.190	81712.8
-15.185	81701.9
-15.180	81693.9
-15.175	81683.9
-15.170	81676.9
-15.165	81695.9
-15.160	81696.9
-15.155	81674.9
-15.150	81648.9
-15.145	81633.9
-15.140	81656.9
-15.135	81639.9
-15.130	81631.9
-15.125	81597.9
-15.120	81602.9
-15.115	81575.9
-15.110	81566.0
-15.105	81544.0
-15.100	81529.0
-15.095	81522.0
-15.090	81499.0
-15.085	81460.0
-15.080	81433.1
-15.075	81449.0
-15.070	81443.0
-15.065	81440.0
-15.060	81426.1
-15.055	81410.1
-15.050	81405.1
-15.045	81407.1
-15.040	81401.1
-15.035	81405.1
-15.030	81415.1
-15.025	81414.1
-15.020	81392.1
-15.015	81384.1
-15.010	81405.1
-15.005	81423.1
-15.000	81421.1
-14.995	81421.1
-14.990	81415.1
-14.985	81399.1
-14.980	81406.1
-14.975	81402.1
-14.970	81396.1
-14.965	81401.1
-14.960	81407.1
-14.955	81373.1
-14.950	81382.1
-14.945	81395.1
-14.940	81437.0
-14.935	81441.0
-14.930	81452.0
-14.925	81463.0
-14.920	81472.0
-14.915	81478.0
-14.910	81492.0
-14.905	81509.0
-14.900	81513.0
-14.895	81541.0
-14.890	81544.0
-14.885	81542.0
-14.880	81545.0
-14.875	81579.9
-14.870	81599.9
-14.865	81604.9
-14.860	81607.9
-14.855	81615.9
-14.850	81625.9
-14.845	81620.9
-14.840	81646.9
-14.835	81631.9
-14.830	81648.9
-14.825	81640.9
-14.820	81633.9
-14.815	81632.9
-14.810	81660.9
-14.805	81687.9
-14.800	81690.8
-14.795	81691.8
-14.790	81695.8
-14.785	81695.8
-14.780	81698.8
-14.775	81716.8
-14.770	81716.8
-14.765	81721.8
-14.760	81734.8
-14.755	81711.8
-14.750	81708.8
-14.745	81709.8
-14.740	81741.8
-14.735	81735.8
-14.730	81746.8
-14.725	81729.8
-14.720	81739.8
-14.715	81737.8
-14.710	81731.8
-14.705	81734.8
-14.700	81729.8
-14.695	81715.8
-14.690	81707.8
-14.685	81698.8
-14.680	81699.8
-14.675	81719.8
-14.670	81716.8
-14.665	81709.8
-14.660	81702.8
-14.655	81695.8
-14.650	81699.8
-14.645	81694.8
-14.640	81700.8
-14.635	81704.8
-14.630	81719.8
-14.625	81719.8
-14.620	81689.8
-14.615	81659.9
-14.610	81681.8
-14.605	81703.8
-14.600	81708.8
-14.595	81702.8
-14.590	81702.8
-14.585	81687.8
-14.580	81693.8
-14.575	81681.8
-14.570	81681.8
-14.565	81684.8
-14.560	81686.8
-14.555	81669.8
-14.550	81668.8
-14.545	81674.8
-14.540	81716.8
-14.535	81711.8
-14.530	81703.8
-14.525	81697.8
-14.520	81702.8
-14.515	81707.8
-14.510	81707.8
-14.505	81712.8
-14.500	81729.8
-14.495	81730.8
-14.490	81729.8
-14.485	81709.8
-14.480	81713.8
-14.475	81750.8
-14.470	81753.8
-14.465	81761.8
-14.460	81757.8
-14.455	81747.8
-14.450	81755.8
-14.445	81740.8
-14.440	81751.8
-14.435	81744.8
-14.430	81758.8
-14.425	81752.8
-14.420	81742.8
-14.415	81735.8
-14.410	81767.8
-14.405	81772.8
-14.400	81782.8
-14.395	81779.8
-14.390	81775.8
-14.385	81772.8
-14.380	81781.8
-14.375	81775.8
-14.370	81784.8
-14.365	81807.7
-14.360	81815.7
-14.355	81795.7
-14.350	81784.8
-14.345	81793.7
-14.340	81823.7
-14.335	81825.7
-14.330	81833.7
-14.325	81831.7
-14.320	81823.7
-14.315	81816.7
-14.310	81832.7
-14.305	81826.7
-14.300	81821.7
-14.295	81826.7
-14.290	81807.7
-14.285	81790.7
-14.280	81805.7
-14.275	81827.7
-14.270	81828.7
-14.265	81825.7
-14.260	81835.7
-14.255	81828.7
-14.250	81828.7
-14.245	81833.7
-14.240	81833.7
-14.235	81840.7
-14.230	81839.7
-14.225	81835.7
-14.220	81817.7
-14.215	81798.7
-14.210	81834.7
-14.205	81831.7
-14.200	81848.7
-14.195	81843.7
-14.190	81839.7
-14.185	81823.7
-14.180	81834.7
-14.175	81839.7
-14.170	81830.7
-14.165	81832.7
-14.160	81829.7
-14.155	81799.7
-14.150	81795.7
-14.145	81801.7
-14.140	81835.7
-14.135	81834.7
-14.130	81838.7
-14.125	81823.7
-14.120	81828.7
-14.115	81822.7
-14.110	81824.7
-14.105	81833.7
-14.100	81840.7
-14.095	81841.7
-14.090	81833.7
-14.085	81817.7
-14.080	81814.7
-14.075	81840.7
-14.070	81835.7
-14.065	81838.7
-14.060	81842.7
-14.055	81841.7
-14.050	81844.7
-14.045	81838.7
-14.040	81844.7
-14.035	81845.7
-14.030	81844.7
-14.025	81838.7
-14.020	81814.7
-14.015	81816.7
-14.010	81852.7
-14.005	81846.7
-14.000	81848.7
-13.995	81837.7
-13.990	81834.7
-13.985	81831.7
-13.980	81837.7
-13.975	81843.7
-13.970	81846.7
-13.965	81862.7
-13.960	81855.7
-13.955	81839.7
-13.950	81842.7
-13.945	81853.7
-13.940	81875.7
-13.935	81868.7
-13.930	81865.7
-13.925	81863.7
-13.920	81863.7
-13.915	81858.7
-13.910	81866.7
-13.905	81850.7
-13.900	81859.7
-13.895	81857.7
-13.890	81840.7
-13.885	81827.7
-13.880	81840.7
-13.875	81858.7
-13.870	81872.7
-13.865	81856.7
-13.860	81863.7
-13.855	81854.7
-13.850	81855.7
-13.845	81852.7
-13.840	81859.7
-13.835	81850.7
-13.830	81849.7
-13.825	81853.7
-13.820	81823.7
-13.815	81813.7
-13.810	81856.7
-13.805	81858.7
-13.800	81852.7
-13.795	81861.7
-13.790	81866.7
-13.785	81867.7
-13.780	81868.7
-13.775	81859.7
-13.770	81870.7
-13.765	81863.7
-13.760	81868.7
-13.755	81835.7
-13.750	81836.7
-13.745	81849.7
-13.740	81884.6
-13.735	81877.7
-13.730	81881.6
-13.725	81878.6
-13.720	81877.7
-13.715	81885.6
-13.710	81888.6
-13.705	81885.6
-13.700	81892.6
-13.695	81895.6
-13.690	81885.6
-13.685	81869.7
-13.680	81872.7
-13.675	81909.6
-13.670	81914.6
-13.665	81897.6
-13.660	81908.6
-13.655	81913.6
-13.650	81915.6
-13.645	81912.6
-13.640	81914.6
-13.635	81912.6
-13.630	81915.6
-13.625	81895.6
-13.620	81880.6
-13.615	81885.6
-13.610	81932.6
-13.605	81922.6
-13.600	81931.6
-13.595	81921.6
-13.590	81921.6
-13.585	81919.6
-13.580	81925.6
-13.575	81916.6
-13.570	81916.6
-13.565	81917.6
-13.560	81920.6
-13.555	81889.6
-13.550	81885.6
-13.545	81901.6
-13.540	81918.6
-13.535	81914.6
-13.530	81907.6
-13.525	81907.6
-13.520	81890.6
-13.515	81892.6
-13.510	81899.6
-13.505	81888.6
-13.500	81894.6
-13.495	81882.6
-13.490	81865.6
-13.485	81844.7
-13.480	81853.7
-13.475	81871.6
-13.470	81876.6
-13.465	81869.6
-13.460	81853.7
-13.455	81843.7
-13.450	81839.7
-13.445	81833.7
-13.440	81826.7
-13.435	81831.7
-13.430	81834.7
-13.425	81813.7
-13.420	81791.7
-13.415	81783.7
-13.410	81801.7
-13.405	81795.7
-13.400	81795.7
-13.395	81781.7
-13.390	81776.7
-13.385	81763.7
-13.380	81749.7
-13.375	81735.7
-13.370	81737.7
-13.365	81731.7
-13.360	81726.7
-13.355	81708.8
-13.350	81696.8
-13.345	81713.8
-13.340	81722.7
-13.335	81707.8
-13.330	81727.7
-13.325	81717.7
-13.320	81731.7
-13.315	81721.7
-13.310	81721.7
-13.305	81724.7
-13.300	81743.7
-13.295	81741.7
-13.290	81725.7
-13.285	81701.8
-13.280	81715.7
-13.275	81752.7
-13.270	81749.7
-13.265	81738.7
-13.260	81741.7
-13.255	81740.7
-13.250	81738.7
-13.245	81730.7
-13.240	81749.7
-13.235	81751.7
-13.230	81766.7
-13.225	81738.7
-13.220	81726.7
-13.215	81723.7
-13.210	81773.7
-13.205	81767.7
-13.200	81763.7
-13.195	81765.7
-13.190	81763.7
-13.185	81757.7
-13.180	81759.7
-13.175	81765.7
-13.170	81772.7
-13.165	81783.7
-13.160	81795.7
-13.155	81771.7
-13.150	81759.7
-13.145	81785.7
-13.140	81808.7
-13.135	81810.7
-13.130	81815.7
-13.125	81802.7
-13.120	81808.7
-13.115	81818.7
-13.110	81820.7
-13.105	81814.7
-13.100	81817.7
-13.095	81814.7
-13.090	81802.7
-13.085	81786.7
-13.080	81801.7
-13.075	81833.7
-13.070	81832.7
-13.065	81816.7
-13.060	81820.7
-13.055	81822.7
-13.050	81826.7
-13.045	81823.7
-13.040	81818.7
-13.035	81823.7
-13.030	81835.6
-13.025	81821.7
-13.020	81800.7
-13.015	81794.7
-13.010	81823.7
-13.005	81831.7
-13.000	81827.7
-12.995	81831.7
-12.990	81833.6
-12.985	81813.7
-12.980	81807.7
-12.975	81807.7
-12.970	81801.7
-12.965	81786.7
-12.960	81783.7
-12.955	81754.7
-12.950	81752.7
-12.945	81776.7
-12.940	81796.7
-12.935	81788.7
-12.930	81795.7
-12.925	81790.7
-12.920	81790.7
-12.915	81788.7
-12.910	81790.7
-12.905	81787.7
-12.900	81793.7
-12.895	81800.7
-12.890	81778.7
-12.885	81763.7
-12.880	81778.7
-12.875	81802.7
-12.870	81800.7
-12.865	81799.7
-12.860	81803.7
-12.855	81794.7
-12.850	81798.7
-12.845	81792.7
-12.840	81796.7
-12.835	81789.7
-12.830	81793.7
-12.825	81770.7
-12.820	81751.7
-12.815	81752.7
-12.810	81797.7
-12.805	81801.7
-12.800	81796.7
-12.795	81795.7
-12.790	81804.7
-12.785	81792.7
-12.780	81806.7
-12.775	81805.7
-12.770	81804.7
-12.765	81807.7
-12.760	81818.7
-12.755	81790.7
-12.750	81784.7
-12.745	81814.6
-12.740	81836.6
-12.735	81835.6
-12.730	81841.6
-12.725	81830.6
-12.720	81830.6
-12.715	81829.6
-12.710	81840.6
-12.705	81834.6
-12.700	81834.6
-12.695	81832.6
-12.690	81821.6
-12.685	81804.7
-12.680	81834.6
-12.675	81840.6
-12.670	81847.6
-12.665	81840.6
-12.660	81833.6
-12.655	81823.6
-12.650	81823.6
-12.645	81828.6
-12.640	81829.6
-12.635	81849.6
-12.630	81850.6
-12.625	81838.6
-12.620	81820.6
-12.615	81818.6
-12.610	81861.6
-12.605	81860.6
-12.600	81863.6
-12.595	81862.6
-12.590	81866.6
-12.585	81861.6
-12.580	81871.6
-12.575	81864.6
-12.570	81867.6
-12.565	81868.6
-12.560	81864.6
-12.555	81832.6
-12.550	81834.6
-12.545	81861.6
-12.540	81876.6
-12.535	81871.6
-12.530	81866.6
-12.525	81861.6
-12.520	81861.6
-12.515	81860.6
-12.510	81869.6
-12.505	81872.6
-12.500	81879.6
-12.495	81883.6
-12.490	81859.6
-12.485	81842.6
-12.480	81856.6
-12.475	81871.6
-12.470	81882.6
-12.465	81882.6
-12.460	81886.6
-12.455	81881.6
-12.450	81885.6
-12.445	81871.6
-12.440	81877.6
-12.435	81878.6
-12.430	81879.6
-12.425	81852.6
-12.420	81845.6
-12.415	81842.6
-12.410	81881.6
-12.405	81867.6
-12.400	81873.6
-12.395	81870.6
-12.390	81874.6
-12.385	81869.6
-12.380	81868.6
-12.375	81862.6
-12.370	81876.6
-12.365	81886.6
-12.360	81882.6
-12.355	81865.6
-12.350	81857.6
-12.345	81888.6
-12.340	81892.6
-12.335	81891.6
-12.330	81891.6
-12.325	81891.6
-12.320	81892.6
-12.315	81884.6
-12.310	81899.6
-12.305	81893.6
-12.300	81900.6
-12.295	81892.6
-12.290	81874.6
-12.285	81855.6
-12.280	81878.6
-12.275	81893.6
-12.270	81893.6
-12.265	81900.6
-12.260	81903.6
-12.255	81892.6
-12.250	81906.6
-12.245	81897.6
-12.240	81900.6
-12.235	81908.6
-12.230	81925.6
-12.225	81906.6
-12.220	81890.6
-12.215	81894.6
-12.210	81925.5
-12.205	81930.5
-12.200	81930.5
-12.195	81923.6
-12.190	81926.5
-12.185	81927.5
-12.180	81925.6
-12.175	81924.5
-12.170	81925.5
-12.165	81930.5
-12.160	81923.6
-12.155	81900.6
-12.150	81908.6
-12.145	81933.5
-12.140	81944.5
-12.135	81935.5
-12.130	81943.5
-12.125	81939.5
-12.120	81940.5
-12.115	81945.5
-12.110	81945.5
-12.105	81948.5
-12.100	81954.5
-12.095	81958.5
-12.090	81938.5
-12.085	81931.5
-12.080	81949.5
-12.075	81972.5
-12.070	81976.5
-12.065	81977.5
-12.060	81977.5
-12.055	81968.5
-12.050	81977.5
-12.045	81979.5
-12.040	81983.5
-12.035	81974.5
-12.030	81988.5
-12.025	81973.5
-12.020	81949.5
-12.015	81971.5
-12.010	81992.5
-12.005	81995.5
-12.000	81992.5
-11.995	81995.5
-11.990	81995.5
-11.985	81991.5
-11.980	82000.5
-11.975	81994.5
-11.970	81998.5
-11.965	82009.5
-11.960	82005.5
-11.955	81984.5
-11.950	81975.5
-11.945	82010.5
-11.940	82017.5
-11.935	82017.5
-11.930	82021.5
-11.925	82024.5
-11.920	82022.5
-11.915	82015.5
-11.910	82010.5
-11.905	82014.5
-11.900	82014.5
-11.895	82016.5
-11.890	81988.5
-11.885	81971.5
-11.880	82000.5
-11.875	82015.5
-11.870	82015.5
-11.865	82009.5
-11.860	82018.5
-11.855	82000.5
-11.850	82013.5
-11.845	82010.5
-11.840	82020.5
-11.835	82019.5
-11.830	82030.5
-11.825	82012.5
-11.820	81999.5
-11.815	82009.5
-11.810	82041.4
-11.805	82041.4
-11.800	82038.4
-11.795	82040.4
-11.790	82036.5
-11.785	82034.4
-11.780	82030.5
-11.775	82029.5
-11.770	82026.5
-11.765	82023.5
-11.760	82023.5
-11.755	81994.5
-11.750	81996.5
-11.745	82024.5
-11.740	82028.5
-11.735	82022.5
-11.730	82015.5
-11.725	82020.5
-11.720	82023.5
-11.715	82026.5
-11.710	82027.5
-11.705	82017.5
-11.700	82027.5
-11.695	82015.5
-11.690	81998.5
-11.685	81982.5
-11.680	82004.5
-11.675	82013.5
-11.670	82015.5
-11.665	82009.5
-11.660	82004.5
-11.655	82008.5
-11.650	82006.5
-11.645	82011.5
-11.640	82012.5
-11.635	82009.5
-11.630	82001.5
-11.625	81974.5
-11.620	81971.5
-11.615	81977.5
-11.610	82002.5
-11.605	81993.5
-11.600	81995.5
-11.595	81992.5
-11.590	81993.5
-11.585	81990.5
-11.580	81991.5
-11.575	81986.5
-11.570	81989.5
-11.565	81987.5
-11.560	81984.5
-11.555	81961.5
-11.550	81963.5
-11.545	81994.5
-11.540	82007.5
-11.535	81994.5
-11.530	82003.5
-11.525	81989.5
-11.520	81993.5
-11.515	81988.5
-11.510	81988.5
-11.505	81985.5
-11.500	81990.5
-11.495	81983.5
-11.490	81961.5
-11.485	81941.5
-11.480	81966.5
-11.475	81970.5
-11.470	81975.5
-11.465	81960.5
-11.460	81959.5
-11.455	81965.5
-11.450	81962.5
-11.445	81960.5
-11.440	81949.5
-11.435	81963.5
-11.430	81966.5
-11.425	81949.5
-11.420	81932.5
-11.415	81947.5
-11.410	81977.5
-11.405	81968.5
-11.400	81970.5
-11.395	81962.5
-11.390	81969.5
-11.385	81958.5
-11.380	81954.5
-11.375	81958.5
-11.370	81953.5
-11.365	81954.5
-11.360	81945.5
-11.355	81931.5
-11.350	81934.5
-11.345	81963.5
-11.340	81969.5
-11.335	81959.5
-11.330	81967.5
-11.325	81945.5
-11.320	81963.5
-11.315	81957.5
-11.310	81961.5
-11.305	81961.5
-11.300	81974.5
-11.295	81970.5
-11.290	81961.5
-11.285	81947.5
-11.280	81979.5
-11.275	81974.5
-11.270	81972.5
-11.265	81967.5
-11.260	81970.5
-11.255	81966.5
-11.250	81971.5
-11.245	81959.5
-11.240	81974.5
-11.235	81965.5
-11.230	81973.5
-11.225	81950.5
-11.220	81932.5
-11.215	81943.5
-11.210	81962.5
-11.205	81969.5
-11.200	81967.5
-11.195	81954.5
-11.190	81951.5
-11.185	81948.5
-11.180	81959.5
-11.175	81963.5
-11.170	81967.5
-11.165	81965.5
-11.160	81962.5
-11.155	81939.5
-11.150	81940.5
-11.145	81968.5
-11.140	81976.5
-11.135	81973.5
-11.130	81981.5
-11.125	81975.5
-11.120	81983.5
-11.115	81967.5
-11.110	81968.5
-11.105	81966.5
-11.100	81969.5
-11.095	81960.5
-11.090	81937.5
-11.085	81927.5
-11.080	81959.5
-11.075	81972.5
-11.070	81970.5
-11.065	81972.5
-11.060	81962.5
-11.055	81949.5
-11.050	81972.5
-11.045	81961.5
-11.040	81965.5
-11.035	81974.5
-11.030	81978.5
-11.025	81956.5
-11.020	81934.5
-11.015	81939.5
-11.010	81973.5
-11.005	81964.5
-11.000	81968.5
-10.995	81965.5
-10.990	81962.5
-10.985	81963.5
-10.980	81967.5
-10.975	81970.5
-10.970	81973.5
-10.965	81970.5
-10.960	81954.5
-10.955	81934.5
-10.950	81940.5
-10.945	81972.5
-10.940	81975.5
-10.935	81972.5
-10.930	81961.5
-10.925	81961.5
-10.920	81962.5
-10.915	81974.5
-10.910	81965.5
-10.905	81975.5
-10.900	81987.5
-10.895	81979.5
-10.890	81949.5
-10.885	81952.5
-10.880	81987.5
-10.875	81988.5
-10.870	82002.4
-10.865	81998.4
-10.860	82004.4
-10.855	82002.4
-10.850	81996.4
-10.845	82005.4
-10.840	81998.4
-10.835	81997.4
-10.830	82010.4
-10.825	81984.5
-10.820	81976.5
-10.815	82005.4
-10.810	82015.4
-10.805	82015.4
-10.800	82017.4
-10.795	82007.4
-10.790	82012.4
-10.785	82010.4
-10.780	82020.4
-10.775	82015.4
-10.770	82032.4
-10.765	82023.4
-10.760	82026.4
-10.755	82006.4
-10.750	82000.4
-10.745	82033.4
-10.740	82041.4
-10.735	82041.4
-10.730	82044.4
-10.725	82036.4
-10.720	82040.4
-10.715	82045.4
-10.710	82040.4
-10.705	82049.4
-10.700	82047.4
-10.695	82035.4
-10.690	82021.4
-10.685	82015.4
-10.680	82049.4
-10.675	82046.4
-10.670	82053.4
-10.665	82035.4
-10.660	82045.4
-10.655	82034.4
-10.650	82042.4
-10.645	82039.4
-10.640	82053.4
-10.635	82060.4
-10.630	82060.4
-10.625	82040.4
-10.620	82011.4
-10.615	82024.4
-10.610	82051.4
-10.605	82050.4
-10.600	82054.4
-10.595	82036.4
-10.590	82041.4
-10.585	82035.4
-10.580	82031.4
-10.575	82034.4
-10.570	82046.4
-10.565	82040.4
-10.560	82011.4
-10.555	81995.4
-10.550	82002.4
-10.545	82038.4
-10.540	82031.4
-10.535	82028.4
-10.530	82026.4
-10.525	82016.4
-10.520	82014.4
-10.515	82010.4
-10.510	82012.4
-10.505	82012.4
-10.500	82017.4
-10.495	82004.4
-10.490	81982.4
-10.485	81958.5
-10.480	82000.4
-10.475	81991.4
-10.470	82009.4
-10.465	82002.4
-10.460	82005.4
-10.455	81990.4
-10.450	81988.4
-10.445	81978.4
-10.440	81985.4
-10.435	81988.4
-10.430	81982.4
-10.425	81956.5
-10.420	81952.5
-10.415	81965.5
-10.410	81995.4
-10.405	81999.4
-10.400	82007.4
-10.395	81994.4
-10.390	81994.4
-10.385	81980.4
-10.380	81990.4
-10.375	81989.4
-10.370	82003.4
-10.365	81995.4
-10.360	81986.4
-10.355	81968.5
-10.350	81979.4
-10.345	82008.4
-10.340	82023.4
-10.335	82008.4
-10.330	82013.4
-10.325	82007.4
-10.320	81998.4
-10.315	81997.4
-10.310	81998.4
-10.305	81996.4
-10.300	81994.4
-10.295	81983.4
-10.290	81965.4
-10.285	81963.5
-10.280	81993.4
-10.275	81994.4
-10.270	81999.4
-10.265	81996.4
-10.260	81990.4
-10.255	81989.4
-10.250	81996.4
-10.245	81991.4
-10.240	82003.4
-10.235	82007.4
-10.230	82026.4
-10.225	82008.4
-10.220	81994.4
-10.215	82011.4
-10.210	82023.4
-10.205	82023.4
-10.200	82036.4
-10.195	82025.4
-10.190	82027.4
-10.185	82016.4
-10.180	82021.4
-10.175	82017.4
-10.170	82018.4
-10.165	82028.4
-10.160	81990.4
-10.155	81983.4
-10.150	81986.4
-10.145	82022.4
-10.140	82010.4
-10.135	82016.4
-10.130	82007.4
-10.125	82010.4
-10.120	82008.4
-10.115	82011.4
-10.110	82010.4
-10.105	82022.4
-10.100	82030.4
-10.095	82026.4
-10.090	82004.4
-10.085	81994.4
-10.080	82019.4
-10.075	82032.4
-10.070	82031.4
-10.065	82034.4
-10.060	82031.4
-10.055	82027.4
-10.050	82033.4
-10.045	82025.4
-10.040	82024.4
-10.035	82028.4
-10.030	82019.4
-10.025	82005.4
-10.020	81999.4
-10.015	82017.4
-10.010	82031.4
-10.005	82025.4
-10.000	82010.4
-9.995	82016.4
-9.990	82017.4
-9.985	82023.4
-9.980	82028.4
-9.975	82019.4
-9.970	82031.4
-9.965	82036.4
-9.960	82039.4
-9.955	82008.4
-9.950	82020.4
-9.945	82044.4
-9.940	82040.4
-9.935	82036.4
-9.930	82043.4
-9.925	82037.4
-9.920	82031.4
-9.915	82024.4
-9.910	82022.4
-9.905	82025.4
-9.900	82030.4
-9.895	82001.4
-9.890	81994.4
-9.885	81990.4
-9.880	82031.4
-9.875	82020.4
-9.870	82023.4
-9.865	82025.4
-9.860	82027.4
-9.855	82011.4
-9.850	82015.4
-9.845	82017.4
-9.840	82016.4
-9.835	82020.4
-9.830	82025.4
-9.825	81993.4
-9.820	81983.4
-9.815	82006.4
-9.810	82023.4
-9.805	82014.4
-9.800	82021.4
-9.795	82020.4
-9.790	82023.4
-9.785	82005.4
-9.780	81999.4
-9.775	82005.4
-9.770	82021.4
-9.765	82005.4
-9.760	81992.4
-9.755	81979.4
-9.750	82000.4
-9.745	82021.4
-9.740	82008.4
-9.735	82009.4
-9.730	82011.4
-9.725	82011.4
-9.720	82007.4
-9.715	82012.4
-9.710	82012.4
-9.705	82011.4
-9.700	82024.4
-9.695	82009.4
-9.690	81991.4
-9.685	81982.4
-9.680	82021.4
-9.675	82011.4
-9.670	82027.4
-9.665	82023.4
-9.660	82020.4
-9.655	82020.4
-9.650	82013.4
-9.645	82014.4
-9.640	82015.4
-9.635	82015.4
-9.630	82011.4
-9.625	81982.4
-9.620	81986.4
-9.615	82008.4
-9.610	82022.4
-9.605	82017.4
-9.600	82019.4
-9.595	82013.4
-9.590	82017.4
-9.585	82008.4
-9.580	82011.4
-9.575	82014.4
-9.570	82013.4
-9.565	82018.4
-9.560	81997.4
-9.555	81975.4
-9.550	81992.4
-9.545	82026.4
-9.540	82026.4
-9.535	82016.4
-9.530	82028.3
-9.525	82028.3
-9.520	82026.3
-9.515	82002.2
-9.510	82002.1
-9.505	81965.0
-9.500	81945.8
-9.495	81887.6
-9.490	81849.4
-9.485	81816.1
-9.480	81821.7
-9.475	81752.4
-9.470	81685.0
-9.465	81621.6
-9.460	81538.1
-9.455	81486.7
-9.450	81439.3
-9.445	81402.9
-9.440	81374.5
-9.435	81329.1
-9.430	81265.9
-9.425	81207.0
-9.420	81169.3
-9.415	81151.7
-9.410	81117.2
-9.405	81133.6
-9.400	81274.8
-9.395	81392.0
-9.390	81476.2
-9.385	81510.4
-9.380	81516.5
-9.375	81493.6
-9.370	81523.7
-9.365	81527.8
-9.360	81386.0
-9.355	81263.2
-9.350	81257.3
-9.345	81296.3
-9.340	81358.3
-9.335	81421.3
-9.330	81467.3
-9.325	81494.4
-9.320	81525.4
-9.315	81536.4
-9.310	81575.4
-9.305	81636.4
-9.300	81694.4
-9.295	81707.4
-9.290	81713.5
-9.285	81733.5
-9.280	81772.5
-9.275	81783.5
-9.270	81805.5
-9.265	81794.6
-9.260	81765.6
-9.255	81726.7
-9.250	81692.7
-9.245	81668.8
-9.240	81695.8
-9.235	81700.8
-9.230	81631.9
-9.225	81603.9
-9.220	81650.9
-9.215	81745.9
-9.210	81787.9
-9.205	81804.9
-9.200	81762.9
-9.195	81564.1
-9.190	81203.5
-9.185	80089.5
-9.180	78077.2
-9.175	76048.9
-9.170	75828.0
-9.165	77415.7
-9.160	79345.0
-9.155	80696.9
-9.150	81425.3
-9.145	81715.1
-9.140	81764.1
-9.135	81762.1
-9.130	81783.1
-9.125	81755.1
-9.120	81705.2
-9.115	81664.2
-9.110	81710.2
-9.105	81743.2
-9.100	81748.2
-9.095	81727.2
-9.090	81724.2
-9.085	81748.2
-9.080	81792.2
-9.075	81800.2
-9.070	81798.2
-9.065	81790.2
-9.060	81789.3
-9.055	81787.3
-9.050	81781.3
-9.045	81788.3
-9.040	81807.3
-9.035	81816.3
-9.030	81809.3
-9.025	81804.3
-9.020	81787.3
-9.015	81818.3
-9.010	81831.3
-9.005	81852.3
-9.000	81865.3
-8.995	81862.3
-8.990	81873.3
-8.985	81863.3
-8.980	81873.3
-8.975	81867.3
-8.970	81868.3
-8.965	81867.3
-8.960	81829.4
-8.955	81825.4
-8.950	81851.4
-8.945	81867.4
-8.940	81880.4
-8.935	81891.4
-8.930	81881.4
-8.925	81868.4
-8.920	81857.4
-8.915	81855.4
-8.910	81869.4
-8.905	81875.4
-8.900	81868.4
-8.895	81572.7
-8.890	80748.3
-8.885	80296.6
-8.880	81113.0
-8.875	81801.5
-8.870	81916.4
-8.865	81909.4
-8.860	81916.4
-8.855	81904.4
-8.850	81906.4
-8.845	81923.4
-8.840	81930.4
-8.835	81916.5
-8.830	81911.5
-8.825	81895.5
-8.820	81901.5
-8.815	81943.5
-8.810	81943.5
-8.805	81930.5
-8.800	81924.5
-8.795	81931.5
-8.790	81944.5
-8.785	81951.5
-8.780	81961.5
-8.775	81955.5
-8.770	81960.5
-8.765	81983.5
-8.760	81956.5
-8.755	81942.5
-8.750	81958.5
-8.745	81955.5
-8.740	81950.5
-8.735	81959.5
-8.730	81976.5
-8.725	81968.5
-8.720	81971.5
-8.715	81967.5
-8.710	81975.5
-8.705	81978.5
-8.700	81992.5
-8.695	81968.5
-8.690	81956.5
-8.685	81946.5
-8.680	81978.5
-8.675	81981.5
-8.670	81982.5
-8.665	81989.5
-8.660	81994.5
-8.655	81983.5
-8.650	81979.5
-8.645	81984.5
-8.640	81996.5
-8.635	82009.5
-8.630	82005.5
-8.625	81991.6
-8.620	81987.6
-8.615	82022.5
-8.610	82042.5
-8.605	82018.5
-8.600	82028.5
-8.595	82015.6
-8.590	82022.6
-8.585	82009.6
-8.580	82014.6
-8.575	82005.6
-8.570	82019.6
-8.565	82024.6
-8.560	82004.6
-8.555	81980.6
-8.550	82008.6
-8.545	82023.6
-8.540	82031.6
-8.535	82031.6
-8.530	82027.6
-8.525	82036.6
-8.520	82041.6
-8.515	82047.6
-8.510	82048.6
-8.505	82053.6
-8.500	82050.6
-8.495	82028.6
-8.490	82018.6
-8.485	82017.6
-8.480	82047.6
-8.475	82045.6
-8.470	82049.6
-8.465	82052.6
-8.460	82056.6
-8.455	82053.6
-8.450	82056.6
-8.445	82048.6
-8.440	82058.6
-8.435	82057.6
-8.430	82044.6
-8.425	82029.6
-8.420	82041.6
-8.415	82064.6
-8.410	82063.6
-8.405	82052.6
-8.400	82056.6
-8.395	82049.6
-8.390	82058.6
-8.385	82049.6
-8.380	82041.6
-8.375	82043.6
-8.370	82046.6
-8.365	82055.6
-8.360	82023.7
-8.355	82018.7
-8.350	82027.7
-8.345	82041.7
-8.340	82047.6
-8.335	82041.7
-8.330	82048.7
-8.325	82046.7
-8.320	82053.7
-8.315	82038.7
-8.310	82061.6
-8.305	82061.7
-8.300	82072.6
-8.295	82039.7
-8.290	82029.7
-8.285	82040.7
-8.280	82069.7
-8.275	82074.7
-8.270	82070.7
-8.265	82059.7
-8.260	82054.7
-8.255	82064.7
-8.250	82052.7
-8.245	82063.7
-8.240	82071.7
-8.235	82069.7
-8.230	82065.7
-8.225	82038.7
-8.220	82033.7
-8.215	82062.7
-8.210	82060.7
-8.205	82062.7
-8.200	82075.7
-8.195	82066.7
-8.190	82065.7
-8.185	82066.7
-8.180	82052.7
-8.175	82055.7
-8.170	82058.7
-8.165	82062.7
-8.160	82034.7
-8.155	82025.7
-8.150	82051.7
-8.145	82060.7
-8.140	82057.7
-8.135	82051.7
-8.130	82056.7
-8.125	82047.7
-8.120	82054.7
-8.115	82045.7
-8.110	82056.7
-8.105	82053.7
-8.100	82047.7
-8.095	82035.7
-8.090	82012.8
-8.085	82025.8
-8.080	82037.7
-8.075	82031.8
-8.070	82035.7
-8.065	82044.7
-8.060	82046.7
-8.055	82035.7
-8.050	82034.8
-8.045	82027.8
-8.040	82029.8
-8.035	82032.8
-8.030	82013.8
-8.025	81999.8
-8.020	82001.8
-8.015	82035.8
-8.010	82040.8
-8.005	82025.8
-8.000	82024.8
-7.995	82023.8
-7.990	82019.8
-7.985	82015.8
-7.980	82016.8
-7.975	82021.8
-7.970	82029.8
-7.965	82025.8
-7.960	82002.8
-7.955	81988.8
-7.950	82017.8
-7.945	82021.8
-7.940	82018.8
-7.935	82019.8
-7.930	82017.8
-7.925	82022.8
-7.920	82024.8
-7.915	82022.8
-7.910	82014.8
-7.905	82006.8
-7.900	82015.8
-7.895	81981.8
-7.890	81988.8
-7.885	81997.8
-7.880	82023.8
-7.875	82016.8
-7.870	82014.8
-7.865	82010.8
-7.860	82006.8
-7.855	82002.8
-7.850	82008.8
-7.845	82008.8
-7.840	82020.8
-7.835	82024.8
-7.830	82021.8
-7.825	82001.8
-7.820	81998.8
-7.815	82036.8
-7.810	82035.8
-7.805	82033.8
-7.800	82032.8
-7.795	82024.8
-7.790	82022.8
-7.785	82016.8
-7.780	82024.8
-7.775	82017.8
-7.770	82027.8
-7.765	82022.8
-7.760	81998.8
-7.755	81984.9
-7.750	82030.8
-7.745	82035.8
-7.740	82039.8
-7.735	82031.8
-7.730	82037.8
-7.725	82033.8
-7.720	82030.8
-7.715	82021.8
-7.710	82033.8
-7.705	82039.8
-7.700	82048.8
-7.695	82023.8
-7.690	82013.8
-7.685	82023.8
-7.680	82043.8
-7.675	82052.8
-7.670	82044.8
-7.665	82048.8
-7.660	82041.8
-7.655	82050.8
-7.650	82044.8
-7.645	82036.8
-7.640	82046.8
-7.635	82050.8
-7.630	82024.8
-7.625	82002.9
-7.620	82017.9
-7.615	82042.8
-7.610	82045.8
-7.605	82044.8
-7.600	82045.8
-7.595	82030.8
-7.590	82031.8
-7.585	82027.9
-7.580	82034.9
-7.575	82034.9
-7.570	82042.8
-7.565	82035.9
-7.560	82020.9
-7.555	82013.9
-7.550	82040.9
-7.545	82035.9
-7.540	82042.9
-7.535	82023.9
-7.530	82039.9
-7.525	82041.9
-7.520	82038.9
-7.515	82036.9
-7.510	82035.9
-7.505	82031.9
-7.500	82038.9
-7.495	82006.9
-7.490	82000.9
-7.485	82016.9
-7.480	82045.9
-7.475	82039.9
-7.470	82044.9
-7.465	82039.9
-7.460	82032.9
-7.455	82029.9
-7.450	82033.9
-7.445	82037.9
-7.440	82035.9
-7.435	82038.9
-7.430	82030.9
-7.425	82008.9
-7.420	82017.9
-7.415	82047.9
-7.410	82046.9
-7.405	82044.9
-7.400	82040.9
-7.395	82035.9
-7.390	82043.9
-7.385	82043.9
-7.380	82044.9
-7.375	82046.9
-7.370	82038.9
-7.365	82029.9
-7.360	82007.9
-7.355	82006.9
-7.350	82038.9
-7.345	82048.9
-7.340	82043.9
-7.335	82028.9
-7.330	82042.9
-7.325	82037.9
-7.320	82028.9
-7.315	82035.9
-7.310	82048.9
-7.305	82054.9
-7.300	82064.9
-7.295	82034.9
-7.290	82023.9
-7.285	82046.9
-7.280	82070.9
-7.275	82078.9
-7.270	82076.9
-7.265	82076.9
-7.260	82071.9
-7.255	82066.9
-7.250	82067.9
-7.245	82081.9
-7.240	82091.9
-7.235	82081.9
-7.230	82062.9
-7.225	82046.9
-7.220	82064.9
-7.215	82077.9
-7.210	82086.9
-7.205	82078.9
-7.200	82083.9
-7.195	82074.9
-7.190	82075.9
-7.185	82080.9
-7.180	82075.9
-7.175	82088.9
-7.170	82093.9
-7.165	82093.9
-7.160	82071.9
-7.155	82061.9
-7.150	82091.9
-7.145	82104.9
-7.140	82105.9
-7.135	82098.9
-7.130	82104.9
-7.125	82102.9
-7.120	82109.9
-7.115	82103.9
-7.110	82116.9
-7.105	82123.8
-7.100	82124.9
-7.095	82099.9
-7.090	82088.9
-7.085	82112.9
-7.080	82132.8
-7.075	82129.8
-7.070	82129.8
-7.065	82114.9
-7.060	82123.9
-7.055	82136.8
-7.050	82129.9
-7.045	82132.8
-7.040	82140.8
-7.035	82139.8
-7.030	82123.9
-7.025	82104.9
-7.020	82112.9
-7.015	82142.8
-7.010	82146.8
-7.005	82146.8
-7.000	82144.8
-6.995	82137.9
-6.990	82134.9
-6.985	82122.9
-6.980	82131.9
-6.975	82127.9
-6.970	82132.9
-6.965	82122.9
-6.960	82091.9
-6.955	82100.9
-6.950	82121.9
-6.945	82124.9
-6.940	82131.9
-6.935	82120.9
-6.930	82120.9
-6.925	82122.9
-6.920	82125.9
-6.915	82123.9
-6.910	82126.9
-6.905	82134.9
-6.900	82136.9
-6.895	82106.9
-6.890	82099.9
-6.885	82119.9
-6.880	82137.9
-6.875	82137.9
-6.870	82127.9
-6.865	82137.9
-6.860	82127.9
-6.855	82124.9
-6.850	82114.9
-6.845	82117.9
-6.840	82118.9
-6.835	82116.9
-6.830	82083.9
-6.825	82090.9
-6.820	82101.9
-6.815	82126.9
-6.810	82112.9
-6.805	82109.9
-6.800	82115.9
-6.795	82108.9
-6.790	82103.9
-6.785	82101.9
-6.780	82101.9
-6.775	82103.9
-6.770	82108.9
-6.765	82099.9
-6.760	82069.9
-6.755	82073.9
-6.750	82109.9
-6.745	82100.9
-6.740	82098.9
-6.735	82098.9
-6.730	82083.9
-6.725	82079.9
-6.720	82068.9
-6.715	82067.9
-6.710	82056.9
-6.705	82033.9
-6.700	82024.9
-6.695	81985.0
-6.690	81962.0
-6.685	81985.0
-6.680	81976.0
-6.675	81960.0
-6.670	81942.0
-6.665	81912.0
-6.660	81884.1
-6.655	81841.1
-6.650	81811.1
-6.645	81790.1
-6.640	81783.1
-6.635	81781.1
-6.630	81751.2
-6.625	81688.2
-6.620	81632.3
-6.615	81590.3
-6.610	81591.3
-6.605	81574.3
-6.600	81538.3
-6.595	81487.4
-6.590	81493.4
-6.585	81559.3
-6.580	81636.3
-6.575	81682.2
-6.570	81705.2
-6.565	81724.2
-6.560	81737.2
-6.555	81803.1
-6.550	81878.1
-6.545	81910.1
-6.540	81929.0
-6.535	81938.0
-6.530	81957.0
-6.525	81960.0
-6.520	81978.0
-6.515	81977.0
-6.510	81988.0
-6.505	81983.0
-6.500	81998.0
-6.495	81971.0
-6.490	81967.0
-6.485	81979.0
-6.480	81990.0
-6.475	81988.0
-6.470	81995.0
-6.465	81994.0
-6.460	81994.0
-6.455	81992.0
-6.450	81986.0
-6.445	81974.0
-6.440	81978.0
-6.435	81986.0
-6.430	81965.0
-6.425	81945.0
-6.420	81957.0
-6.415	81989.0
-6.410	81990.0
-6.405	81976.0
-6.400	81963.0
-6.395	81962.0
-6.390	81970.0
-6.385	81954.0
-6.380	81951.0
-6.375	81955.0
-6.370	81969.0
-6.365	81955.0
-6.360	81930.0
-6.355	81920.1
-6.350	81981.0
-6.345	81986.0
-6.340	81989.0
-6.335	81970.0
-6.330	81962.0
-6.325	81965.0
-6.320	81978.0
-6.315	81975.0
-6.310	81976.0
-6.305	81979.0
-6.300	81973.0
-6.295	81949.0
-6.290	81949.0
-6.285	81990.0
-6.280	82002.0
-6.275	81991.0
-6.270	81995.0
-6.265	81983.0
-6.260	81987.0
-6.255	81989.0
-6.250	81998.0
-6.245	82004.0
-6.240	82014.0
-6.235	82020.0
-6.230	82008.0
-6.225	81986.0
-6.220	82010.0
-6.215	82025.0
-6.210	82034.0
-6.205	82035.0
-6.200	82026.0
-6.195	82023.0
-6.190	82027.0
-6.185	82030.0
-6.180	82035.0
-6.175	82038.0
-6.170	82027.0
-6.165	82004.0
-6.160	81986.0
-6.155	81998.0
-6.150	82024.0
-6.145	82032.0
-6.140	82030.0
-6.135	82022.0
-6.130	82030.0
-6.125	82019.0
-6.120	82021.0
-6.115	82017.0
-6.110	82014.0
-6.105	82021.0
-6.100	82030.0
-6.095	82001.0
-6.090	81986.0
-6.085	82014.0
-6.080	82033.0
-6.075	82033.0
-6.070	82031.0
-6.065	82028.0
-6.060	82029.0
-6.055	82015.0
-6.050	82019.0
-6.045	82017.0
-6.040	82027.0
-6.035	82015.0
-6.030	81998.0
-6.025	81991.0
-6.020	82007.0
-6.015	82025.0
-6.010	82012.0
-6.005	82015.0
-6.000	82008.0
-5.995	82016.0
-5.990	82011.0
-5.985	82013.0
-5.980	82012.0
-5.975	82008.0
-5.970	82022.0
-5.965	82008.0
-5.960	81993.0
-5.955	81994.0
-5.950	82029.0
-5.945	82021.0
-5.940	82018.0
-5.935	82014.0
-5.930	82012.0
-5.925	82006.0
-5.920	81997.0
-5.915	82010.0
-5.910	82008.0
-5.905	82005.0
-5.900	81997.0
-5.895	81969.1
-5.890	81960.1
-5.885	81995.0
-5.880	82002.0
-5.875	81988.0
-5.870	81989.1
-5.865	81997.0
-5.860	81987.1
-5.855	81985.1
-5.850	81998.0
-5.845	81990.1
-5.840	81997.0
-5.835	81981.1
-5.830	81972.1
-5.825	81944.1
-5.820	81969.1
-5.815	81991.1
-5.810	81999.0
-5.805	81991.1
-5.800	81991.1
-5.795	81986.1
-5.790	81987.0
-5.785	81982.1
-5.780	81979.0
-5.775	81985.0
-5.770	81991.0
-5.765	81962.0
-5.760	81944.0
-5.755	81954.0
-5.750	81986.0
-5.745	81980.0
-5.740	81971.0
-5.735	81976.0
-5.730	81983.0
-5.725	81988.9
-5.720	81998.9
-5.715	81997.9
-5.710	82008.9
-5.705	82005.9
-5.700	82013.9
-5.695	81995.9
-5.690	82000.9
-5.685	82029.9
-5.680	82040.9
-5.675	82040.9
-5.670	82052.9
-5.665	82057.9
-5.660	82051.9
-5.655	82044.9
-5.650	82042.0
-5.645	82050.0
-5.640	82033.0
-5.635	82021.0
-5.630	82004.0
-5.625	81984.1
-5.620	82007.0
-5.615	82031.0
-5.610	82022.0
-5.605	82013.1
-5.600	82012.1
-5.595	82000.1
-5.590	82003.1
-5.585	82007.1
-5.580	82007.1
-5.575	82012.1
-5.570	82009.1
-5.565	81995.1
-5.560	81980.1
-5.555	81981.1
-5.550	82007.1
-5.545	82010.1
-5.540	82008.1
-5.535	82003.1
-5.530	82010.1
-5.525	81995.1
-5.520	81990.1
-5.515	81982.1
-5.510	81989.1
-5.505	81981.1
-5.500	81966.1
-5.495	81941.1
-5.490	81947.1
-5.485	81974.1
-5.480	81974.1
-5.475	81965.1
-5.470	81966.1
-5.465	81960.1
-5.460	81960.1
-5.455	81963.1
-5.450	81958.1
-5.445	81949.1
-5.440	81946.1
-5.435	81931.2
-5.430	81874.3
-5.425	81833.4
-5.420	81827.6
-5.415	81787.8
-5.410	81692.2
-5.405	81576.7
-5.400	81508.1
-5.395	81395.6
-5.390	81277.3
-5.385	81183.9
-5.380	81062.6
-5.375	80904.4
-5.370	80791.1
-5.365	80717.8
-5.360	80641.5
-5.355	80524.2
-5.350	80450.9
-5.345	80474.3
-5.340	80661.2
-5.335	80905.8
-5.330	81096.2
-5.325	81239.6
-5.320	81374.1
-5.315	81490.6
-5.310	81578.2
-5.305	81647.9
-5.300	81687.6
-5.295	81687.4
-5.290	81724.2
-5.285	81772.0
-5.280	81798.8
-5.275	81811.7
-5.270	81798.6
-5.265	81779.5
-5.260	81779.4
-5.255	81795.3
-5.250	81801.2
-5.245	81832.1
-5.240	81833.0
-5.235	81828.9
-5.230	81814.9
-5.225	81807.8
-5.220	81830.7
-5.215	81834.6
-5.210	81833.6
-5.205	81830.5
-5.200	81846.5
-5.195	81866.4
-5.190	81894.4
-5.185	81916.3
-5.180	81929.2
-5.175	81936.1
-5.170	81940.1
-5.165	81935.0
-5.160	81932.0
-5.155	81933.0
-5.150	81950.9
-5.145	81935.9
-5.140	81941.9
-5.135	81951.8
-5.130	81964.8
-5.125	81988.7
-5.120	81999.7
-5.115	82017.7
-5.110	82011.6
-5.105	82011.6
-5.100	81989.6
-5.095	81976.6
-5.090	81982.6
-5.085	82030.5
-5.080	82036.5
-5.075	82032.5
-5.070	82039.5
-5.065	82033.4
-5.060	82018.4
-5.055	82020.4
-5.050	82021.4
-5.045	82019.4
-5.040	82034.3
-5.035	82040.3
-5.030	82023.3
-5.025	82019.3
-5.020	82067.2
-5.015	82093.2
-5.010	82115.2
-5.005	82105.1
-5.000	82093.1
-4.995	82090.1
-4.990	82084.1
-4.985	82074.1
-4.980	82085.1
-4.975	82097.1
-4.970	82111.0
-4.965	82094.0
-4.960	82091.0
-4.955	82099.0
-4.950	82125.9
-4.945	82134.9
-4.940	82126.9
-4.935	82127.9
-4.930	82136.9
-4.925	82140.9
-4.920	82153.9
-4.915	82155.8
-4.910	82167.8
-4.905	82168.8
-4.900	82159.8
-4.895	82145.8
-4.890	82142.8
-4.885	82166.8
-4.880	82177.8
-4.875	82181.8
-4.870	82183.7
-4.865	82170.8
-4.860	82175.7
-4.855	82176.7
-4.850	82184.7
-4.845	82184.7
-4.840	82168.7
-4.835	82156.7
-4.830	82127.7
-4.825	82124.7
-4.820	82148.7
-4.815	82153.7
-4.810	82145.7
-4.805	82135.7
-4.800	82133.6
-4.795	82127.6
-4.790	82145.6
-4.785	82145.6
-4.780	82149.6
-4.775	82148.6
-4.770	82133.6
-4.765	82100.6
-4.760	82072.6
-4.755	82073.6
-4.750	82109.6
-4.745	82106.6
-4.740	82104.6
-4.735	82081.6
-4.730	82063.6
-4.725	82056.6
-4.720	82049.6
-4.715	82041.6
-4.710	82033.6
-4.705	82015.6
-4.700	81975.6
-4.695	81948.7
-4.690	81949.7
-4.685	81971.6
-4.680	81952.6
-4.675	81935.6
-4.670	81934.6
-4.665	81920.6
-4.660	81925.6
-4.655	81918.6
-4.650	81921.6
-4.645	81933.6
-4.640	81947.6
-4.635	81920.6
-4.630	81895.6
-4.625	81885.6
-4.620	81943.5
-4.615	81979.5
-4.610	81994.5
-4.605	81994.5
-4.600	82000.5
-4.595	82025.4
-4.590	82028.4
-4.585	82017.4
-4.580	82040.4
-4.575	82052.4
-4.570	82060.4
-4.565	82057.4
-4.560	82043.4
-4.555	82074.4
-4.550	82110.4
-4.545	82112.4
-4.540	82106.4
-4.535	82099.4
-4.530	82106.3
-4.525	82119.3
-4.520	82118.3
-4.515	82123.3
-4.510	82141.3
-4.505	82148.3
-4.500	82148.3
-4.495	82117.3
-4.490	82113.3
-4.485	82136.2
-4.480	82143.2
-4.475	82145.2
-4.470	82158.2
-4.465	82151.2
-4.460	82170.2
-4.455	82157.2
-4.450	82175.2
-4.445	82166.2
-4.440	82173.2
-4.435	82162.2
-4.430	82150.2
-4.425	82140.2
-4.420	82167.2
-4.415	82160.2
-4.410	82141.2
-4.405	82155.2
-4.400	82146.2
-4.395	82152.2
-4.390	82164.2
-4.385	82168.2
-4.380	82167.2
-4.375	82178.1
-4.370	82185.1
-4.365	82156.1
-4.360	82140.2
-4.355	82150.1
-4.350	82186.1
-4.345	82172.1
-4.340	82175.1
-4.335	82182.1
-4.330	82184.1
-4.325	82173.1
-4.320	82173.1
-4.315	82179.1
-4.310	82182.1
-4.305	82187.1
-4.300	82165.1
-4.295	82149.1
-4.290	82167.1
-4.285	82178.1
-4.280	82174.1
-4.275	82163.1
-4.270	82163.1
-4.265	82159.1
-4.260	82161.1
-4.255	82157.1
-4.250	82165.0
-4.245	82167.0
-4.240	82209.0
-4.235	82255.0
-4.230	82262.0
-4.225	82217.0
-4.220	82200.0
-4.215	82176.0
-4.210	82170.0
-4.205	82168.1
-4.200	82165.1
-4.195	82157.1
-4.190	82154.0
-4.185	82149.0
-4.180	82150.0
-4.175	82158.0
-4.170	82171.0
-4.165	82137.0
-4.160	82131.0
-4.155	82130.0
-4.150	82142.0
-4.145	82138.9
-4.140	82127.9
-4.135	82119.8
-4.130	82109.7
-4.125	82096.6
-4.120	82097.4
-4.115	82080.1
-4.110	82053.8
-4.105	82034.4
-4.100	81990.0
-4.095	81915.5
-4.090	81871.0
-4.085	81830.4
-4.080	81766.8
-4.075	81716.1
-4.070	81680.4
-4.065	81617.8
-4.060	81524.2
-4.055	81410.7
-4.050	81383.2
-4.045	81450.8
-4.040	81536.6
-4.035	81569.7
-4.030	81565.0
-4.025	81637.3
-4.020	81767.7
-4.015	81846.1
-4.010	81930.5
-4.005	81996.8
-4.000	82070.0
-3.995	82112.3
-3.990	82138.5
-3.985	82167.6
-3.980	82174.8
-3.975	82155.0
-3.970	82144.1
-3.965	82122.3
-3.960	82106.4
-3.955	82101.5
-3.950	82089.6
-3.945	82106.7
-3.940	82090.8
-3.935	82073.9
-3.930	82057.0
-3.925	82052.0
-3.920	82067.1
-3.915	82031.2
-3.910	82004.3
-3.905	82005.3
-3.900	82011.4
-3.895	81997.4
-3.890	81965.5
-3.885	81963.5
-3.880	81945.6
-3.875	81945.7
-3.870	81969.7
-3.865	81971.7
-3.860	81966.8
-3.855	81957.8
-3.850	81926.9
-3.845	81923.9
-3.840	81906.0
-3.835	81889.0
-3.830	81879.1
-3.825	81868.1
-3.820	81921.1
-3.815	81928.1
-3.810	81948.1
-3.805	81947.2
-3.800	81958.2
-3.795	81961.2
-3.790	81951.3
-3.785	81948.3
-3.780	81956.3
-3.775	81961.3
-3.770	81960.3
-3.765	81943.4
-3.760	81948.4
-3.755	81985.4
-3.750	81999.4
-3.745	82001.4
-3.740	82004.4
-3.735	82007.5
-3.730	81996.5
-3.725	81977.5
-3.720	81958.6
-3.715	81954.6
-3.710	81955.6
-3.705	81956.6
-3.700	81952.6
-3.695	81926.7
-3.690	81948.7
-3.685	81974.7
-3.680	81980.7
-3.675	81980.7
-3.670	81971.7
-3.665	81951.7
-3.660	81942.8
-3.655	81926.8
-3.650	81922.8
-3.645	81918.8
-3.640	81919.8
-3.635	81890.9
-3.630	81869.9
-3.625	81853.9
-3.620	81867.9
-3.615	81866.9
-3.610	81860.0
-3.605	81863.0
-3.600	81858.0
-3.595	81840.0
-3.590	81834.1
-3.585	81815.1
-3.580	81795.1
-3.575	81773.2
-3.570	81758.2
-3.565	81724.3
-3.560	81695.3
-3.555	81706.4
-3.550	81720.4
-3.545	81718.5
-3.540	81716.5
-3.535	81738.5
-3.530	81810.6
-3.525	81892.6
-3.520	81976.6
-3.515	82035.6
-3.510	82036.7
-3.505	82009.8
-3.500	81975.8
-3.495	81930.0
-3.490	81947.0
-3.485	81981.0
-3.480	81993.1
-3.475	81998.1
-3.470	82004.2
-3.465	81990.2
-3.460	81991.3
-3.455	81989.3
-3.450	81992.3
-3.445	81996.3
-3.440	81996.3
-3.435	81970.3
-3.430	81956.3
-3.425	81980.3
-3.420	82021.3
-3.415	82053.3
-3.410	82042.3
-3.405	82007.3
-3.400	81975.4
-3.395	81977.5
-3.390	81993.5
-3.385	82041.6
-3.380	82060.6
-3.375	82066.7
-3.370	82059.8
-3.365	82026.0
-3.360	82027.1
-3.355	82074.2
-3.350	82107.3
-3.345	82096.4
-3.340	82072.5
-3.335	82056.5
-3.330	82044.5
-3.325	82028.5
-3.320	82023.4
-3.315	82035.3
-3.310	82068.3
-3.305	82086.2
-3.300	82078.2
-3.295	82042.2
-3.290	82040.2
-3.285	82061.2
-3.280	82063.1
-3.275	82074.1
-3.270	82074.1
-3.265	82067.1
-3.260	82081.1
-3.255	82063.1
-3.250	82074.1
-3.245	82059.1
-3.240	82063.1
-3.235	82038.2
-3.230	82042.2
-3.225	82048.2
-3.220	82078.1
-3.215	82047.2
-3.210	82030.2
-3.205	82029.2
-3.200	82028.2
-3.195	82029.2
-3.190	82045.2
-3.185	82039.3
-3.180	82034.3
-3.175	82043.3
-3.170	82038.3
-3.165	82028.3
-3.160	82017.3
-3.155	82049.3
-3.150	82062.3
-3.145	82051.3
-3.140	82051.3
-3.135	82059.3
-3.130	82062.3
-3.125	82053.4
-3.120	82041.4
-3.115	82046.4
-3.110	82039.4
-3.105	82027.4
-3.100	82017.4
-3.095	82006.4
-3.090	82030.4
-3.085	82066.4
-3.080	82063.4
-3.075	82055.4
-3.070	82060.5
-3.065	82040.5
-3.060	82036.5
-3.055	82039.5
-3.050	82046.5
-3.045	82059.5
-3.040	82047.5
-3.035	82035.5
-3.030	82032.5
-3.025	82038.5
-3.020	82078.5
-3.015	82072.5
-3.010	82063.6
-3.005	82052.6
-3.000	82046.6
-2.995	82033.6
-2.990	82038.6
-2.985	82049.6
-2.980	82051.6
-2.975	82049.6
-2.970	82056.6
-2.965	82041.6
-2.960	82038.7
-2.955	82055.7
-2.950	82048.7
-2.945	82032.7
-2.940	82011.7
-2.935	82019.7
-2.930	82031.7
-2.925	82018.7
-2.920	82007.8
-2.915	82004.8
-2.910	82034.8
-2.905	82050.8
-2.900	82038.8
-2.895	82017.8
-2.890	82017.8
-2.885	82041.8
-2.880	82069.8
-2.875	82069.8
-2.870	82088.8
-2.865	82070.8
-2.860	82063.9
-2.855	82041.9
-2.850	82043.9
-2.845	82030.9
-2.840	82037.9
-2.835	82010.9
-2.830	81992.9
-2.825	81998.9
-2.820	82048.9
-2.815	82034.9
-2.810	82040.9
-2.805	82037.9
-2.800	82047.9
-2.795	82039.9
-2.790	82029.9
-2.785	82025.9
-2.780	82038.9
-2.775	82057.9
-2.770	82060.9
-2.765	82033.9
-2.760	82024.0
-2.755	82057.9
-2.750	82070.0
-2.745	82063.0
-2.740	82067.0
-2.735	82075.0
-2.730	82082.0
-2.725	82072.0
-2.720	82059.0
-2.715	82051.0
-2.710	82044.0
-2.705	82027.1
-2.700	81984.1
-2.695	81951.1
-2.690	81981.1
-2.685	82016.1
-2.680	82039.1
-2.675	82044.1
-2.670	82057.1
-2.665	82058.1
-2.660	82048.1
-2.655	82035.1
-2.650	82042.1
-2.645	82053.1
-2.640	82068.1
-2.635	82055.2
-2.630	82044.2
-2.625	82046.2
-2.620	82066.2
-2.615	82038.2
-2.610	82037.2
-2.605	82020.2
-2.600	82018.2
-2.595	82008.2
-2.590	82002.2
-2.585	81997.2
-2.580	82000.2
-2.575	82001.2
-2.570	81989.2
-2.565	81945.2
-2.560	81951.2
-2.555	81995.2
-2.550	82021.2
-2.545	82023.2
-2.540	82015.2
-2.535	81996.2
-2.530	81987.2
-2.525	81983.3
-2.520	81983.3
-2.515	81987.3
-2.510	81982.3
-2.505	81986.3
-2.500	81963.3
-2.495	81944.3
-2.490	81978.3
-2.485	82012.3
-2.480	82035.3
-2.475	82021.3
-2.470	82001.3
-2.465	81973.3
-2.460	81974.3
-2.455	81967.3
-2.450	81967.3
-2.445	81963.3
-2.440	81970.3
-2.435	81954.3
-2.430	81930.3
-2.425	81918.3
-2.420	81950.3
-2.415	81964.3
-2.410	81995.3
-2.405	82005.3
-2.400	82000.3
-2.395	81990.3
-2.390	81991.3
-2.385	81998.3
-2.380	81998.4
-2.375	81988.4
-2.370	81980.4
-2.365	81966.4
-2.360	81961.4
-2.355	82004.4
-2.350	82009.4
-2.345	81999.4
-2.340	81990.4
-2.335	81980.4
-2.330	81987.4
-2.325	81982.4
-2.320	81976.4
-2.315	81954.4
-2.310	81956.4
-2.305	81949.4
-2.300	81945.4
-2.295	81943.4
-2.290	81973.4
-2.285	81987.3
-2.280	81999.3
-2.275	82015.3
-2.270	82032.3
-2.265	82042.3
-2.260	82039.3
-2.255	82040.3
-2.250	82053.3
-2.245	82052.3
-2.240	82053.3
-2.235	82020.4
-2.230	81998.4
-2.225	82015.4
-2.220	82065.3
-2.215	82093.3
-2.210	82099.3
-2.205	82094.3
-2.200	82086.4
-2.195	82076.4
-2.190	82074.4
-2.185	82062.4
-2.180	82060.4
-2.175	82050.4
-2.170	82025.4
-2.165	81995.4
-2.160	82012.3
-2.155	82052.3
-2.150	82058.3
-2.145	82042.3
-2.140	82037.3
-2.135	82037.3
-2.130	82059.3
-2.125	82074.3
-2.120	82099.3
-2.115	82108.3
-2.110	82116.3
-2.105	82113.3
-2.100	82088.3
-2.095	82058.4
-2.090	82062.4
-2.085	82075.4
-2.080	82071.4
-2.075	82064.4
-2.070	82066.4
-2.065	82069.4
-2.060	82069.4
-2.055	82071.4
-2.050	82074.4
-2.045	82068.4
-2.040	82078.4
-2.035	82054.4
-2.030	82036.4
-2.025	82039.4
-2.020	82072.4
-2.015	82068.3
-2.010	82076.3
-2.005	82079.3
-2.000	82075.3
-1.995	82064.3
-1.990	82058.3
-1.985	82065.3
-1.980	82064.3
-1.975	82078.3
-1.970	82082.3
-1.965	82061.3
-1.960	82042.3
-1.955	82055.3
-1.950	82051.3
-1.945	82060.3
-1.940	82073.3
-1.935	82064.3
-1.930	82058.3
-1.925	82055.3
-1.920	82043.3
-1.915	82043.3
-1.910	82053.3
-1.905	82039.3
-1.900	82017.3
-1.895	82001.3
-1.890	82030.3
-1.885	82027.3
-1.880	82035.3
-1.875	82033.3
-1.870	82032.3
-1.865	82021.3
-1.860	82020.3
-1.855	82021.3
-1.850	82024.3
-1.845	82025.3
-1.840	82034.3
-1.835	82025.3
-1.830	82009.3
-1.825	82014.3
-1.820	82047.2
-1.815	82049.2
-1.810	82049.2
-1.805	82050.2
-1.800	82045.3
-1.795	82038.3
-1.790	82032.3
-1.785	82043.3
-1.780	82037.3
-1.775	82036.3
-1.770	82017.3
-1.765	82005.3
-1.760	81995.3
-1.755	82029.3
-1.750	82039.2
-1.745	82034.2
-1.740	82050.2
-1.735	82046.2
-1.730	82052.2
-1.725	82041.2
-1.720	82047.2
-1.715	82047.2
-1.710	82064.2
-1.705	82073.2
-1.700	82049.2
-1.695	82042.2
-1.690	82061.2
-1.685	82065.2
-1.680	82057.2
-1.675	82050.2
-1.670	82044.2
-1.665	82035.2
-1.660	82038.2
-1.655	82040.2
-1.650	82052.2
-1.645	82048.2
-1.640	82062.2
-1.635	82028.2
-1.630	82032.2
-1.625	82033.2
-1.620	82059.2
-1.615	82046.2
-1.610	82054.2
-1.605	82051.2
-1.600	82050.2
-1.595	82044.2
-1.590	82044.2
-1.585	82047.2
-1.580	82059.1
-1.575	82080.1
-1.570	82076.1
-1.565	82049.1
-1.560	82047.1
-1.555	82083.1
-1.550	82082.0
-1.545	82083.0
-1.540	82093.0
-1.535	82087.0
-1.530	82097.0
-1.525	82098.0
-1.520	82097.0
-1.515	82088.0
-1.510	82070.0
-1.505	82067.1
-1.500	82035.1
-1.495	82021.1
-1.490	82046.1
-1.485	82037.1
-1.480	82018.1
-1.475	81999.1
-1.470	82001.1
-1.465	81995.0
-1.460	82006.0
-1.455	82006.0
-1.450	82022.0
-1.445	82025.0
-1.440	82029.0
-1.435	81994.0
-1.430	81977.0
-1.425	81988.0
-1.420	81999.0
-1.415	82007.0
-1.410	81992.0
-1.405	81970.0
-1.400	81972.0
-1.395	81982.0
-1.390	81981.0
-1.385	81970.0
-1.380	81960.0
-1.375	81970.0
-1.370	81976.0
-1.365	81979.9
-1.360	81988.9
-1.355	82049.9
-1.350	82070.8
-1.345	82059.8
-1.340	82068.8
-1.335	82054.8
-1.330	82050.8
-1.325	82027.8
-1.320	82029.8
-1.315	82036.8
-1.310	82069.8
-1.305	82076.8
-1.300	82079.8
-1.295	82083.8
-1.290	82127.7
-1.285	82132.7
-1.280	82130.7
-1.275	82130.8
-1.270	82117.8
-1.265	82114.8
-1.260	82109.8
-1.255	82119.8
-1.250	82127.8
-1.245	82126.8
-1.240	82125.8
-1.235	82097.8
-1.230	82092.8
-1.225	82116.7
-1.220	82126.7
-1.215	82130.7
-1.210	82118.7
-1.205	82095.7
-1.200	82108.7
-1.195	82105.7
-1.190	82098.7
-1.185	82109.7
-1.180	82113.7
-1.175	82118.7
-1.170	82092.7
-1.165	82087.7
-1.160	82084.7
-1.155	82122.7
-1.150	82124.7
-1.145	82121.7
-1.140	82118.6
-1.135	82114.6
-1.130	82114.6
-1.125	82114.6
-1.120	82118.6
-1.115	82109.6
-1.110	82114.6
-1.105	82092.6
-1.100	82059.6
-1.095	82053.6
-1.090	82082.6
-1.085	82072.6
-1.080	82061.6
-1.075	82053.5
-1.070	82048.5
-1.065	82042.5
-1.060	82045.5
-1.055	82051.5
-1.050	82063.5
-1.045	82069.5
-1.040	82087.5
-1.035	82056.5
-1.030	82045.5
-1.025	82055.5
-1.020	82084.5
-1.015	82086.5
-1.010	82086.5
-1.005	82077.6
-1.000	82063.6
-0.995	82048.6
-0.990	82037.6
-0.985	82036.6
-0.980	82031.6
-0.975	82033.6
-0.970	82007.6
-0.965	81986.6
-0.960	81992.6
-0.955	82022.6
-0.950	82018.6
-0.945	82009.6
-0.940	82000.5
-0.935	81985.5
-0.930	81982.5
-0.925	81980.5
-0.920	81985.5
-0.915	81986.5
-0.910	82006.5
-0.905	81998.5
-0.900	81982.5
-0.895	81964.5
-0.890	82002.4
-0.885	81993.4
-0.880	81992.4
-0.875	81991.4
-0.870	81979.4
-0.865	81969.4
-0.860	81971.4
-0.855	81973.4
-0.850	81983.4
-0.845	81985.4
-0.840	81968.4
-0.835	81942.4
-0.830	81928.4
-0.825	81950.4
-0.820	81957.4
-0.815	81953.3
-0.810	81959.3
-0.805	81951.3
-0.800	81950.3
-0.795	81944.3
-0.790	81941.3
-0.785	81928.3
-0.780	81927.3
-0.775	81922.3
-0.770	81912.3
-0.765	81894.3
-0.760	81901.3
-0.755	81926.2
-0.750	81940.2
-0.745	81929.2
-0.740	81927.2
-0.735	81929.2
-0.730	81919.2
-0.725	81914.2
-0.720	81909.2
-0.715	81910.2
-0.710	81900.2
-0.705	81900.2
-0.700	81908.2
-0.695	81916.2
-0.690	81964.1
-0.685	81975.1
-0.680	81974.1
-0.675	81971.1
-0.670	81993.1
-0.665	81990.1
-0.660	81996.1
-0.655	81981.1
-0.650	81985.1
-0.645	81972.1
-0.640	81955.1
-0.635	81911.2
-0.630	81884.2
-0.625	81895.2
-0.620	81930.1
-0.615	81934.1
-0.610	81937.1
-0.605	81943.1
-0.600	81952.1
-0.595	81955.1
-0.590	81969.1
-0.585	81968.1
-0.580	81966.1
-0.575	81969.1
-0.570	81952.1
-0.565	81939.1
-0.560	81958.0
-0.555	81991.0
-0.550	81979.0
-0.545	81986.0
-0.540	81968.0
-0.535	81960.0
-0.530	81955.0
-0.525	81967.0
-0.520	81971.0
-0.515	81967.0
-0.510	81979.9
-0.505	81974.9
-0.500	81963.9
-0.495	81953.9
-0.490	81990.9
-0.485	81990.9
-0.480	81980.9
-0.475	81971.9
-0.470	81948.9
-0.465	81928.9
-0.460	81914.9
-0.455	81900.9
-0.450	81921.9
-0.445	81930.8
-0.440	81948.8
-0.435	81936.8
-0.430	81939.8
-0.425	81976.8
-0.420	81990.8
-0.415	81990.8
-0.410	81994.8
-0.405	81993.8
-0.400	82001.8
-0.395	82006.7
-0.390	82002.8
-0.385	82000.7
-0.380	82022.7
-0.375	82026.7
-0.370	82003.7
-0.365	81968.8
-0.360	81975.7
-0.355	81985.7
-0.350	81997.7
-0.345	82008.7
-0.340	82020.7
-0.335	82015.7
-0.330	82025.7
-0.325	82023.7
-0.320	82025.7
-0.315	81986.7
-0.310	81962.7
-0.305	81953.7
-0.300	81949.7
-0.295	81959.7
-0.290	82006.6
-0.285	82008.6
-0.280	82024.6
-0.275	82025.6
-0.270	82048.6
-0.265	82037.6
-0.260	82015.6
-0.255	82019.6
-0.250	82033.5
-0.245	82049.5
-0.240	82037.5
-0.235	82014.5
-0.230	82020.5
-0.225	82041.5
-0.220	82053.5
-0.215	82036.5
-0.210	82047.5
-0.205	82051.5
-0.200	82043.4
-0.195	82054.4
-0.190	82079.4
-0.185	82110.4
-0.180	82104.4
-0.175	82073.4
-0.170	82009.4
-0.165	81973.4
-0.160	81983.4
-0.155	82002.4
-0.150	82018.4
-0.145	82051.4
-0.140	82075.4
-0.135	82062.4
-0.130	82065.4
-0.125	82061.4
-0.120	82033.4
-0.115	82014.5
-0.110	82012.5
-0.105	82010.5
-0.100	82007.5
-0.095	82024.5
-0.090	82043.5
-0.085	82027.4
-0.080	82027.4
-0.075	82021.3
-0.070	82019.3
-0.065	82036.2
-0.060	82022.1
-0.055	81972.0
-0.050	81932.9
-0.045	81913.8
-0.040	81868.7
-0.035	81789.7
-0.030	81808.7
-0.025	81950.6
-0.020	82016.7
-0.015	81986.8
-0.010	81995.0
-0.005	82045.2
0.000	82032.4
0.005	81980.6
0.010	82002.8
0.015	82061.8
0.020	82048.9
0.025	81990.9
0.030	81933.9
0.035	81861.8
0.040	81853.6
0.045	81874.4
0.050	81916.2
0.055	81964.0
0.060	82040.8
0.065	82058.7
0.070	82035.7
0.075	81991.7
0.080	81963.8
0.085	81929.9
0.090	81934.9
0.095	81933.0
0.100	81970.0
0.105	81999.0
0.110	82032.0
0.115	82017.0
0.120	82011.0
0.125	82002.0
0.130	82002.0
0.135	81990.0
0.140	81980.0
0.145	81980.0
0.150	81993.0
0.155	81999.0
0.160	81984.0
0.165	81946.0
0.170	81931.0
0.175	81960.0
0.180	81972.0
0.185	81972.9
0.190	81971.9
0.195	81954.9
0.200	81956.9
0.205	81961.9
0.210	81978.9
0.215	81979.9
0.220	81981.9
0.225	81959.9
0.230	81912.9
0.235	81906.9
0.240	81938.9
0.245	81981.8
0.250	81985.8
0.255	81974.8
0.260	81976.8
0.265	81951.8
0.270	81947.8
0.275	81948.8
0.280	81946.8
0.285	81953.8
0.290	81959.8
0.295	81954.8
0.300	81941.8
0.305	81938.8
0.310	81969.7
0.315	81977.7
0.320	81981.7
0.325	81977.7
0.330	81985.7
0.335	81997.7
0.340	82013.7
0.345	82043.6
0.350	82061.6
0.355	82057.6
0.360	82042.6
0.365	82018.6
0.370	82004.6
0.375	82025.6
0.380	82020.6
0.385	82002.6
0.390	81997.6
0.395	82011.6
0.400	82006.6
0.405	81982.6
0.410	81961.6
0.415	81947.6
0.420	81941.6
0.425	81925.6
0.430	81900.6
0.435	81872.7
0.440	81875.6
0.445	81892.6
0.450	81883.6
0.455	81875.6
0.460	81879.6
0.465	81900.6
0.470	81931.6
0.475	81940.6
0.480	81952.5
0.485	81972.5
0.490	81994.5
0.495	81995.5
0.500	81995.5
0.505	82007.5
0.510	82044.4
0.515	82058.4
0.520	82086.4
0.525	82086.4
0.530	82082.4
0.535	82058.4
0.540	82054.4
0.545	82052.4
0.550	82048.4
0.555	82042.4
0.560	82030.4
0.565	81995.4
0.570	81981.4
0.575	81997.4
0.580	81982.4
0.585	81967.4
0.590	81954.4
0.595	81963.4
0.600	81962.4
0.605	81949.4
0.610	81940.4
0.615	81927.4
0.620	81923.4
0.625	81916.4
0.630	81883.4
0.635	81864.4
0.640	81894.4
0.645	81912.4
0.650	81924.3
0.655	81933.3
0.660	81940.3
0.665	81953.3
0.670	81944.3
0.675	81944.3
0.680	81957.3
0.685	81954.3
0.690	81962.3
0.695	81943.3
0.700	81925.3
0.705	81909.3
0.710	81958.3
0.715	81953.3
0.720	81959.2
0.725	81951.2
0.730	81932.2
0.735	81915.3
0.740	81893.2
0.745	81887.2
0.750	81882.2
0.755	81867.2
0.760	81853.2
0.765	81822.2
0.770	81801.2
0.775	81823.2
0.780	81816.2
0.785	81802.2
0.790	81799.2
0.795	81780.2
0.800	81778.2
0.805	81783.2
0.810	81787.2
0.815	81810.2
0.820	81830.1
0.825	81839.1
0.830	81830.1
0.835	81831.1
0.840	81861.1
0.845	81874.1
0.850	81876.1
0.855	81870.1
0.860	81875.1
0.865	81861.1
0.870	81850.1
0.875	81838.1
0.880	81826.1
0.885	81817.1
0.890	81807.1
0.895	81773.1
0.900	81759.1
0.905	81780.1
0.910	81846.0
0.915	81872.0
0.920	81900.0
0.925	81944.9
0.930	81985.9
0.935	82016.9
0.940	82047.8
0.945	82068.8
0.950	82102.8
0.955	82117.8
0.960	82127.7
0.965	82121.7
0.970	82127.7
0.975	82166.7
0.980	82186.7
0.985	82188.7
0.990	82182.7
0.995	82167.7
1.000	82151.7
1.005	82137.7
1.010	82108.7
1.015	82102.7
1.020	82077.7
1.025	82045.7
1.030	81984.8
1.035	81953.8
1.040	81950.8
1.045	81942.8
1.050	81918.8
1.055	81897.8
1.060	81877.8
1.065	81856.8
1.070	81842.8
1.075	81846.8
1.080	81868.8
1.085	81878.8
1.090	81895.8
1.095	81874.7
1.100	81863.7
1.105	81893.7
1.110	81931.7
1.115	81931.7
1.120	81932.7
1.125	81931.7
1.130	81956.6
1.135	81954.7
1.140	81937.7
1.145	81924.7
1.150	81917.7
1.155	81923.7
1.160	81908.7
1.165	81869.8
1.170	81839.8
1.175	81856.8
1.180	81844.8
1.185	81838.8
1.190	81829.8
1.195	81813.8
1.200	81811.8
1.205	81804.8
1.210	81805.8
1.215	81801.8
1.220	81813.7
1.225	81815.7
1.230	81827.7
1.235	81819.7
1.240	81878.7
1.245	81916.6
1.250	81959.6
1.255	81992.6
1.260	82035.5
1.265	82052.5
1.270	82070.5
1.275	82087.5
1.280	82111.4
1.285	82146.4
1.290	82172.4
1.295	82148.4
1.300	82144.4
1.305	82168.3
1.310	82185.3
1.315	82184.3
1.320	82176.3
1.325	82174.3
1.330	82171.3
1.335	82162.3
1.340	82159.3
1.345	82149.3
1.350	82129.3
1.355	82126.3
1.360	82108.3
1.365	82069.3
1.370	82063.3
1.375	82073.3
1.380	82056.3
1.385	82039.4
1.390	82026.4
1.395	81997.4
1.400	81975.4
1.405	81958.5
1.410	81952.5
1.415	81971.5
1.420	82010.5
1.425	82031.4
1.430	82055.4
1.435	82030.4
1.440	82035.4
1.445	82021.4
1.450	82009.4
1.455	81998.4
1.460	82023.4
1.465	82019.3
1.470	82035.3
1.475	82023.3
1.480	82025.3
1.485	82042.3
1.490	82065.2
1.495	82052.2
1.500	82016.3
1.505	82017.3
1.510	82054.2
1.515	82068.2
1.520	82086.2
1.525	82089.2
1.530	82077.2
1.535	82058.2
1.540	82066.2
1.545	82049.2
1.550	82041.2
1.555	82034.2
1.560	81975.2
1.565	81954.2
1.570	81963.2
1.575	82024.1
1.580	82044.1
1.585	82036.1
1.590	82033.1
1.595	82016.1
1.600	81975.2
1.605	81955.2
1.610	81939.2
1.615	81946.2
1.620	81986.2
1.625	82002.2
1.630	81988.2
1.635	81996.2
1.640	82018.2
1.645	82037.2
1.650	82044.2
1.655	82057.2
1.660	82074.1
1.665	82070.1
1.670	82070.1
1.675	82042.1
1.680	82006.1
1.685	81996.1
1.690	82037.1
1.695	82071.0
1.700	82147.9
1.705	82220.9
1.710	82260.9
1.715	82251.0
1.720	82217.0
1.725	82202.1
1.730	82214.0
1.735	82246.0
1.740	82288.9
1.745	82296.9
1.750	82233.9
1.755	82109.0
1.760	81969.1
1.765	81862.2
1.770	81829.2
1.775	81842.2
1.780	81817.2
1.785	81767.3
1.790	81734.3
1.795	81747.3
1.800	81783.3
1.805	81834.3
1.810	81868.2
1.815	81910.2
1.820	81935.2
1.825	81971.2
1.830	81951.2
1.835	81951.2
1.840	81993.1
1.845	82017.1
1.850	82032.1
1.855	82025.1
1.860	81978.1
1.865	81889.1
1.870	81825.2
1.875	81797.2
1.880	81801.2
1.885	81812.2
1.890	81855.2
1.895	81879.2
1.900	81931.1
1.905	81985.1
1.910	82040.0
1.915	82054.0
1.920	82054.0
1.925	82055.0
1.930	82057.0
1.935	82055.0
1.940	82053.9
1.945	82080.9
1.950	82109.9
1.955	82126.9
1.960	82117.9
1.965	82093.9
1.970	82101.9
1.975	82142.9
1.980	82135.9
1.985	82134.9
1.990	82145.9
1.995	82152.9
2.000	82145.9
2.005	82138.9
2.010	82115.9
2.015	82104.9
2.020	82077.0
2.025	82040.0
2.030	82002.0
2.035	81943.1
2.040	81932.1
2.045	81915.1
2.050	81923.1
2.055	81928.1
2.060	81930.1
2.065	81920.1
2.070	81923.1
2.075	81902.1
2.080	81896.1
2.085	81899.1
2.090	81896.1
2.095	81869.1
2.100	81860.1
2.105	81856.1
2.110	81816.1
2.115	81758.2
2.120	81746.2
2.125	81790.2
2.130	81834.1
2.135	81828.1
2.140	81795.2
2.145	81747.2
2.150	81762.2
2.155	81798.2
2.160	81814.2
2.165	81846.2
2.170	81902.1
2.175	81973.1
2.180	81955.1
2.185	81897.1
2.190	81868.1
2.195	81858.2
2.200	81897.1
2.205	81924.1
2.210	81946.1
2.215	81946.1
2.220	81921.1
2.225	81870.2
2.230	81840.2
2.235	81846.2
2.240	81916.2
2.245	81943.1
2.250	81964.1
2.255	81966.1
2.260	81982.1
2.265	82004.1
2.270	82024.0
2.275	82060.0
2.280	82128.9
2.285	82175.9
2.290	82213.8
2.295	82237.8
2.300	82233.8
2.305	82214.8
2.310	82168.9
2.315	82140.9
2.320	82136.9
2.325	82112.9
2.330	82088.9
2.335	82037.9
2.340	81937.0
2.345	81864.1
2.350	81866.1
2.355	81891.1
2.360	81903.1
2.365	81913.1
2.370	81907.1
2.375	81900.1
2.380	81833.2
2.385	81763.2
2.390	81720.3
2.395	81744.2
2.400	81803.2
2.405	81827.2
2.410	81821.2
2.415	81788.2
2.420	81777.2
2.425	81747.3
2.430	81701.3
2.435	81659.4
2.440	81669.4
2.445	81685.4
2.450	81693.4
2.455	81696.4
2.460	81707.3
2.465	81707.3
2.470	81723.3
2.475	81707.4
2.480	81699.4
2.485	81679.4
2.490	81678.4
2.495	81655.4
2.500	81659.4
2.505	81675.4
2.510	81679.4
2.515	81680.4
2.520	81720.3
2.525	81738.3
2.530	81746.3
2.535	81749.3
2.540	81740.3
2.545	81731.4
2.550	81724.4
2.555	81718.4
2.560	81692.4
2.565	81661.5
2.570	81661.4
2.575	81682.4
2.580	81708.4
2.585	81727.4
2.590	81759.4
2.595	81767.4
2.600	81759.4
2.605	81743.4
2.610	81732.4
2.615	81737.4
2.620	81742.4
2.625	81724.4
2.630	81688.4
2.635	81696.4
2.640	81722.4
2.645	81716.4
2.650	81705.5
2.655	81718.5
2.660	81717.5
2.665	81768.4
2.670	81795.4
2.675	81820.4
2.680	81824.4
2.685	81837.4
2.690	81848.4
2.695	81836.4
2.700	81826.5
2.705	81873.4
2.710	81869.5
2.715	81846.5
2.720	81852.5
2.725	81841.5
2.730	81823.5
2.735	81829.5
2.740	81850.5
2.745	81880.5
2.750	81908.5
2.755	81903.5
2.760	81880.5
2.765	81863.5
2.770	81867.5
2.775	81915.5
2.780	81940.5
2.785	81951.5
2.790	81964.5
2.795	81964.5
2.800	81962.5
2.805	81932.5
2.810	81883.6
2.815	81877.6
2.820	81906.6
2.825	81904.5
2.830	81873.6
2.835	81854.6
2.840	81876.6
2.845	81883.6
2.850	81877.6
2.855	81854.6
2.860	81823.7
2.865	81793.7
2.870	81773.7
2.875	81766.7
2.880	81805.7
2.885	81840.7
2.890	81859.7
2.895	81841.7
2.900	81835.7
2.905	81870.7
2.910	81869.7
2.915	81862.8
2.920	81860.8
2.925	81846.8
2.930	81832.8
2.935	81833.8
2.940	81861.8
2.945	81897.8
2.950	81924.8
2.955	81939.8
2.960	81913.8
2.965	81865.9
2.970	81869.9
2.975	81885.9
2.980	81894.9
2.985	81896.9
2.990	81902.9
2.995	81907.9
3.000	81898.9
3.005	81903.9
3.010	81913.9
3.015	81928.9
3.020	81931.9
3.025	81922.9
3.030	81953.9
3.035	81985.9
3.040	82039.8
3.045	82021.9
3.050	81997.9
3.055	81990.9
3.060	81985.9
3.065	81986.9
3.070	82000.9
3.075	82013.9
3.080	82014.9
3.085	82026.9
3.090	82012.0
3.095	81970.0
3.100	81960.0
3.105	82006.0
3.110	82028.0
3.115	82049.0
3.120	82052.0
3.125	82013.0
3.130	82013.0
3.135	82002.0
3.140	82003.0
3.145	82007.0
3.150	82042.0
3.155	82048.0
3.160	82024.1
3.165	82009.1
3.170	82032.1
3.175	82047.1
3.180	82042.1
3.185	82024.1
3.190	82003.1
3.195	82014.1
3.200	82016.2
3.205	82022.2
3.210	82033.2
3.215	82031.2
3.220	82017.2
3.225	81996.2
3.230	81970.2
3.235	81989.2
3.240	82028.2
3.245	82026.2
3.250	82034.2
3.255	82015.2
3.260	82015.2
3.265	82005.2
3.270	82003.2
3.275	81985.2
3.280	81988.2
3.285	81995.2
3.290	81985.2
3.295	81945.2
3.300	81954.1
3.305	81991.1
3.310	82016.0
3.315	82052.0
3.320	82085.9
3.325	82076.9
3.330	82042.0
3.335	81963.0
3.340	81892.1
3.345	81883.1
3.350	81958.1
3.355	82042.1
3.360	82083.2
3.365	82060.3
3.370	82039.4
3.375	82001.6
3.380	81981.8
3.385	81991.9
3.390	82056.0
3.395	82106.1
3.400	82089.1
3.405	82054.1
3.410	82042.1
3.415	82036.1
3.420	82059.1
3.425	82055.1
3.430	82048.1
3.435	82048.1
3.440	82084.1
3.445	82080.1
3.450	82079.1
3.455	82080.1
3.460	82064.1
3.465	82068.2
3.470	82083.2
3.475	82076.2
3.480	82089.3
3.485	82101.3
3.490	82121.4
3.495	82101.5
3.500	82109.5
3.505	82146.6
3.510	82140.7
3.515	82133.7
3.520	82116.8
3.525	82107.9
3.530	82105.0
3.535	82115.0
3.540	82104.1
3.545	82080.2
3.550	82079.2
3.555	82072.3
3.560	82051.3
3.565	82028.3
3.570	82039.4
3.575	82050.4
3.580	82028.4
3.585	82021.5
3.590	82025.5
3.595	82033.5
3.600	82038.5
3.605	82035.5
3.610	82036.5
3.615	82043.5
3.620	82053.5
3.625	82042.6
3.630	82033.6
3.635	82035.6
3.640	82061.6
3.645	82037.6
3.650	82042.6
3.655	82032.7
3.660	82032.7
3.665	82018.7
3.670	82012.7
3.675	82002.7
3.680	82026.7
3.685	82035.7
3.690	82018.8
3.695	81999.8
3.700	82019.8
3.705	82033.8
3.710	82038.8
3.715	82014.9
3.720	82008.9
3.725	82016.9
3.730	82016.9
3.735	82026.9
3.740	82022.9
3.745	82039.0
3.750	82041.0
3.755	82037.0
3.760	82022.0
3.765	82002.1
3.770	82024.1
3.775	82049.1
3.780	82046.1
3.785	82048.1
3.790	82059.2
3.795	82055.2
3.800	82066.2
3.805	82078.2
3.810	82073.3
3.815	82079.3
3.820	82088.3
3.825	82074.4
3.830	82053.4
3.835	82071.4
3.840	82101.5
3.845	82090.5
3.850	82077.6
3.855	82072.6
3.860	82066.6
3.865	82047.7
3.870	82041.7
3.875	82045.8
3.880	82039.8
3.885	82034.9
3.890	82021.9
3.895	81987.0
3.900	81967.1
3.905	81986.1
3.910	81981.2
3.915	81959.3
3.920	81952.3
3.925	81919.4
3.930	81914.5
3.935	81893.6
3.940	81863.7
3.945	81838.8
3.950	81815.9
3.955	81789.0
3.960	81792.1
3.965	81684.3
3.970	81285.7
3.975	80937.2
3.980	81056.2
3.985	81450.2
3.990	81705.2
3.995	81841.4
4.000	81844.7
4.005	81641.1
4.010	81343.6
4.015	81261.0
4.020	81409.2
4.025	81460.4
4.030	81399.6
4.035	81328.8
4.040	81311.9
4.045	81277.9
4.050	81235.8
4.055	81156.6
4.060	81112.3
4.065	81113.8
4.070	81191.1
4.075	81294.2
4.080	81403.2
4.085	81510.2
4.090	81610.3
4.095	81693.4
4.100	81766.7
4.105	81841.2
4.110	81878.9
4.115	81890.7
4.120	81913.6
4.125	81896.5
4.130	81894.5
4.135	81887.5
4.140	81887.4
4.145	81878.4
4.150	81891.4
4.155	81907.4
4.160	81893.4
4.165	81882.3
4.170	81897.3
4.175	81904.3
4.180	81888.3
4.185	81881.3
4.190	81883.3
4.195	81883.3
4.200	81871.3
4.205	81873.3
4.210	81905.3
4.215	81914.3
4.220	81929.3
4.225	81882.3
4.230	81855.3
4.235	81851.3
4.240	81872.3
4.245	81847.3
4.250	81879.3
4.255	81881.3
4.260	81874.3
4.265	81862.3
4.270	81863.3
4.275	81854.3
4.280	81844.3
4.285	81844.3
4.290	81835.3
4.295	81827.3
4.300	81856.3
4.305	81890.3
4.310	81897.2
4.315	81869.3
4.320	81883.2
4.325	81888.2
4.330	81903.2
4.335	81917.2
4.340	81901.2
4.345	81866.2
4.350	81861.2
4.355	81859.2
4.360	81842.3
4.365	81856.2
4.370	81908.2
4.375	81928.2
4.380	81937.2
4.385	81926.2
4.390	81928.2
4.395	81921.2
4.400	81913.2
4.405	81898.2
4.410	81901.2
4.415	81913.2
4.420	81920.2
4.425	81888.2
4.430	81867.2
4.435	81886.2
4.440	81928.1
4.445	81933.1
4.450	81940.1
4.455	81942.1
4.460	81931.1
4.465	81926.1
4.470	81918.1
4.475	81907.1
4.480	81915.1
4.485	81924.1
4.490	81925.1
4.495	81910.1
4.500	81918.1
4.505	81941.0
4.510	81946.0
4.515	81916.1
4.520	81913.1
4.525	81900.1
4.530	81916.0
4.535	81929.0
4.540	81945.0
4.545	81940.0
4.550	81934.0
4.555	81934.0
4.560	81914.0
4.565	81913.0
4.570	81932.0
4.575	81914.0
4.580	81909.0
4.585	81909.0
4.590	81898.0
4.595	81902.0
4.600	81903.0
4.605	81916.0
4.610	81927.0
4.615	81931.0
4.620	81958.9
4.625	81952.0
4.630	81934.0
4.635	81946.0
4.640	81961.9
4.645	81961.9
4.650	81952.9
4.655	81944.9
4.660	81946.9
4.665	81934.9
4.670	81929.9
4.675	81930.8
4.680	81934.8
4.685	81944.8
4.690	81940.8
4.695	81916.8
4.700	81922.9
4.705	81960.8
4.710	81965.8
4.715	81965.8
4.720	81962.8
4.725	81945.8
4.730	81938.8
4.735	81915.8
4.740	81918.8
4.745	81917.8
4.750	81931.8
4.755	81926.8
4.760	81908.8
4.765	81878.8
4.770	81926.8
4.775	81923.8
4.780	81915.7
4.785	81903.7
4.790	81908.7
4.795	81905.7
4.800	81917.7
4.805	81923.7
4.810	81916.7
4.815	81915.7
4.820	81923.6
4.825	81898.7
4.830	81882.7
4.835	81888.6
4.840	81905.6
4.845	81906.6
4.850	81912.6
4.855	81912.6
4.860	81913.6
4.865	81925.6
4.870	81920.6
4.875	81925.6
4.880	81942.6
4.885	81941.5
4.890	81913.6
4.895	81887.6
4.900	81883.6
4.905	81916.5
4.910	81896.5
4.915	81890.5
4.920	81906.5
4.925	81906.5
4.930	81901.5
4.935	81901.5
4.940	81928.5
4.945	81931.4
4.950	81948.4
4.955	81934.4
4.960	81891.4
4.965	81884.4
4.970	81917.3
4.975	81934.3
4.980	81938.3
4.985	81919.3
4.990	81909.3
4.995	81913.3
5.000	81898.3
5.005	81884.3
5.010	81878.2
5.015	81880.2
5.020	81883.2
5.025	81848.2
5.030	81844.2
5.035	81872.2
5.040	81903.1
5.045	81905.1
5.050	81904.1
5.055	81900.0
5.060	81911.0
5.065	81905.0
5.070	81897.0
5.075	81875.0
5.080	81840.0
5.085	81851.0
5.090	81850.0
5.095	81850.9
5.100	81873.9
5.105	81917.8
5.110	81907.8
5.115	81913.8
5.120	81936.7
5.125	81932.7
5.130	81918.7
5.135	81875.7
5.140	81854.7
5.145	81871.6
5.150	81904.6
5.155	81907.5
5.160	81894.5
5.165	81889.5
5.170	81923.4
5.175	81932.3
5.180	81933.3
5.185	81925.2
5.190	81928.2
5.195	81913.2
5.200	81929.1
5.205	81922.0
5.210	81919.0
5.215	81936.9
5.220	81952.8
5.225	81920.8
5.230	81911.7
5.235	81919.7
5.240	81942.6
5.245	81944.5
5.250	81920.4
5.255	81918.3
5.260	81905.2
5.265	81892.1
5.270	81882.0
5.275	81873.9
5.280	81864.8
5.285	81844.7
5.290	81809.5
5.295	81774.3
5.300	81756.1
5.305	81736.8
5.310	81683.6
5.315	81629.3
5.320	81543.1
5.325	81469.9
5.330	81371.7
5.335	81307.6
5.340	81236.6
5.345	81146.6
5.350	81121.7
5.355	81078.9
5.360	81012.1
5.365	81016.6
5.370	81096.0
5.375	81115.6
5.380	81127.2
5.385	81202.0
5.390	81348.0
5.395	81546.8
5.400	81743.5
5.405	81894.9
5.410	81971.1
5.415	81993.2
5.420	82023.3
5.425	81995.3
5.430	81996.3
5.435	82018.3
5.440	82037.3
5.445	82022.3
5.450	82032.3
5.455	82016.3
5.460	82008.3
5.465	82016.3
5.470	82019.3
5.475	82020.3
5.480	82028.3
5.485	82030.3
5.490	82011.3
5.495	81993.3
5.500	81999.3
5.505	82012.3
5.510	82026.3
5.515	82032.3
5.520	82026.3
5.525	82027.3
5.530	82018.3
5.535	82009.3
5.540	82008.3
5.545	82017.3
5.550	82016.3
5.555	81992.3
5.560	81961.4
5.565	81962.4
5.570	81992.3
5.575	81987.3
5.580	81982.3
5.585	81978.3
5.590	81986.3
5.595	81972.3
5.600	81971.4
5.605	81968.4
5.610	81980.4
5.615	81977.3
5.620	81981.4
5.625	81956.4
5.630	81943.4
5.635	81946.4
5.640	81960.4
5.645	81954.4
5.650	81952.4
5.655	81962.4
5.660	81967.5
5.665	81977.5
5.670	81982.5
5.675	82006.5
5.680	82007.5
5.685	82011.5
5.690	81992.5
5.695	81976.5
5.700	81987.5
5.705	82007.5
5.710	82013.5
5.715	81988.5
5.720	82004.5
5.725	82011.5
5.730	82008.5
5.735	82008.4
5.740	82011.4
5.745	82007.4
5.750	82017.4
5.755	82001.4
5.760	81994.4
5.765	81993.4
5.770	82030.4
5.775	82025.4
5.780	82016.4
5.785	82005.4
5.790	81999.4
5.795	82004.4
5.800	82004.4
5.805	82013.4
5.810	82023.3
5.815	82013.3
5.820	82010.4
5.825	81977.4
5.830	81961.4
5.835	81988.4
5.840	81992.4
5.845	81989.4
5.850	81987.4
5.855	81977.4
5.860	81990.4
5.865	81992.4
5.870	81985.4
5.875	81992.4
5.880	81994.4
5.885	81995.4
5.890	81978.4
5.895	81966.4
5.900	81968.4
5.905	81996.4
5.910	81997.4
5.915	81992.4
5.920	81987.4
5.925	81991.4
5.930	81991.4
5.935	81988.4
5.940	81989.4
5.945	81986.4
5.950	81973.4
5.955	81956.4
5.960	81945.4
5.965	81939.4
5.970	81962.4
5.975	81965.4
5.980	81957.4
5.985	81950.4
5.990	81960.4
5.995	81954.4
6.000	81944.4
6.005	81963.4
6.010	81964.4
6.015	81972.4
6.020	81971.4
6.025	81936.4
6.030	81919.4
6.035	81946.4
6.040	81974.4
6.045	81972.4
6.050	81969.4
6.055	81966.4
6.060	81956.4
6.065	81952.4
6.070	81942.4
6.075	81950.4
6.080	81946.4
6.085	81957.4
6.090	81921.4
6.095	81909.5
6.100	81931.4
6.105	81961.4
6.110	81953.4
6.115	81944.4
6.120	81942.4
6.125	81933.4
6.130	81932.4
6.135	81936.4
6.140	81933.4
6.145	81933.4
6.150	81944.4
6.155	81925.5
6.160	81904.5
6.165	81901.5
6.170	81942.4
6.175	81942.4
6.180	81946.4
6.185	81941.4
6.190	81941.4
6.195	81938.4
6.200	81938.4
6.205	81937.4
6.210	81950.4
6.215	81936.4
6.220	81937.4
6.225	81906.5
6.230	81908.5
6.235	81925.5
6.240	81934.4
6.245	81936.4
6.250	81931.4
6.255	81927.5
6.260	81915.5
6.265	81918.5
6.270	81920.5
6.275	81920.5
6.280	81929.5
6.285	81926.5
6.290	81913.5
6.295	81889.5
6.300	81913.5
6.305	81927.5
6.310	81925.5
6.315	81920.5
6.320	81924.5
6.325	81915.5
6.330	81919.5
6.335	81918.5
6.340	81932.5
6.345	81919.5
6.350	81926.5
6.355	81914.5
6.360	81886.5
6.365	81890.5
6.370	81930.5
6.375	81917.5
6.380	81923.5
6.385	81921.5
6.390	81915.5
6.395	81911.5
6.400	81914.5
6.405	81909.5
6.410	81931.5
6.415	81929.5
6.420	81932.5
6.425	81906.5
6.430	81903.5
6.435	81930.5
6.440	81939.5
6.445	81935.5
6.450	81940.5
6.455	81925.5
6.460	81938.5
6.465	81931.5
6.470	81935.5
6.475	81939.5
6.480	81942.5
6.485	81931.5
6.490	81898.5
6.495	81900.5
6.500	81915.5
6.505	81928.5
6.510	81917.5
6.515	81906.5
6.520	81899.5
6.525	81895.5
6.530	81883.5
6.535	81884.5
6.540	81875.5
6.545	81881.5
6.550	81888.5
6.555	81861.5
6.560	81847.5
6.565	81847.5
6.570	81860.5
6.575	81864.5
6.580	81863.5
6.585	81843.5
6.590	81845.5
6.595	81840.5
6.600	81828.6
6.605	81819.6
6.610	81817.6
6.615	81802.6
6.620	81796.6
6.625	81770.6
6.630	81761.6
6.635	81788.6
6.640	81796.6
6.645	81785.6
6.650	81785.6
6.655	81776.6
6.660	81772.6
6.665	81771.6
6.670	81779.6
6.675	81783.6
6.680	81808.6
6.685	81814.6
6.690	81805.6
6.695	81791.6
6.700	81818.6
6.705	81845.5
6.710	81847.5
6.715	81847.6
6.720	81850.5
6.725	81842.6
6.730	81835.6
6.735	81845.6
6.740	81856.5
6.745	81864.5
6.750	81880.5
6.755	81869.5
6.760	81873.5
6.765	81899.5
6.770	81950.5
6.775	81965.5
6.780	81971.5
6.785	81979.5
6.790	81982.5
6.795	81998.4
6.800	82009.4
6.805	82010.4
6.810	82018.4
6.815	82021.4
6.820	82023.4
6.825	81997.4
6.830	81983.5
6.835	82014.4
6.840	82014.4
6.845	82023.4
6.850	82016.4
6.855	82011.4
6.860	82001.4
6.865	82002.4
6.870	82003.4
6.875	81992.4
6.880	81993.4
6.885	81991.4
6.890	81961.5
6.895	81952.5
6.900	81967.5
6.905	81991.4
6.910	81985.4
6.915	81984.5
6.920	81982.5
6.925	81986.4
6.930	81985.5
6.935	82000.4
6.940	82012.4
6.945	82027.4
6.950	82048.4
6.955	82036.4
6.960	82032.4
6.965	82046.4
6.970	82076.4
6.975	82088.4
6.980	82103.4
6.985	82101.4
6.990	82091.4
6.995	82091.4
7.000	82092.4
7.005	82099.4
7.010	82108.4
7.015	82099.4
7.020	82099.4
7.025	82077.4
7.030	82083.4
7.035	82097.4
7.040	82107.4
7.045	82114.4
7.050	82113.4
7.055	82102.4
7.060	82105.4
7.065	82112.4
7.070	82111.4
7.075	82111.4
7.080	82120.4
7.085	82121.4
7.090	82099.4
7.095	82078.4
7.100	82092.4
7.105	82112.4
7.110	82117.4
7.115	82114.4
7.120	82117.4
7.125	82099.4
7.130	82106.4
7.135	82105.4
7.140	82100.4
7.145	82099.4
7.150	82103.4
7.155	82078.4
7.160	82062.4
7.165	82070.4
7.170	82080.4
7.175	82083.4
7.180	82088.4
7.185	82078.4
7.190	82079.4
7.195	82072.4
7.200	82068.4
7.205	82066.4
7.210	82083.4
7.215	82078.4
7.220	82066.4
7.225	82049.4
7.230	82033.4
7.235	82057.4
7.240	82066.4
7.245	82063.4
7.250	82049.4
7.255	82053.4
7.260	82048.4
7.265	82045.4
7.270	82036.4
7.275	82040.4
7.280	82038.4
7.285	82030.4
7.290	82006.5
7.295	81993.5
7.300	82027.5
7.305	82027.5
7.310	82032.5
7.315	82029.5
7.320	82010.5
7.325	82011.5
7.330	81995.5
7.335	81996.5
7.340	82008.5
7.345	82014.5
7.350	82007.5
7.355	82004.5
7.360	81980.5
7.365	81983.5
7.370	82007.5
7.375	82009.5
7.380	82018.5
7.385	82015.5
7.390	82013.5
7.395	82007.5
7.400	82007.5
7.405	81996.5
7.410	82009.5
7.415	82007.5
7.420	81981.5
7.425	81966.5
7.430	81971.5
7.435	81999.5
7.440	82000.5
7.445	81993.5
7.450	82006.5
7.455	81994.5
7.460	81991.5
7.465	81997.5
7.470	81987.5
7.475	81987.5
7.480	82004.5
7.485	82004.5
7.490	81985.5
7.495	81978.5
7.500	82006.5
7.505	81997.5
7.510	82007.5
7.515	82004.5
7.520	82004.5
7.525	82006.5
7.530	82010.5
7.535	82008.5
7.540	82002.5
7.545	82010.5
7.550	82016.5
7.555	81981.5
7.560	81974.5
7.565	81988.5
7.570	82016.5
7.575	82010.5
7.580	82015.5
7.585	82012.5
7.590	82012.5
7.595	82016.5
7.600	82021.5
7.605	82026.5
7.610	82035.5
7.615	82049.5
7.620	82027.5
7.625	82003.5
7.630	82006.5
7.635	82037.5
7.640	82041.5
7.645	82033.5
7.650	82040.5
7.655	82045.5
7.660	82030.5
7.665	82028.5
7.670	82038.5
7.675	82035.5
7.680	82028.5
7.685	82018.5
7.690	82001.5
7.695	81995.5
7.700	82028.5
7.705	82042.5
7.710	82045.5
7.715	82035.5
7.720	82040.5
7.725	82038.5
7.730	82029.5
7.735	82026.5
7.740	82035.5
7.745	82040.5
7.750	82040.5
7.755	82025.5
7.760	82005.5
7.765	82020.5
7.770	82042.5
7.775	82043.5
7.780	82043.5
7.785	82040.5
7.790	82034.5
7.795	82024.5
7.800	82032.5
7.805	82023.5
7.810	82024.5
7.815	82028.5
7.820	82006.6
7.825	81969.6
7.830	81976.6
7.835	81994.6
7.840	81980.6
7.845	81973.6
7.850	81965.6
7.855	81951.6
7.860	81920.6
7.865	81897.7
7.870	81896.7
7.875	81921.6
7.880	81943.6
7.885	81965.6
7.890	81953.6
7.895	81946.6
7.900	81990.6
7.905	82011.6
7.910	82022.6
7.915	82018.6
7.920	82020.6
7.925	82012.6
7.930	82024.6
7.935	82025.6
7.940	82030.6
7.945	82028.6
7.950	82025.6
7.955	81996.6
7.960	81986.6
7.965	82005.6
7.970	82027.6
7.975	82021.6
7.980	82027.6
7.985	82020.6
7.990	82018.6
7.995	82027.6
8.000	82040.6
8.005	82029.6
8.010	82038.6
8.015	82050.6
8.020	82025.6
8.025	82000.6
8.030	81996.6
8.035	82020.6
8.040	82005.6
8.045	81990.6
8.050	81974.6
8.055	81955.7
8.060	81952.7
8.065	81937.7
8.070	81925.7
8.075	81932.7
8.080	81931.7
8.085	81930.7
8.090	81906.7
8.095	81896.7
8.100	81942.7
8.105	81924.7
8.110	81911.7
8.115	81912.7
8.120	81911.7
8.125	81875.7
8.130	81862.7
8.135	81863.7
8.140	81833.8
8.145	81816.8
8.150	81820.8
8.155	81791.8
8.160	81749.8
8.165	81732.8
8.170	81753.8
8.175	81757.8
8.180	81744.8
8.185	81743.8
8.190	81738.8
8.195	81755.8
8.200	81772.8
8.205	81770.8
8.210	81764.8
8.215	81756.8
8.220	81740.9
8.225	81726.9
8.230	81763.8
8.235	81812.8
8.240	81817.8
8.245	81812.8
8.250	81824.8
8.255	81834.8
8.260	81852.8
8.265	81893.8
8.270	81922.7
8.275	81953.7
8.280	81974.7
8.285	81984.7
8.290	81974.7
8.295	81966.7
8.300	82014.7
8.305	82013.7
8.310	82013.7
8.315	82015.7
8.320	82013.7
8.325	82003.7
8.330	81996.7
8.335	81977.7
8.340	81984.7
8.345	81993.7
8.350	81997.7
8.355	81970.7
8.360	81948.8
8.365	81966.7
8.370	81991.7
8.375	81992.7
8.380	81990.7
8.385	81965.7
8.390	81958.8
8.395	81951.8
8.400	81956.8
8.405	81963.8
8.410	81993.7
8.415	81993.7
8.420	81962.8
8.425	81937.8
8.430	81944.8
8.435	81971.8
8.440	81972.8
8.445	81977.8
8.450	81984.8
8.455	81984.8
8.460	81988.8
8.465	81980.8
8.470	81976.8
8.475	81946.8
8.480	81890.8
8.485	81786.9
8.490	81646.0
8.495	81483.2
8.500	81382.2
8.505	81351.3
8.510	81394.2
8.515	81518.1
8.520	81712.0
8.525	81843.9
8.530	81891.9
8.535	81930.8
8.540	81955.8
8.545	81972.8
8.550	81974.8
8.555	81964.8
8.560	81955.8
8.565	81951.8
8.570	81968.8
8.575	81972.8
8.580	81964.8
8.585	81961.8
8.590	81964.8
8.595	81956.9
8.600	81939.9
8.605	81943.9
8.610	81933.9
8.615	81924.9
8.620	81896.9
8.625	81876.9
8.630	81887.9
8.635	81914.9
8.640	81915.9
8.645	81913.9
8.650	81917.9
8.655	81920.9
8.660	81918.9
8.665	81925.9
8.670	81928.9
8.675	81940.9
8.680	81944.9
8.685	81932.9
8.690	81906.9
8.695	81904.0
8.700	81943.9
8.705	81947.9
8.710	81955.9
8.715	81942.9
8.720	81941.9
8.725	81954.9
8.730	81953.9
8.735	81947.0
8.740	81962.9
8.745	81967.9
8.750	81967.9
8.755	81939.0
8.760	81932.0
8.765	81953.0
8.770	81970.0
8.775	81961.0
8.780	81965.0
8.785	81957.0
8.790	81953.0
8.795	81948.0
8.800	81943.0
8.805	81936.0
8.810	81925.0
8.815	81923.0
8.820	81903.1
8.825	81873.1
8.830	81883.1
8.835	81930.0
8.840	81944.0
8.845	81945.0
8.850	81930.1
8.855	81915.1
8.860	81897.1
8.865	81910.1
8.870	81916.1
8.875	81932.1
8.880	81920.1
8.885	81898.1
8.890	81881.1
8.895	81879.1
8.900	81922.1
8.905	81915.1
8.910	81905.1
8.915	81887.2
8.920	81892.2
8.925	81880.2
8.930	81880.2
8.935	81870.2
8.940	81869.2
8.945	81861.2
8.950	81858.2
8.955	81816.3
8.960	81771.3
8.965	81772.3
8.970	81780.3
8.975	81765.3
8.980	81749.3
8.985	81730.4
8.990	81716.4
8.995	81702.4
9.000	81677.4
9.005	81656.5
9.010	81624.5
9.015	81613.5
9.020	81570.5
9.025	81516.6
9.030	81523.6
9.035	81570.6
9.040	81581.6
9.045	81567.6
9.050	81545.6
9.055	81522.6
9.060	81531.6
9.065	81534.6
9.070	81570.6
9.075	81623.6
9.080	81656.6
9.085	81681.6
9.090	81695.6
9.095	81741.5
9.100	81809.5
9.105	81842.5
9.110	81872.5
9.115	81875.5
9.120	81892.5
9.125	81887.5
9.130	81895.5
9.135	81899.5
9.140	81893.5
9.145	81896.5
9.150	81882.6
9.155	81871.6
9.160	81857.6
9.165	81882.6
9.170	81896.6
9.175	81883.6
9.180	81877.7
9.185	81865.7
9.190	81837.7
9.195	81798.8
9.200	81740.8
9.205	81639.9
9.210	81640.9
9.215	81704.9
9.220	81730.9
9.225	81749.9
9.230	81803.9
9.235	81860.9
9.240	81883.9
9.245	81898.9
9.250	81911.9
9.255	81920.9
9.260	81924.0
9.265	81934.0
9.270	81931.0
9.275	81937.0
9.280	81932.1
9.285	81907.1
9.290	81889.2
9.295	81895.2
9.300	81923.2
9.305	81923.2
9.310	81934.3
9.315	81940.3
9.320	81937.4
9.325	81928.4
9.330	81926.5
9.335	81936.5
9.340	81936.6
9.345	81928.6
9.350	81931.7
9.355	81898.8
9.360	81879.9
9.365	81880.9
9.370	81882.0
9.375	81855.1
9.380	81762.3
9.385	81730.5
9.390	81647.7
9.395	81494.0
9.400	81567.2
9.405	81525.5
9.410	81175.0
9.415	80716.6
9.420	80476.0
9.425	80594.1
9.430	80866.1
9.435	81107.0
9.440	81220.0
9.445	81225.1
9.450	81164.0
9.455	81112.9
9.460	81139.6
9.465	81196.2
9.470	81273.8
9.475	81354.1
9.480	81458.3
9.485	81533.4
9.490	81620.7
9.495	81694.1
9.500	81778.6
9.505	81823.4
9.510	81851.2
9.515	81862.2
9.520	81863.1
9.525	81868.1
9.530	81866.1
9.535	81871.1
9.540	81873.1
9.545	81874.1
9.550	81861.1
9.555	81842.1
9.560	81830.1
9.565	81861.1
9.570	81867.1
9.575	81869.1
9.580	81863.1
9.585	81864.1
9.590	81871.1
9.595	81863.1
9.600	81869.1
9.605	81863.1
9.610	81883.1
9.615	81876.1
9.620	81852.1
9.625	81851.1
9.630	81865.1
9.635	81877.1
9.640	81886.1
9.645	81894.1
9.650	81893.1
9.655	81886.1
9.660	81889.1
9.665	81886.1
9.670	81887.1
9.675	81885.1
9.680	81896.1
9.685	81868.1
9.690	81860.1
9.695	81856.1
9.700	81880.1
9.705	81892.1
9.710	81896.1
9.715	81875.1
9.720	81886.1
9.725	81887.1
9.730	81895.1
9.735	81881.1
9.740	81897.1
9.745	81888.1
9.750	81889.1
9.755	81872.1
9.760	81867.1
9.765	81894.1
9.770	81898.0
9.775	81903.1
9.780	81904.0
9.785	81896.1
9.790	81901.0
9.795	81889.1
9.800	81877.1
9.805	81883.1
9.810	81890.1
9.815	81875.1
9.820	81854.1
9.825	81846.1
9.830	81868.1
9.835	81887.1
9.840	81882.1
9.845	81896.0
9.850	81886.1
9.855	81871.1
9.860	81862.1
9.865	81869.1
9.870	81866.1
9.875	81870.1
9.880	81872.1
9.885	81849.1
9.890	81825.1
9.895	81823.1
9.900	81850.1
9.905	81843.1
9.910	81834.1
9.915	81836.1
9.920	81839.1
9.925	81824.1
9.930	81819.1
9.935	81812.1
9.940	81814.1
9.945	81818.1
9.950	81791.1
9.955	81766.1
9.960	81770.1
9.965	81801.1
9.970	81794.1
9.975	81796.1
9.980	81790.1
9.985	81791.1
9.990	81783.1
9.995	81775.1
10.000	81775.1
10.005	81767.1
10.010	81767.1
10.015	81763.1
10.020	81743.2
10.025	81732.2
10.030	81744.2
10.035	81759.1
10.040	81767.1
10.045	81758.1
10.050	81756.2
10.055	81756.1
10.060	81739.2
10.065	81721.2
10.070	81714.2
10.075	81714.2
10.080	81722.2
10.085	81690.2
10.090	81684.2
10.095	81696.2
10.100	81714.2
10.105	81712.2
10.110	81708.2
10.115	81698.2
10.120	81710.2
10.125	81694.2
10.130	81697.2
10.135	81690.2
10.140	81694.2
10.145	81689.2
10.150	81689.2
10.155	81662.2
10.160	81649.2
10.165	81684.2
10.170	81684.2
10.175	81673.2
10.180	81666.2
10.185	81671.2
10.190	81676.2
10.195	81669.2
10.200	81666.2
10.205	81667.2
10.210	81664.2
10.215	81659.2
10.220	81636.2
10.225	81621.3
10.230	81645.2
10.235	81652.2
10.240	81652.2
10.245	81643.2
10.250	81652.2
10.255	81653.2
10.260	81665.2
10.265	81646.2
10.270	81655.2
10.275	81660.2
10.280	81673.2
10.285	81653.2
10.290	81639.2
10.295	81639.2
10.300	81677.2
10.305	81682.2
10.310	81688.2
10.315	81691.2
10.320	81686.2
10.325	81690.2
10.330	81692.2
10.335	81697.2
10.340	81706.2
10.345	81707.2
10.350	81701.2
10.355	81683.2
10.360	81689.2
10.365	81725.2
10.370	81733.2
10.375	81724.2
10.380	81714.2
10.385	81712.2
10.390	81725.2
10.395	81720.2
10.400	81724.2
10.405	81721.2
10.410	81745.1
10.415	81748.1
10.420	81725.2
10.425	81704.2
10.430	81742.1
10.435	81762.1
10.440	81766.1
10.445	81764.1
10.450	81776.1
10.455	81771.1
10.460	81772.1
10.465	81775.1
10.470	81783.1
10.475	81780.1
10.480	81768.1
10.485	81740.1
10.490	81734.2
10.495	81744.1
10.500	81767.1
10.505	81767.1
10.510	81770.1
10.515	81757.1
10.520	81757.1
10.525	81768.1
10.530	81782.1
10.535	81781.1
10.540	81798.1
10.545	81802.1
10.550	81796.1
10.555	81779.1
10.560	81792.1
10.565	81812.1
10.570	81820.1
10.575	81820.1
10.580	81820.1
10.585	81810.1
10.590	81818.1
10.595	81810.1
10.600	81815.1
10.605	81809.1
10.610	81812.1
10.615	81809.1
10.620	81792.1
10.625	81793.1
10.630	81826.1
10.635	81834.1
10.640	81825.1
10.645	81827.1
10.650	81827.1
10.655	81828.1
10.660	81825.1
10.665	81823.1
10.670	81819.1
10.675	81818.1
10.680	81833.1
10.685	81804.1
10.690	81785.1
10.695	81799.1
10.700	81835.1
10.705	81832.1
10.710	81840.1
10.715	81832.1
10.720	81831.1
10.725	81831.1
10.730	81827.1
10.735	81823.1
10.740	81823.1
10.745	81832.1
10.750	81810.1
10.755	81797.1
10.760	81799.1
10.765	81823.1
10.770	81830.1
10.775	81835.1
10.780	81829.1
10.785	81818.1
10.790	81813.1
10.795	81820.1
10.800	81814.1
10.805	81829.1
10.810	81834.1
10.815	81827.1
10.820	81798.1
10.825	81792.1
10.830	81819.1
10.835	81840.1
10.840	81850.1
10.845	81839.1
10.850	81845.1
10.855	81841.1
10.860	81833.1
10.865	81834.1
10.870	81830.1
10.875	81832.1
10.880	81840.1
10.885	81816.1
10.890	81797.1
10.895	81804.1
10.900	81836.1
10.905	81839.1
10.910	81838.1
10.915	81834.1
10.920	81828.1
10.925	81821.1
10.930	81818.1
10.935	81814.1
10.940	81813.1
10.945	81824.1
10.950	81817.1
10.955	81792.1
10.960	81784.1
10.965	81814.1
10.970	81829.1
10.975	81820.1
10.980	81809.1
10.985	81813.1
10.990	81799.1
10.995	81799.1
11.000	81803.1
11.005	81801.1
11.010	81808.1
11.015	81785.1
11.020	81762.1
11.025	81762.1
11.030	81780.1
11.035	81785.1
11.040	81789.1
11.045	81781.1
11.050	81774.1
11.055	81782.1
11.060	81792.1
11.065	81775.1
11.070	81780.1
11.075	81799.1
11.080	81808.1
11.085	81776.1
11.090	81754.1
11.095	81765.1
11.100	81784.1
11.105	81780.1
11.110	81794.1
11.115	81788.1
11.120	81783.1
11.125	81770.1
11.130	81770.1
11.135	81773.1
11.140	81769.1
11.145	81760.1
11.150	81749.1
11.155	81717.1
11.160	81725.1
11.165	81753.1
11.170	81737.1
11.175	81727.1
11.180	81721.1
11.185	81728.1
11.190	81714.1
11.195	81716.1
11.200	81710.1
11.205	81709.1
11.210	81709.1
11.215	81717.1
11.220	81701.2
11.225	81677.2
11.230	81714.1
11.235	81710.1
11.240	81716.1
11.245	81713.1
11.250	81719.1
11.255	81709.1
11.260	81708.1
11.265	81698.2
11.270	81693.2
11.275	81689.2
11.280	81699.2
11.285	81676.2
11.290	81664.2
11.295	81678.2
11.300	81700.1
11.305	81696.2
11.310	81687.2
11.315	81684.2
11.320	81689.2
11.325	81678.2
11.330	81687.2
11.335	81683.2
11.340	81685.2
11.345	81688.2
11.350	81683.2
11.355	81662.2
11.360	81661.2
11.365	81693.2
11.370	81692.2
11.375	81690.2
11.380	81693.1
11.385	81692.2
11.390	81698.1
11.395	81690.2
11.400	81691.2
11.405	81688.2
11.410	81690.2
11.415	81689.2
11.420	81659.2
11.425	81660.2
11.430	81690.2
11.435	81700.1
11.440	81701.1
11.445	81691.2
11.450	81699.1
11.455	81688.2
11.460	81688.2
11.465	81695.1
11.470	81703.1
11.475	81706.1
11.480	81718.1
11.485	81695.1
11.490	81686.2
11.495	81688.1
11.500	81705.1
11.505	81716.1
11.510	81723.1
11.515	81719.1
11.520	81720.1
11.525	81720.1
11.530	81721.1
11.535	81719.1
11.540	81722.1
11.545	81719.1
11.550	81689.2
11.555	81677.2
11.560	81688.2
11.565	81704.1
11.570	81716.1
11.575	81706.1
11.580	81716.1
11.585	81712.1
11.590	81714.1
11.595	81711.1
11.600	81702.1
11.605	81707.1
11.610	81718.1
11.615	81709.1
11.620	81693.1
11.625	81691.1
11.630	81712.1
11.635	81710.1
11.640	81728.1
11.645	81713.1
11.650	81717.1
11.655	81715.1
11.660	81718.1
11.665	81713.1
11.670	81713.1
11.675	81719.1
11.680	81726.1
11.685	81688.1
11.690	81681.2
11.695	81705.1
11.700	81728.1
11.705	81717.1
11.710	81724.1
11.715	81713.1
11.720	81717.1
11.725	81714.1
11.730	81701.1
11.735	81708.1
11.740	81720.1
11.745	81726.1
11.750	81702.1
11.755	81679.2
11.760	81685.1
11.765	81704.1
11.770	81710.1
11.775	81718.1
11.780	81724.1
11.785	81719.1
11.790	81722.1
11.795	81713.1
11.800	81717.1
11.805	81716.1
11.810	81716.1
11.815	81680.1
11.820	81662.2
11.825	81659.2
11.830	81700.1
11.835	81683.1
11.840	81688.1
11.845	81686.1
11.850	81686.1
11.855	81693.1
11.860	81690.1
11.865	81695.1
11.870	81690.1
11.875	81702.1
11.880	81699.1
11.885	81678.1
11.890	81657.2
11.895	81681.1
11.900	81692.1
11.905	81687.1
11.910	81691.1
11.915	81692.1
11.920	81693.1
11.925	81689.1
11.930	81688.1
11.935	81701.1
11.940	81699.1
11.945	81692.1
11.950	81669.2
11.955	81655.2
11.960	81665.2
11.965	81677.1
11.970	81675.1
11.975	81673.1
11.980	81683.1
11.985	81677.1
11.990	81672.1
11.995	81679.1
12.000	81680.1
12.005	81681.1
12.010	81683.1
12.015	81678.1
12.020	81659.2
12.025	81644.2
12.030	81693.1
12.035	81685.1
12.040	81689.1
12.045	81681.1
12.050	81676.1
12.055	81678.1
12.060	81682.1
12.065	81672.1
12.070	81671.1
12.075	81670.2
12.080	81677.1
12.085	81640.2
12.090	81636.2
12.095	81661.2
12.100	81669.1
12.105	81669.1
12.110	81670.1
12.115	81668.2
12.120	81665.1
12.125	81667.1
12.130	81666.1
12.135	81673.1
12.140	81673.1
12.145	81679.1
12.150	81665.2
12.155	81644.2
12.160	81660.2
12.165	81680.1
12.170	81696.1
12.175	81698.1
12.180	81691.1
12.185	81688.1
12.190	81686.1
12.195	81693.1
12.200	81696.1
12.205	81696.1
12.210	81700.1
12.215	81677.1
12.220	81658.2
12.225	81657.2
12.230	81693.1
12.235	81686.1
12.240	81687.1
12.245	81701.1
12.250	81689.1
12.255	81693.1
12.260	81693.1
12.265	81680.1
12.270	81695.1
12.275	81705.1
12.280	81706.1
12.285	81686.1
12.290	81676.1
12.295	81697.1
12.300	81711.1
12.305	81719.1
12.310	81731.1
12.315	81729.1
12.320	81730.1
12.325	81724.1
12.330	81728.1
12.335	81727.1
12.340	81739.1
12.345	81741.1
12.350	81728.1
12.355	81701.1
12.360	81731.1
12.365	81748.1
12.370	81760.1
12.375	81747.1
12.380	81751.1
12.385	81760.1
12.390	81753.1
12.395	81759.1
12.400	81768.1
12.405	81776.1
12.410	81781.1
12.415	81765.1
12.420	81749.1
12.425	81743.1
12.430	81790.0
12.435	81797.0
12.440	81801.0
12.445	81794.0
12.450	81803.0
12.455	81805.0
12.460	81805.0
12.465	81795.0
12.470	81812.0
12.475	81796.0
12.480	81796.0
12.485	81770.1
12.490	81780.0
12.495	81809.0
12.500	81824.0
12.505	81821.0
12.510	81827.0
12.515	81826.0
12.520	81829.0
12.525	81835.0
12.530	81835.0
12.535	81842.0
12.540	81852.0
12.545	81860.0
12.550	81833.0
12.555	81822.0
12.560	81837.0
12.565	81847.0
12.570	81863.0
12.575	81867.0
12.580	81875.0
12.585	81875.0
12.590	81880.0
12.595	81871.0
12.600	81879.0
12.605	81879.0
12.610	81885.0
12.615	81870.0
12.620	81849.0
12.625	81860.0
12.630	81896.0
12.635	81882.0
12.640	81890.0
12.645	81892.0
12.650	81896.0
12.655	81886.0
12.660	81900.9
12.665	81899.0
12.670	81908.9
12.675	81915.9
12.680	81909.9
12.685	81889.0
12.690	81878.0
12.695	81913.9
12.700	81926.9
12.705	81930.9
12.710	81925.9
12.715	81932.9
12.720	81929.9
12.725	81922.9
12.730	81933.9
12.735	81941.9
12.740	81931.9
12.745	81932.9
12.750	81915.9
12.755	81904.9
12.760	81926.9
12.765	81945.9
12.770	81947.9
12.775	81934.9
12.780	81935.9
12.785	81941.9
12.790	81941.9
12.795	81942.9
12.800	81951.9
12.805	81962.9
12.810	81959.9
12.815	81948.9
12.820	81943.9
12.825	81944.9
12.830	81971.9
12.835	81971.9
12.840	81974.9
12.845	81971.9
12.850	81983.9
12.855	81974.9
12.860	81974.9
12.865	81970.9
12.870	81978.9
12.875	81976.9
12.880	81959.9
12.885	81953.9
12.890	81954.9
12.895	81981.9
12.900	81982.9
12.905	81984.9
12.910	81990.9
12.915	81980.9
12.920	81983.9
12.925	81984.9
12.930	81982.9
12.935	81986.9
12.940	81986.9
12.945	81995.9
12.950	81970.9
12.955	81966.9
12.960	81976.9
12.965	81998.9
12.970	82007.9
12.975	81996.9
12.980	82000.9
12.985	82007.9
12.990	82002.9
12.995	82001.9
13.000	82003.9
13.005	82012.8
13.010	82006.9
13.015	81985.9
13.020	81974.9
13.025	81979.9
13.030	82014.8
13.035	82014.8
13.040	82004.9
13.045	82000.9
13.050	82012.8
13.055	81999.9
13.060	82011.8
13.065	82009.9
13.070	82018.8
13.075	82025.8
13.080	82019.8
13.085	81999.9
13.090	81989.9
13.095	82027.8
13.100	82033.8
13.105	82030.8
13.110	82031.8
13.115	82026.8
13.120	82029.8
13.125	82016.8
13.130	82037.8
13.135	82023.8
13.140	82030.8
13.145	82018.8
13.150	81999.9
13.155	81987.9
13.160	82008.8
13.165	82022.8
13.170	82021.8
13.175	82008.8
13.180	82017.8
13.185	82020.8
13.190	82026.8
13.195	82014.8
13.200	82023.8
13.205	82032.8
13.210	82034.8
13.215	82014.8
13.220	81992.9
13.225	81996.9
13.230	82017.8
13.235	82015.8
13.240	82021.8
13.245	82022.8
13.250	82020.8
13.255	82004.8
13.260	82012.8
13.265	82022.8
13.270	82015.8
13.275	82007.8
13.280	81983.9
13.285	81967.9
13.290	81966.9
13.295	81997.9
13.300	81993.9
13.305	81983.9
13.310	81975.9
13.315	81963.9
13.320	81967.9
13.325	81969.9
13.330	81980.9
13.335	81966.9
13.340	81974.9
13.345	81978.9
13.350	81964.9
13.355	81929.9
13.360	81954.9
13.365	81967.9
13.370	81973.9
13.375	81964.9
13.380	81962.9
13.385	81953.9
13.390	81952.9
13.395	81954.9
13.400	81952.9
13.405	81951.9
13.410	81942.9
13.415	81906.9
13.420	81896.9
13.425	81913.9
13.430	81927.9
13.435	81922.9
13.440	81926.9
13.445	81924.9
13.450	81925.9
13.455	81916.9
13.460	81918.9
13.465	81908.9
13.470	81922.9
13.475	81935.9
13.480	81929.9
13.485	81887.9
13.490	81879.9
13.495	81921.9
13.500	81918.9
13.505	81920.9
13.510	81935.9
13.515	81918.9
13.520	81913.9
13.525	81903.9
13.530	81905.9
13.535	81909.9
13.540	81921.9
13.545	81904.9
13.550	81878.9
13.555	81881.9
13.560	81906.9
13.565	81909.9
13.570	81906.9
13.575	81902.9
13.580	81905.9
13.585	81897.9
13.590	81902.9
13.595	81888.9
13.600	81893.9
13.605	81901.9
13.610	81919.9
13.615	81890.9
13.620	81864.9
13.625	81879.9
13.630	81916.9
13.635	81913.9
13.640	81905.9
13.645	81903.9
13.650	81909.9
13.655	81909.9
13.660	81906.9
13.665	81910.9
13.670	81914.9
13.675	81908.9
13.680	81894.9
13.685	81871.9
13.690	81885.9
13.695	81930.9
13.700	81912.9
13.705	81907.9
13.710	81909.9
13.715	81907.9
13.720	81915.9
13.725	81906.9
13.730	81911.9
13.735	81918.9
13.740	81935.9
13.745	81920.9
13.750	81903.9
13.755	81900.9
13.760	81935.9
13.765	81928.9
13.770	81944.9
13.775	81947.9
13.780	81948.9
13.785	81942.9
13.790	81940.9
13.795	81941.9
13.800	81951.9
13.805	81952.9
13.810	81947.9
13.815	81932.9
13.820	81920.9
13.825	81930.9
13.830	81948.9
13.835	81956.9
13.840	81957.9
13.845	81955.9
13.850	81957.9
13.855	81962.8
13.860	81963.8
13.865	81965.8
13.870	81976.8
13.875	81989.8
13.880	81983.8
13.885	81966.8
13.890	81952.9
13.895	81993.8
13.900	82004.8
13.905	82004.8
13.910	82000.8
13.915	81996.8
13.920	82004.8
13.925	81991.8
13.930	81999.8
13.935	82011.8
13.940	82010.8
13.945	81990.8
13.950	81968.8
13.955	81968.8
13.960	82004.8
13.965	82009.8
13.970	82002.8
13.975	81996.8
13.980	82007.8
13.985	82001.8
13.990	82004.8
13.995	82009.8
14.000	82016.8
14.005	82010.8
14.010	82022.8
14.015	81994.8
14.020	81992.8
14.025	81992.8
14.030	82024.8
14.035	82018.8
14.040	82035.8
14.045	82022.8
14.050	82022.8
14.055	82021.8
14.060	82022.8
14.065	82013.8
14.070	82007.8
14.075	82008.8
14.080	81994.8
14.085	81978.8
14.090	81991.8
14.095	82021.8
14.100	82013.8
14.105	82007.8
14.110	82008.8
14.115	82003.8
14.120	82006.8
14.125	82012.8
14.130	82013.8
14.135	82023.8
14.140	82025.8
14.145	82021.8
14.150	82002.8
14.155	81982.8
14.160	82016.8
14.165	82032.8
14.170	82031.8
14.175	82031.8
14.180	82038.8
14.185	82022.8
14.190	82018.8
14.195	82012.8
14.200	82021.8
14.205	82030.8
14.210	82019.8
14.215	81984.8
14.220	81991.8
14.225	82003.8
14.230	82028.8
14.235	82027.8
14.240	82027.8
14.245	82007.8
14.250	82027.8
14.255	82017.8
14.260	82017.8
14.265	82011.8
14.270	82034.8
14.275	82022.8
14.280	82015.8
14.285	81997.8
14.290	81990.8
14.295	82027.8
14.300	82042.8
14.305	82028.8
14.310	82038.8
14.315	82026.8
14.320	82027.8
14.325	82024.8
14.330	82030.8
14.335	82024.8
14.340	82026.8
14.345	82008.8
14.350	81998.8
14.355	81986.8
14.360	82020.8
14.365	82019.8
14.370	82021.8
14.375	82020.8
14.380	82011.8
14.385	82008.8
14.390	82015.8
14.395	82004.8
14.400	82016.8
14.405	82028.8
14.410	82038.8
14.415	81997.8
14.420	81988.8
14.425	81996.8
14.430	82020.8
14.435	82016.8
14.440	82030.8
14.445	82025.8
14.450	82018.8
14.455	82017.8
14.460	82014.8
14.465	82007.8
14.470	82019.8
14.475	82021.8
14.480	81990.8
14.485	81979.8
14.490	81982.8
14.495	82014.8
14.500	82017.8
14.505	82009.8
14.510	82008.8
14.515	82007.8
14.520	81994.8
14.525	82002.8
14.530	82002.8
14.535	82001.8
14.540	82016.8
14.545	81998.8
14.550	81987.8
14.555	81977.8
14.560	82011.8
14.565	82014.8
14.570	82021.8
14.575	82005.8
14.580	82008.8
14.585	82002.8
14.590	82001.8
14.595	82008.8
14.600	82019.8
14.605	82006.8
14.610	82001.8
14.615	81974.8
14.620	81966.8
14.625	81976.8
14.630	81993.8
14.635	81999.8
14.640	81995.8
14.645	81993.8
14.650	81993.8
14.655	81991.8
14.660	81987.8
14.665	81981.8
14.670	81995.8
14.675	81996.8
14.680	81986.8
14.685	81954.8
14.690	81964.8
14.695	81987.8
14.700	81996.8
14.705	81982.8
14.710	81987.8
14.715	81985.8
14.720	81991.8
14.725	81979.8
14.730	81979.8
14.735	81978.8
14.740	81978.8
14.745	81964.8
14.750	81932.8
14.755	81936.8
14.760	81960.8
14.765	81959.8
14.770	81964.8
14.775	81965.8
14.780	81951.8
14.785	81957.8
14.790	81954.8
14.795	81932.8
14.800	81939.8
14.805	81943.8
14.810	81954.8
14.815	81922.8
14.820	81904.8
14.825	81921.8
14.830	81929.8
14.835	81927.8
14.840	81924.8
14.845	81926.8
14.850	81921.8
14.855	81925.8
14.860	81920.8
14.865	81911.8
14.870	81906.8
14.875	81906.8
14.880	81880.9
14.885	81852.9
14.890	81855.9
14.895	81882.8
14.900	81883.8
14.905	81876.9
14.910	81867.9
14.915	81884.8
14.920	81866.9
14.925	81861.9
14.930	81863.9
14.935	81862.9
14.940	81864.9
14.945	81856.9
14.950	81843.9
14.955	81838.9
14.960	81866.9
14.965	81867.9
14.970	81874.9
14.975	81880.8
14.980	81878.9
14.985	81864.9
14.990	81864.9
14.995	81865.9
15.000	81861.9
15.005	81859.9
15.010	81865.9
15.015	81843.9
15.020	81844.9
15.025	81857.9
15.030	81879.8
15.035	81884.8
15.040	81883.8
15.045	81882.8
15.050	81882.8
15.055	81892.8
15.060	81889.8
15.065	81891.8
15.070	81891.8
15.075	81905.8
15.080	81885.8
15.085	81855.9
15.090	81872.9
15.095	81907.8
15.100	81917.8
15.105	81911.8
15.110	81910.8
15.115	81899.8
15.120	81922.8
15.125	81904.8
15.130	81909.8
15.135	81908.8
15.140	81915.8
15.145	81889.8
15.150	81879.8
15.155	81874.8
15.160	81914.8
15.165	81921.8
15.170	81903.8
15.175	81903.8
15.180	81902.8
15.185	81905.8
15.190	81912.8
15.195	81895.8
15.200	81909.8
15.205	81926.8
15.210	81911.8
15.215	81877.8
15.220	81873.8
15.225	81882.8
15.230	81898.8
15.235	81896.8
15.240	81906.8
15.245	81895.8
15.250	81898.8
15.255	81891.8
15.260	81895.8
15.265	81881.8
15.270	81881.8
15.275	81880.8
15.280	81855.8
15.285	81835.9
15.290	81851.9
15.295	81864.8
15.300	81870.8
15.305	81857.8
15.310	81864.8
15.315	81871.8
15.320	81869.8
15.325	81855.8
15.330	81849.9
15.335	81846.9
15.340	81852.8
15.345	81835.9
15.350	81823.9
15.355	81813.9
15.360	81837.9
15.365	81846.9
15.370	81846.8
15.375	81843.9
15.380	81839.9
15.385	81832.9
15.390	81824.9
15.395	81823.9
15.400	81823.9
15.405	81815.9
15.410	81809.9
15.415	81783.9
15.420	81775.9
15.425	81791.9
15.430	81790.9
15.435	81805.9
15.440	81804.9
15.445	81790.9
15.450	81790.9
15.455	81791.9
15.460	81792.9
15.465	81786.9
15.470	81787.9
15.475	81800.9
15.480	81782.9
15.485	81754.9
15.490	81760.9
15.495	81786.9
15.500	81792.9
15.505	81782.9
15.510	81784.9
15.515	81765.9
15.520	81765.9
15.525	81774.9
15.530	81774.9
15.535	81774.9
15.540	81782.9
15.545	81755.9
15.550	81741.9
15.555	81755.9
15.560	81778.9
15.565	81776.9
15.570	81767.9
15.575	81770.9
15.580	81771.9
15.585	81767.9
15.590	81786.9
15.595	81770.9
15.600	81779.9
15.605	81785.9
15.610	81779.9
15.615	81758.9
15.620	81742.9
15.625	81762.9
15.630	81792.9
15.635	81791.9
15.640	81790.9
15.645	81794.9
15.650	81799.9
15.655	81783.9
15.660	81790.9
15.665	81785.9
15.670	81780.9
15.675	81785.9
15.680	81765.9
15.685	81752.9
15.690	81770.9
15.695	81788.9
15.700	81798.9
15.705	81800.9
15.710	81796.9
15.715	81797.9
15.720	81802.9
15.725	81801.9
15.730	81811.9
15.735	81807.9
15.740	81825.8
15.745	81810.9
15.750	81792.9
15.755	81800.9
15.760	81831.8
15.765	81831.8
15.770	81827.8
15.775	81832.8
15.780	81835.8
15.785	81831.8
15.790	81839.8
15.795	81827.8
15.800	81826.8
15.805	81827.8
15.810	81826.8
15.815	81795.9
15.820	81795.9
15.825	81821.8
15.830	81834.8
15.835	81820.8
15.840	81816.8
15.845	81830.8
15.850	81829.8
15.855	81844.8
15.860	81831.8
15.865	81843.8
15.870	81856.8
15.875	81850.8
15.880	81835.8
15.885	81808.8
15.890	81825.8
15.895	81853.8
15.900	81859.8
15.905	81854.8
15.910	81854.8
15.915	81842.8
15.920	81857.8
15.925	81860.8
15.930	81852.8
15.935	81862.8
15.940	81868.8
15.945	81842.8
15.950	81842.8
15.955	81848.8
15.960	81859.8
15.965	81859.8
15.970	81846.8
15.975	81843.8
15.980	81850.8
15.985	81853.8
15.990	81851.8
15.995	81850.8
16.000	81844.8
16.005	81862.8
16.010	81866.8
16.015	81829.8
16.020	81824.8
16.025	81861.8
16.030	81864.8
16.035	81863.8
16.040	81862.8
16.045	81860.8
16.050	81868.8
16.055	81859.8
16.060	81861.8
16.065	81855.8
16.070	81862.8
16.075	81850.8
16.080	81825.8
16.085	81814.8
16.090	81837.8
16.095	81847.8
16.100	81850.8
16.105	81847.8
16.110	81839.8
16.115	81828.8
16.120	81834.8
16.125	81831.8
16.130	81840.8
16.135	81838.8
16.140	81851.8
16.145	81819.8
16.150	81810.8
16.155	81800.8
16.160	81845.8
16.165	81848.8
16.170	81838.8
16.175	81830.8
16.180	81833.8
16.185	81834.8
16.190	81833.8
16.195	81826.8
16.200	81836.8
16.205	81824.8
16.210	81825.8
16.215	81806.8
16.220	81803.8
16.225	81828.8
16.230	81841.8
16.235	81831.8
16.240	81842.8
16.245	81837.8
16.250	81837.8
16.255	81844.8
16.260	81843.8
16.265	81848.8
16.270	81832.8
16.275	81828.8
16.280	81809.8
16.285	81808.8
16.290	81821.8
16.295	81839.8
16.300	81833.8
16.305	81831.8
16.310	81834.8
16.315	81829.8
16.320	81817.8
16.325	81832.8
16.330	81836.8
16.335	81819.8
16.340	81819.8
16.345	81790.8
16.350	81778.8
16.355	81789.8
16.360	81827.8
16.365	81795.8
16.370	81808.8
16.375	81814.8
16.380	81796.8
16.385	81794.8
16.390	81791.8
16.395	81787.8
16.400	81810.8
16.405	81806.8
16.410	81785.8
16.415	81767.8
16.420	81763.8
16.425	81795.8
16.430	81800.8
16.435	81797.8
16.440	81797.8
16.445	81790.8
16.450	81787.8
16.455	81782.8
16.460	81784.8
16.465	81781.8
16.470	81784.8
16.475	81778.8
16.480	81747.9
16.485	81729.9
16.490	81765.8
16.495	81787.8
16.500	81790.8
16.505	81767.8
16.510	81764.8
16.515	81769.8
16.520	81779.8
16.525	81770.8
16.530	81783.8
16.535	81786.8
16.540	81797.8
16.545	81778.8
16.550	81757.8
16.555	81776.8
16.560	81803.8
16.565	81794.8
16.570	81804.8
16.575	81797.8
16.580	81799.8
16.585	81808.8
16.590	81810.8
16.595	81796.8
16.600	81807.8
16.605	81809.8
16.610	81812.8
16.615	81768.8
16.620	81777.8
16.625	81802.8
16.630	81815.8
16.635	81808.8
16.640	81810.8
16.645	81812.8
16.650	81802.8
16.655	81790.8
16.660	81795.8
16.665	81821.8
16.670	81830.8
16.675	81820.8
16.680	81792.8
16.685	81777.8
16.690	81791.8
16.695	81811.8
16.700	81812.8
16.705	81816.8
16.710	81808.8
16.715	81790.8
16.720	81790.8
16.725	81779.8
16.730	81792.8
16.735	81785.8
16.740	81783.8
16.745	81749.8
16.750	81747.8
16.755	81746.8
16.760	81775.8
16.765	81759.8
16.770	81768.8
16.775	81753.8
16.780	81756.8
16.785	81745.8
16.790	81740.8
16.795	81739.8
16.800	81735.8
16.805	81737.8
16.810	81710.9
16.815	81689.9
16.820	81689.9
16.825	81711.9
16.830	81709.9
16.835	81707.9
16.840	81694.9
16.845	81686.9
16.850	81689.9
16.855	81690.9
16.860	81688.9
16.865	81682.9
16.870	81672.9
16.875	81649.9
16.880	81614.9
16.885	81607.9
16.890	81640.9
16.895	81638.9
16.900	81637.9
16.905	81627.9
16.910	81618.9
16.915	81616.9
16.920	81601.9
16.925	81584.9
16.930	81577.9
16.935	81578.9
16.940	81574.9
16.945	81542.0
16.950	81519.0
16.955	81522.0
16.960	81542.0
16.965	81539.0
16.970	81533.0
16.975	81539.0
16.980	81545.0
16.985	81535.0
16.990	81532.0
16.995	81534.0
17.000	81537.0
17.005	81530.0
17.010	81501.0
17.015	81476.0
17.020	81493.0
17.025	81535.0
17.030	81543.0
17.035	81529.0
17.040	81538.0
17.045	81548.0
17.050	81540.0
17.055	81555.9
17.060	81550.9
17.065	81538.0
17.070	81548.9
17.075	81548.9
17.080	81526.0
17.085	81525.0
17.090	81554.9
17.095	81568.9
17.100	81574.9
17.105	81575.9
17.110	81592.9
17.115	81600.9
17.120	81602.9
17.125	81606.9
17.130	81616.9
17.135	81613.9
17.140	81619.9
17.145	81582.9
17.150	81570.9
17.155	81598.9
17.160	81624.9
17.165	81619.9
17.170	81611.9
17.175	81602.9
17.180	81600.9
17.185	81613.9
17.190	81622.9
17.195	81621.9
17.200	81630.9
17.205	81640.9
17.210	81622.9
17.215	81596.9
17.220	81590.9
17.225	81625.9
17.230	81642.9
17.235	81650.9
17.240	81642.9
17.245	81637.9
17.250	81650.9
17.255	81648.9
17.260	81652.9
17.265	81647.9
17.270	81642.9
17.275	81628.9
17.280	81610.9
17.285	81609.9
17.290	81646.9
17.295	81634.9
17.300	81637.9
17.305	81622.9
17.310	81625.9
17.315	81622.9
17.320	81629.9
17.325	81626.9
17.330	81627.9
17.335	81628.9
17.340	81635.9
17.345	81603.9
17.350	81598.9
17.355	81622.9
17.360	81636.9
17.365	81630.9
17.370	81631.9
17.375	81636.9
17.380	81632.9
17.385	81630.9
17.390	81624.9
17.395	81616.9
17.400	81619.9
17.405	81624.9
17.410	81595.9
17.415	81570.9
17.420	81579.9
17.425	81604.9
17.430	81619.9
17.435	81606.9
17.440	81601.9
17.445	81604.9
17.450	81602.9
17.455	81592.9
17.460	81595.9
17.465	81590.9
17.470	81609.9
17.475	81611.9
17.480	81591.9
17.485	81590.9
17.490	81616.9
17.495	81619.9
17.500	81627.9
17.505	81624.9
17.510	81625.8
17.515	81629.8
17.520	81631.8
17.525	81626.8
17.530	81636.8
17.535	81626.8
17.540	81638.8
17.545	81610.9
17.550	81606.9
17.555	81622.8
17.560	81634.8
17.565	81641.8
17.570	81643.8
17.575	81633.8
17.580	81641.8
17.585	81636.8
17.590	81640.8
17.595	81635.8
17.600	81656.8
17.605	81647.8
17.610	81634.8
17.615	81596.9
17.620	81611.8
17.625	81620.8
17.630	81630.8
17.635	81628.8
17.640	81626.8
17.645	81626.8
17.650	81629.8
17.655	81626.8
17.660	81630.8
17.665	81625.8
17.670	81639.8
17.675	81613.8
17.680	81603.8
17.685	81595.8
17.690	81634.8
17.695	81628.8
17.700	81623.8
17.705	81627.8
17.710	81630.8
17.715	81639.8
17.720	81643.8
17.725	81635.8
17.730	81632.8
17.735	81641.8
17.740	81653.8
17.745	81634.8
17.750	81625.8
17.755	81655.8
17.760	81671.8
17.765	81656.8
17.770	81668.8
17.775	81667.8
17.780	81669.8
17.785	81678.8
17.790	81685.8
17.795	81683.8
17.800	81672.8
17.805	81685.8
17.810	81662.8
17.815	81649.8
17.820	81669.8
17.825	81689.8
17.830	81697.8
17.835	81706.7
17.840	81714.7
17.845	81703.7
17.850	81710.7
17.855	81708.7
17.860	81725.7
17.865	81734.7
17.870	81736.7
17.875	81736.7
17.880	81726.7
17.885	81727.7
17.890	81768.7
17.895	81769.7
17.900	81779.7
17.905	81788.7
17.910	81798.7
17.915	81788.7
17.920	81776.7
17.925	81791.7
17.930	81806.7
17.935	81809.7
17.940	81809.7
17.945	81782.7
17.950	81776.7
17.955	81807.7
17.960	81827.6
17.965	81829.6
17.970	81832.6
17.975	81825.6
17.980	81824.6
17.985	81835.6
17.990	81836.6
17.995	81836.6
18.000	81843.6
18.005	81842.6
18.010	81822.6
18.015	81809.6
18.020	81810.6
18.025	81826.6
18.030	81816.6
18.035	81822.6
18.040	81825.6
18.045	81824.6
18.050	81814.6
18.055	81803.6
18.060	81807.6
18.065	81816.6
18.070	81825.6
18.075	81808.6
18.080	81773.7
18.085	81761.7
18.090	81802.6
18.095	81807.6
18.100	81790.7
18.105	81767.7
18.110	81775.7
18.115	81774.7
18.120	81776.7
18.125	81777.7
18.130	81780.7
18.135	81770.7
18.140	81764.7
18.145	81745.7
18.150	81740.7
18.155	81755.7
18.160	81767.7
18.165	81762.7
18.170	81766.7
18.175	81768.7
18.180	81772.7
18.185	81772.7
18.190	81772.6
18.195	81766.7
18.200	81770.7
18.205	81766.7
18.210	81749.7
18.215	81741.7
18.220	81753.7
18.225	81780.6
18.230	81773.6
18.235	81751.7
18.240	81754.7
18.245	81757.7
18.250	81763.7
18.255	81748.7
18.260	81746.7
18.265	81729.7
18.270	81741.7
18.275	81730.7
18.280	81722.7
18.285	81718.7
18.290	81749.7
18.295	81741.7
18.300	81724.7
18.305	81732.7
18.310	81732.7
18.315	81731.7
18.320	81728.7
18.325	81715.7
18.330	81722.7
18.335	81710.7
18.340	81706.7
18.345	81689.7
18.350	81690.7
18.355	81712.7
18.360	81729.7
18.365	81710.7
18.370	81723.7
18.375	81707.7
18.380	81704.7
18.385	81711.7
18.390	81712.7
18.395	81711.7
18.400	81711.7
18.405	81717.7
18.410	81703.7
18.415	81680.7
18.420	81694.7
18.425	81722.7
18.430	81726.7
18.435	81727.6
18.440	81723.7
18.445	81717.7
18.450	81727.6
18.455	81701.7
18.460	81708.7
18.465	81698.7
18.470	81698.7
18.475	81676.7
18.480	81666.7
18.485	81672.7
18.490	81698.7
18.495	81684.7
18.500	81675.7
18.505	81670.7
18.510	81667.7
18.515	81672.7
18.520	81670.7
18.525	81657.7
18.530	81666.7
18.535	81649.7
18.540	81652.7
18.545	81628.7
18.550	81621.7
18.555	81626.7
18.560	81635.7
18.565	81619.7
18.570	81623.7
18.575	81615.7
18.580	81603.7
18.585	81611.7
18.590	81608.7
18.595	81588.7
18.600	81573.7
18.605	81571.7
18.610	81554.8
18.615	81551.8
18.620	81558.8
18.625	81569.7
18.630	81575.7
18.635	81556.7
18.640	81558.7
18.645	81557.7
18.650	81564.7
18.655	81543.8
18.660	81545.8
18.665	81546.8
18.670	81560.7
18.675	81555.7
18.680	81526.8
18.685	81534.8
18.690	81563.7
18.695	81564.7
18.700	81558.7
18.705	81543.7
18.710	81530.8
18.715	81538.7
18.720	81533.7
18.725	81529.8
18.730	81544.7
18.735	81533.7
18.740	81528.8
18.745	81471.8
18.750	81462.8
18.755	81499.8
18.760	81517.8
18.765	81516.8
18.770	81508.8
18.775	81490.8
18.780	81489.8
18.785	81495.8
18.790	81509.8
18.795	81513.8
18.800	81522.7
18.805	81510.8
18.810	81477.8
18.815	81466.8
18.820	81476.8
18.825	81506.7
18.830	81516.7
18.835	81516.7
18.840	81509.7
18.845	81516.7
18.850	81504.8
18.855	81495.8
18.860	81495.8
18.865	81498.8
18.870	81487.8
18.875	81466.8
18.880	81439.8
18.885	81419.8
18.890	81446.8
18.895	81459.8
18.900	81468.8
18.905	81460.8
18.910	81463.8
18.915	81457.8
18.920	81437.8
18.925	81443.8
18.930	81428.8
18.935	81431.8
18.940	81408.8
18.945	81370.8
18.950	81348.8
18.955	81376.8
18.960	81379.8
18.965	81359.8
18.970	81342.8
18.975	81315.9
18.980	81321.9
18.985	81330.9
18.990	81327.9
18.995	81298.9
19.000	81321.9
19.005	81345.8
19.010	81336.8
19.015	81325.9
19.020	81342.8
19.025	81348.8
19.030	81332.8
19.035	81309.9
19.040	81308.9
19.045	81335.8
19.050	81374.8
19.055	81394.8
19.060	81412.8
19.065	81435.8
19.070	81462.7
19.075	81451.7
19.080	81436.8
19.085	81422.8
19.090	81452.7
19.095	81468.7
19.100	81482.7
19.105	81480.7
19.110	81481.7
19.115	81470.7
19.120	81470.7
19.125	81468.7
19.130	81481.7
19.135	81492.7
19.140	81475.7
19.145	81450.7
19.150	81454.7
19.155	81479.7
19.160	81485.7
19.165	81484.7
19.170	81500.7
19.175	81487.7
19.180	81486.7
19.185	81492.7
19.190	81489.7
19.195	81471.7
19.200	81476.7
19.205	81484.7
19.210	81462.7
19.215	81430.7
19.220	81452.7
19.225	81478.7
19.230	81476.7
19.235	81491.7
19.240	81491.7
19.245	81485.7
19.250	81466.7
19.255	81445.7
19.260	81441.7
19.265	81422.7
19.270	81413.7
19.275	81372.8
19.280	81342.8
19.285	81343.8
19.290	81363.8
19.295	81337.8
19.300	81317.8
19.305	81298.8
19.310	81292.8
19.315	81263.8
19.320	81251.8
19.325	81251.8
19.330	81274.8
19.335	81286.8
19.340	81292.8
19.345	81261.8
19.350	81261.8
19.355	81274.8
19.360	81284.8
19.365	81289.8
19.370	81283.8
19.375	81298.8
19.380	81316.8
19.385	81307.8
19.390	81321.8
19.395	81331.8
19.400	81337.8
19.405	81331.8
19.410	81319.8
19.415	81323.8
19.420	81350.7
19.425	81376.7
19.430	81395.7
19.435	81412.7
19.440	81431.7
19.445	81414.7
19.450	81426.7
19.455	81420.7
19.460	81438.7
19.465	81452.6
19.470	81458.6
19.475	81421.7
19.480	81405.7
19.485	81404.7
19.490	81436.6
19.495	81437.6
19.500	81450.6
19.505	81454.6
19.510	81465.6
19.515	81453.6
19.520	81456.6
19.525	81452.6
19.530	81461.6
19.535	81441.6
19.540	81428.6
19.545	81404.7
19.550	81412.6
19.555	81434.6
19.560	81436.6
19.565	81424.6
19.570	81426.6
19.575	81409.6
19.580	81387.7
19.585	81383.7
19.590	81375.7
19.595	81365.7
19.600	81369.7
19.605	81356.7
19.610	81334.7
19.615	81312.7
19.620	81350.7
19.625	81346.7
19.630	81343.7
19.635	81345.7
19.640	81345.7
19.645	81335.7
19.650	81312.7
19.655	81308.7
19.660	81301.7
19.665	81274.7
19.670	81278.7
19.675	81271.7
19.680	81250.7
19.685	81269.7
19.690	81276.7
19.695	81254.7
19.700	81278.7
19.705	81285.7
19.710	81278.7
19.715	81280.7
19.720	81296.7
19.725	81283.7
19.730	81256.7
19.735	81249.7
19.740	81236.7
19.745	81172.8
19.750	81174.8
19.755	81208.7
19.760	81217.7
19.765	81199.7
19.770	81178.8
19.775	81169.8
19.780	81174.8
19.785	81163.8
19.790	81152.8
19.795	81132.8
19.800	81122.8
19.805	81120.8
19.810	81108.8
19.815	81111.8
19.820	81141.8
19.825	81127.8
19.830	81123.8
19.835	81116.8
19.840	81136.8
19.845	81127.8
19.850	81121.8
19.855	81083.8
19.860	81058.8
19.865	81052.8
19.870	81069.8
19.875	81037.8
19.880	81025.8
19.885	81029.8
19.890	81045.8
19.895	81026.8
19.900	81030.8
19.905	81026.8
19.910	81022.8
19.915	81023.8
19.920	81012.8
19.925	81000.8
19.930	80998.8
19.935	81019.8
19.940	81010.8
19.945	81013.8
19.950	81034.8
19.955	81079.8
19.960	81095.7
19.965	81112.7
19.970	81130.7
19.975	81138.7
19.980	81149.7
19.985	81167.7
19.990	81188.7
19.995	81215.6
20.000	81238.6
20.005	81241.6
20.010	81225.6
20.015	81210.6
20.020	81247.6
20.025	81258.6
20.030	81260.6
20.035	81265.6
20.040	81263.6
20.045	81275.6
20.050	81281.6
20.055	81290.5
20.060	81292.5
20.065	81299.5
20.070	81305.5
20.075	81262.6
20.080	81247.6
20.085	81263.6
20.090	81297.5
20.095	81280.5
20.100	81280.5
20.105	81262.5
20.110	81258.5
20.115	81253.5
20.120	81253.5
20.125	81237.6
20.130	81255.5
20.135	81257.5
20.140	81232.5
20.145	81193.6
20.150	81184.6
20.155	81205.6
20.160	81203.6
20.165	81190.6
20.170	81201.6
20.175	81205.5
20.180	81207.5
20.185	81207.5
20.190	81198.6
20.195	81190.6
20.200	81183.6
20.205	81169.6
20.210	81151.6
20.215	81134.6
20.220	81152.6
20.225	81148.6
20.230	81140.6
20.235	81127.6
20.240	81129.6
20.245	81099.6
20.250	81093.6
20.255	81073.6
20.260	81060.6
20.265	81033.6
20.270	81032.6
20.275	81009.6
20.280	80981.7
20.285	80973.7
20.290	80965.7
20.295	80939.7
20.300	80931.7
20.305	80927.7
20.310	80915.7
20.315	80887.7
20.320	80856.7
20.325	80853.7
20.330	80878.7
20.335	80895.7
20.340	80884.7
20.345	80881.7
20.350	80896.7
20.355	80918.7
20.360	80919.7
20.365	80910.7
20.370	80920.7
20.375	80906.7
20.380	80887.7
20.385	80872.7
20.390	80873.7
20.395	80862.7
20.400	80846.7
20.405	80836.7
20.410	80817.7
20.415	80792.7
20.420	80810.7
20.425	80758.7
20.430	80717.8
20.435	80658.8
20.440	80630.8
20.445	80596.8
20.450	80579.9
20.455	80548.9
20.460	80522.9
20.465	80492.9
20.470	80478.9
20.475	80467.9
20.480	80475.9
20.485	80508.9
20.490	80520.9
20.495	80524.9
20.500	80526.9
20.505	80547.8
20.510	80557.8
20.515	80552.8
20.520	80597.8
20.525	80619.8
20.530	80651.7
20.535	80643.7
20.540	80622.7
20.545	80580.8
20.550	80565.8
20.555	80596.7
20.560	80573.8
20.565	80549.8
20.570	80536.8
20.575	80541.8
20.580	80545.8
20.585	80531.8
20.590	80502.8
20.595	80473.8
20.600	80458.8
20.605	80377.9
20.610	80298.9
20.615	80232.0
20.620	80213.0
20.625	80163.0
20.630	80155.0
20.635	80145.0
20.640	80130.0
20.645	80106.0
20.650	80112.0
20.655	80080.1
20.660	80051.1
20.665	80019.1
20.670	80016.1
20.675	80011.1
20.680	80049.0
20.685	80085.0
20.690	80137.0
20.695	80161.9
20.700	80183.9
20.705	80190.9
20.710	80211.9
20.715	80211.9
20.720	80198.9
20.725	80156.9
20.730	80101.9
20.735	80056.0
20.740	79986.0
20.745	79909.1
20.750	79868.1
20.755	79848.1
20.760	79786.1
20.765	79726.2
20.770	79646.2
20.775	79585.3
20.780	79591.3
20.785	79594.3
20.790	79607.2
20.795	79606.2
20.800	79580.3
20.805	79519.3
20.810	79418.4
20.815	79313.4
20.820	79310.4
20.825	79339.4
20.830	79375.4
20.835	79398.3
20.840	79446.3
20.845	79480.2
20.850	79485.2
20.855	79496.2
20.860	79526.2
20.865	79543.2
20.870	79553.1
20.875	79543.1
20.880	79532.1
20.885	79551.1
20.890	79582.1
20.895	79604.1
20.900	79640.0
20.905	79635.0
20.910	79603.0
20.915	79564.0
20.920	79563.0
20.925	79547.0
20.930	79537.0
20.935	79508.0
20.940	79409.1
20.945	79292.2
20.950	79198.2
20.955	79086.3
20.960	78952.4
20.965	78859.5
20.970	78806.5
20.975	78709.6
20.980	78662.6
20.985	78686.6
20.990	78754.5
20.995	78805.5
21.000	78889.4
21.005	79014.3
21.010	79154.1
21.015	79245.1
21.020	79226.1
21.025	79148.1
21.030	79065.2
21.035	78963.2
21.040	78743.4
21.045	78534.5
21.050	78417.6
21.055	78418.6
21.060	78505.5
21.065	78712.3
21.070	78880.2
21.075	78964.1
21.080	79075.0
21.085	79261.8
21.090	79512.6
21.095	79649.5
21.100	79751.4
21.105	79747.4
21.110	79610.5
21.115	79431.6
21.120	79276.7
21.125	79308.6
21.130	79430.5
21.135	79543.4
21.140	79638.3
21.145	79625.3
21.150	79475.4
21.155	79298.5
21.160	79232.5
21.165	79229.5
21.170	79212.5
21.175	79132.5
21.180	78910.6
21.185	78549.9
21.190	78220.1
21.195	77604.6
21.200	76640.3
21.205	76080.7
21.210	76272.5
21.215	76401.4
21.220	76501.3
21.225	77167.7
21.230	78398.7
21.235	78788.3
21.240	78377.6
21.245	78225.7
21.250	78307.5
21.255	78189.6
21.260	78056.6
21.265	78176.5
21.270	78293.3
21.275	77633.8
21.280	75815.2
21.285	74170.4
21.290	74149.3
21.295	74541.9
21.300	74054.2
21.305	73145.9
21.310	74042.0
21.315	76604.8
21.320	77568.0
21.325	77031.4
21.330	76451.7
21.335	76129.8
21.340	75779.0
21.345	75359.3
21.350	74885.7
21.355	74560.0
21.360	74618.0
21.365	74911.8
21.370	75121.8
21.375	75201.0
21.380	75335.2
21.385	75678.2
21.390	76317.1
21.395	77121.9
21.400	77949.7
21.405	78722.5
21.410	79507.4
21.415	80364.2
21.420	81206.0
21.425	81865.8
21.430	82344.7
21.435	82649.6
21.440	82829.5
21.445	82914.5
21.450	82970.4
21.455	82985.4
21.460	83009.4
21.465	83013.4
21.470	83034.4
21.475	82999.4
21.480	82992.5
21.485	83012.4
21.490	83038.4
21.495	83033.4
21.500	83039.4
21.505	83035.4
21.510	83033.4
21.515	83038.4
21.520	83040.4
21.525	83029.4
21.530	83030.4
21.535	83038.4
21.540	83016.4
21.545	82994.5
21.550	83009.4
21.555	83039.4
21.560	83034.4
21.565	83031.4
21.570	83035.4
21.575	83027.4
21.580	83029.4
21.585	83031.4
21.590	83032.4
21.595	83035.4
21.600	83043.4
21.605	83025.4
21.610	83014.4
21.615	83004.4
21.620	83046.4
21.625	83049.4
21.630	83052.4
21.635	83051.4
21.640	83039.4
21.645	83047.4
21.650	83046.4
21.655	83042.4
21.660	83042.4
21.665	83046.4
21.670	83040.4
21.675	83016.4
21.680	83000.5
21.685	83039.4
21.690	83052.4
21.695	83038.4
21.700	83037.4
21.705	83038.4
21.710	83040.4
21.715	83031.4
21.720	83044.4
21.725	83043.4
21.730	83054.4
21.735	83049.4
21.740	83029.4
21.745	83003.4
21.750	83032.4
21.755	83050.4
21.760	83055.4
21.765	83049.4
21.770	83052.4
21.775	83050.4
21.780	83042.4
21.785	83048.4
21.790	83057.4
21.795	83045.4
21.800	83054.4
21.805	83032.4
21.810	83008.4
21.815	83016.4
21.820	83053.4
21.825	83048.4
21.830	83044.4
21.835	83041.4
21.840	83040.4
21.845	83027.4
21.850	83045.4
21.855	83042.4
21.860	83053.4
21.865	83052.4
21.870	83045.4
21.875	83021.4
21.880	83015.4
21.885	83037.4
21.890	83054.4
21.895	83053.4
21.900	83049.4
21.905	83043.4
21.910	83057.4
21.915	83056.4
21.920	83051.4
21.925	83049.4
21.930	83064.4
21.935	83049.4
21.940	83027.4
21.945	83009.4
21.950	83032.4
21.955	83045.4
21.960	83045.4
21.965	83048.4
21.970	83055.4
21.975	83045.4
21.980	83047.4
21.985	83050.4
21.990	83054.4
21.995	83057.4
22.000	83067.4
22.005	83044.4
22.010	83025.4
22.015	83022.4
22.020	83061.4
22.025	83057.4
22.030	83062.4
22.035	83061.4
22.040	83065.4
22.045	83050.4
22.050	83052.4
22.055	83052.4
22.060	83056.4
22.065	83060.4
22.070	83037.4
22.075	83027.4
22.080	83028.4
22.085	83053.4
22.090	83058.4
22.095	83051.4
22.100	83057.4
22.105	83057.4
22.110	83049.4
22.115	83049.4
22.120	83051.4
22.125	83054.4
22.130	83071.4
22.135	83059.4
22.140	83037.4
22.145	83013.4
22.150	83044.4
22.155	83058.4
22.160	83077.4
22.165	83063.4
22.170	83063.4
22.175	83046.4
22.180	83057.4
22.185	83069.4
22.190	83059.4
22.195	83058.4
22.200	83065.4
22.205	83036.4
22.210	83024.4
22.215	83022.4
22.220	83058.4
22.225	83055.4
22.230	83054.4
22.235	83053.4
22.240	83059.4
22.245	83044.4
22.250	83055.4
22.255	83050.4
22.260	83055.4
22.265	83069.4
22.270	83056.4
22.275	83033.4
22.280	83030.4
22.285	83057.4
22.290	83060.4
22.295	83065.4
22.300	83076.4
22.305	83062.4
22.310	83064.4
22.315	83057.4
22.320	83064.4
22.325	83058.4
22.330	83069.4
22.335	83063.4
22.340	83041.4
22.345	83014.4
22.350	83048.4
22.355	83059.4
22.360	83056.4
22.365	83050.4
22.370	83061.4
22.375	83057.4
22.380	83052.4
22.385	83059.4
22.390	83063.4
22.395	83062.4
22.400	83069.4
22.405	83046.4
22.410	83037.4
22.415	83038.4
22.420	83064.4
22.425	83064.4
22.430	83074.4
22.435	83062.4
22.440	83061.4
22.445	83058.4
22.450	83067.4
22.455	83060.4
22.460	83066.4
22.465	83060.4
22.470	83052.4
22.475	83031.4
22.480	83032.4
22.485	83062.4
22.490	83061.4
22.495	83055.4
22.500	83060.4
22.505	83048.4
22.510	83057.4
22.515	83056.4
22.520	83050.4
22.525	83062.4
22.530	83072.4
22.535	83066.4
22.540	83046.4
22.545	83023.4
22.550	83055.4
22.555	83063.4
22.560	83067.4
22.565	83063.4
22.570	83069.4
22.575	83065.4
22.580	83062.4
22.585	83066.4
22.590	83071.4
22.595	83060.4
22.600	83063.4
22.605	83036.4
22.610	83027.4
22.615	83040.4
22.620	83070.4
22.625	83068.4
22.630	83061.4
22.635	83059.4
22.640	83064.4
22.645	83058.4
22.650	83065.4
22.655	83054.4
22.660	83068.4
22.665	83066.4
22.670	83062.4
22.675	83042.4
22.680	83042.4
22.685	83066.4
22.690	83070.4
22.695	83069.4
22.700	83080.4
22.705	83072.4
22.710	83081.4
22.715	83065.4
22.720	83072.4
22.725	83074.4
22.730	83076.4
22.735	83070.4
22.740	83040.4
22.745	83023.4
22.750	83056.4
22.755	83075.4
22.760	83066.4
22.765	83068.4
22.770	83061.4
22.775	83059.4
22.780	83063.4
22.785	83061.4
22.790	83056.4
22.795	83062.4
22.800	83082.4
22.805	83047.4
22.810	83040.4
22.815	83045.4
22.820	83082.4
22.825	83064.4
22.830	83071.4
22.835	83068.4
22.840	83071.4
22.845	83073.4
22.850	83067.4
22.855	83065.4
22.860	83073.4
22.865	83070.4
22.870	83046.4
22.875	83033.4
22.880	83033.4
22.885	83071.4
22.890	83067.4
22.895	83062.4
22.900	83059.4
22.905	83060.4
22.910	83070.4
22.915	83066.4
22.920	83062.4
22.925	83071.4
22.930	83065.4
22.935	83072.4
22.940	83041.4
22.945	83031.4
22.950	83059.4
22.955	83068.4
22.960	83075.4
22.965	83075.4
22.970	83069.4
22.975	83072.4
22.980	83065.4
22.985	83065.4
22.990	83071.4
22.995	83071.4
23.000	83065.4
23.005	83042.4
23.010	83033.4
23.015	83034.4
23.020	83072.4
23.025	83060.4
23.030	83063.4
23.035	83064.4
23.040	83060.4
23.045	83058.4
23.050	83058.4
23.055	83060.4
23.060	83064.4
23.065	83071.4
23.070	83059.4
23.075	83034.4
23.080	83037.4
23.085	83068.4
23.090	83067.4
23.095	83065.4
23.100	83075.4
23.105	83060.4
23.110	83071.4
23.115	83057.4
23.120	83068.4
23.125	83061.4
23.130	83070.4
23.135	83060.4
23.140	83040.4
23.145	83017.4
23.150	83050.4
23.155	83064.4
23.160	83061.4
23.165	83052.4
23.170	83061.4
23.175	83058.4
23.180	83058.4
23.185	83049.4
23.190	83063.4
23.195	83064.4
23.200	83069.4
23.205	83044.4
23.210	83029.4
23.215	83045.4
23.220	83069.4
23.225	83070.4
23.230	83073.4
23.235	83075.4
23.240	83072.4
23.245	83062.4
23.250	83069.4
23.255	83056.4
23.260	83065.4
23.265	83063.4
23.270	83043.4
23.275	83022.4
23.280	83040.4
23.285	83058.4
23.290	83067.4
23.295	83057.4
23.300	83058.4
23.305	83051.4
23.310	83052.4
23.315	83054.4
23.320	83052.4
23.325	83049.4
23.330	83067.4
23.335	83061.4
23.340	83035.4
23.345	83022.4
23.350	83058.4
23.355	83066.4
23.360	83069.4
23.365	83065.4
23.370	83077.4
23.375	83066.4
23.380	83071.4
23.385	83059.4
23.390	83064.4
23.395	83065.4
23.400	83065.4
23.405	83040.4
23.410	83039.4
23.415	83046.4
23.420	83061.4
23.425	83058.4
23.430	83061.4
23.435	83045.4
23.440	83060.4
23.445	83057.4
23.450	83054.4
23.455	83061.4
23.460	83070.4
23.465	83077.4
23.470	83065.4
23.475	83030.4
23.480	83036.4
23.485	83066.4
23.490	83063.4
23.495	83058.4
23.500	83079.4
23.505	83073.4
23.510	83075.4
23.515	83066.4
23.520	83062.4
23.525	83065.4
23.530	83062.4
23.535	83055.4
23.540	83034.4
23.545	83030.4
23.550	83067.4
23.555	83061.4
23.560	83052.4
23.565	83055.4
23.570	83056.4
23.575	83053.4
23.580	83061.4
23.585	83053.4
23.590	83062.4
23.595	83058.4
23.600	83076.4
23.605	83045.4
23.610	83029.4
23.615	83046.4
23.620	83066.4
23.625	83072.4
23.630	83076.4
23.635	83073.4
23.640	83072.4
23.645	83064.4
23.650	83066.4
23.655	83063.4
23.660	83072.4
23.665	83064.4
23.670	83055.4
23.675	83023.4
23.680	83031.4
23.685	83058.4
23.690	83068.4
23.695	83056.4
23.700	83059.4
23.705	83055.4
23.710	83056.4
23.715	83054.4
23.720	83058.4
23.725	83062.4
23.730	83068.4
23.735	83063.4
23.740	83045.4
23.745	83030.4
23.750	83066.4
23.755	83062.4
23.760	83071.4
23.765	83063.4
23.770	83067.4
23.775	83063.4
23.780	83063.4
23.785	83062.4
23.790	83057.4
23.795	83061.4
23.800	83056.4
23.805	83032.4
23.810	83027.4
23.815	83047.4
23.820	83058.4
23.825	83063.4
23.830	83064.4
23.835	83059.4
23.840	83056.4
23.845	83058.4
23.850	83056.4
23.855	83065.4
23.860	83064.4
23.865	83063.4
23.870	83052.4
23.875	83031.4
23.880	83037.4
23.885	83055.4
23.890	83068.4
23.895	83063.4
23.900	83068.4
23.905	83061.4
23.910	83066.4
23.915	83061.4
23.920	83062.4
23.925	83058.4
23.930	83054.4
23.935	83042.4
23.940	83024.4
23.945	83014.4
23.950	83055.4
23.955	83055.4
23.960	83058.4
23.965	83059.4
23.970	83052.4
23.975	83050.4
23.980	83049.4
23.985	83047.4
23.990	83058.4
23.995	83058.4
24.000	83061.4
24.005	83038.4
24.010	83023.4
24.015	83045.4
24.020	83066.4
24.025	83065.4
24.030	83067.4
24.035	83058.4
24.040	83063.4
24.045	83062.4
24.050	83066.4
24.055	83062.4
24.060	83061.4
24.065	83055.4
24.070	83036.4
24.075	83011.4
24.080	83030.4
24.085	83053.4
24.090	83052.4
24.095	83048.4
24.100	83050.4
24.105	83053.4
24.110	83056.4
24.115	83049.4
24.120	83053.4
24.125	83047.4
24.130	83068.4
24.135	83045.4
24.140	83029.4
24.145	83029.4
24.150	83062.4
24.155	83053.4
24.160	83056.4
24.165	83057.4
24.170	83059.4
24.175	83045.4
24.180	83055.4
24.185	83052.4
24.190	83063.4
24.195	83049.4
24.200	83047.4
24.205	83015.4
24.210	83005.4
24.215	83033.4
24.220	83051.4
24.225	83040.4
24.230	83047.4
24.235	83049.4
24.240	83044.4
24.245	83043.4
24.250	83047.4
24.255	83042.4
24.260	83042.4
24.265	83053.4
24.270	83034.4
24.275	83018.4
24.280	83028.4
24.285	83051.4
24.290	83061.4
24.295	83055.4
24.300	83051.4
24.305	83044.4
24.310	83050.4
24.315	83041.4
24.320	83051.4
24.325	83037.4
24.330	83054.4
24.335	83028.4
24.340	83011.4
24.345	83010.4
24.350	83048.4
24.355	83044.4
24.360	83040.4
24.365	83048.4
24.370	83048.4
24.375	83041.4
24.380	83045.4
24.385	83039.4
24.390	83047.4
24.395	83054.4
24.400	83051.4
24.405	83023.4
24.410	83021.4
24.415	83038.4
24.420	83062.4
24.425	83048.4
24.430	83056.4
24.435	83044.4
24.440	83048.4
24.445	83045.4
24.450	83043.4
24.455	83041.4
24.460	83047.4
24.465	83046.4
24.470	83017.4
24.475	83009.4
24.480	83029.4
24.485	83046.4
24.490	83046.4
24.495	83039.4
24.500	83050.4
24.505	83040.4
24.510	83044.4
24.515	83039.4
24.520	83045.4
24.525	83043.4
24.530	83051.4
24.535	83038.4
24.540	83010.4
24.545	83012.4
24.550	83051.4
24.555	83053.4
24.560	83056.4
24.565	83045.4
24.570	83055.4
24.575	83052.4
24.580	83044.4
24.585	83045.4
24.590	83042.4
24.595	83044.4
24.600	83042.4
24.605	83006.4
24.610	83015.4
24.615	83028.4
24.620	83048.4
24.625	83036.4
24.630	83033.4
24.635	83038.4
24.640	83040.4
24.645	83042.4
24.650	83042.4
24.655	83040.4
24.660	83039.4
24.665	83047.4
24.670	83026.4
24.675	83013.4
24.680	83030.4
24.685	83044.4
24.690	83056.4
24.695	83044.4
24.700	83050.4
24.705	83040.4
24.710	83044.4
24.715	83034.4
24.720	83049.4
24.725	83045.4
24.730	83053.4
24.735	83025.4
24.740	83009.4
24.745	83012.4
24.750	83045.4
24.755	83042.4
24.760	83038.4
24.765	83035.4
24.770	83040.4
24.775	83038.4
24.780	83055.4
24.785	83051.4
24.790	83052.4
24.795	83053.4
24.800	83041.4
24.805	83021.4
24.810	83014.4
24.815	83046.4
24.820	83054.4
24.825	83056.4
24.830	83058.4
24.835	83049.4
24.840	83052.4
24.845	83051.4
24.850	83054.4
24.855	83050.4
24.860	83046.4
24.865	83044.4
24.870	83025.4
24.875	83010.4
24.880	83028.4
24.885	83046.4
24.890	83047.4
24.895	83048.4
24.900	83039.4
24.905	83043.4
24.910	83042.4
24.915	83046.4
24.920	83048.4
24.925	83052.4
24.930	83055.4
24.935	83036.4
24.940	83015.4
24.945	83014.4
24.950	83049.4
24.955	83056.4
24.960	83059.4
24.965	83051.4
24.970	83050.4
24.975	83046.4
24.980	83045.4
24.985	83049.4
24.990	83048.4
24.995	83048.4
25.000	83041.4
25.005	83011.4
25.010	83012.4
25.015	83046.4
25.020	83047.4
25.025	83041.4
25.030	83045.4
25.035	83034.4
25.040	83038.4
25.045	83037.4
25.050	83041.4
25.055	83049.4
25.060	83045.4
25.065	83048.4
25.070	83025.4
25.075	83015.4
25.080	83031.4
25.085	83050.4
25.090	83048.4
25.095	83056.4
25.100	83046.4
25.105	83047.4
25.110	83051.4
25.115	83044.4
25.120	83048.4
25.125	83038.4
25.130	83052.4
25.135	83020.4
25.140	83019.4
25.145	83013.4
25.150	83046.4
25.155	83046.4
25.160	83042.4
25.165	83037.4
25.170	83038.4
25.175	83036.4
25.180	83039.4
25.185	83042.4
25.190	83047.4
25.195	83053.4
25.200	83046.4
25.205	83019.4
25.210	83010.4
25.215	83041.4
25.220	83050.4
25.225	83060.4
25.230	83053.4
25.235	83058.4
25.240	83062.4
25.245	83051.4
25.250	83059.4
25.255	83049.4
25.260	83041.4
25.265	83041.4
25.270	83013.4
25.275	83009.4
25.280	83022.4
25.285	83044.4
25.290	83047.4
25.295	83032.4
25.300	83039.4
25.305	83033.4
25.310	83029.4
25.315	83030.4
25.320	83040.4
25.325	83046.4
25.330	83051.4
25.335	83037.4
25.340	83022.4
25.345	83019.4
25.350	83053.4
25.355	83045.4
25.360	83050.4
25.365	83050.4
25.370	83050.4
25.375	83045.4
25.380	83057.4
25.385	83047.4
25.390	83055.4
25.395	83044.4
25.400	83039.4
25.405	83009.4
25.410	83016.4
25.415	83039.4
25.420	83051.4
25.425	83041.4
25.430	83046.4
25.435	83027.4
25.440	83036.4
25.445	83034.4
25.450	83036.4
25.455	83045.4
25.460	83056.4
25.465	83055.4
25.470	83040.4
25.475	83018.4
25.480	83045.4
25.485	83050.4
25.490	83056.4
25.495	83042.4
25.500	83054.4
25.505	83045.4
25.510	83048.4
25.515	83043.4
25.520	83059.4
25.525	83047.4
25.530	83047.4
25.535	83025.4
25.540	83007.4
25.545	83019.4
25.550	83056.4
25.555	83046.4
25.560	83048.4
25.565	83046.4
25.570	83051.4
25.575	83032.4
25.580	83046.4
25.585	83037.4
25.590	83053.4
25.595	83047.4
25.600	83047.4
25.605	83026.4
25.610	83020.4
25.615	83055.4
25.620	83052.4
25.625	83051.4
25.630	83053.4
25.635	83055.4
25.640	83054.4
25.645	83050.4
25.650	83061.4
25.655	83057.4
25.660	83052.4
25.665	83047.4
25.670	83027.4
25.675	83013.4
25.680	83031.4
25.685	83045.4
25.690	83053.4
25.695	83050.4
25.700	83054.4
25.705	83049.4
25.710	83052.4
25.715	83044.4
25.720	83045.4
25.725	83056.4
25.730	83055.4
25.735	83037.4
25.740	83019.4
25.745	83034.4
25.750	83060.4
25.755	83060.4
25.760	83059.4
25.765	83051.4
25.770	83050.4
25.775	83058.4
25.780	83060.4
25.785	83063.4
25.790	83057.4
25.795	83064.4
25.800	83036.4
25.805	83019.4
25.810	83015.4
25.815	83060.4
25.820	83065.4
25.825	83049.4
25.830	83060.4
25.835	83048.4
25.840	83051.4
25.845	83045.4
25.850	83054.4
25.855	83050.4
25.860	83052.4
25.865	83055.4
25.870	83038.4
25.875	83024.4
25.880	83049.4
25.885	83060.4
25.890	83062.4
25.895	83059.4
25.900	83054.4
25.905	83062.4
25.910	83051.4
25.915	83056.4
25.920	83061.4
25.925	83060.4
25.930	83066.4
25.935	83029.4
25.940	83013.4
25.945	83028.4
25.950	83049.4
25.955	83056.4
25.960	83057.4
25.965	83047.4
25.970	83050.4
25.975	83056.4
25.980	83047.4
25.985	83048.4
25.990	83042.4
25.995	83058.4
26.000	83040.4
26.005	83021.4
26.010	83024.4
26.015	83064.4
26.020	83063.4
26.025	83069.4
26.030	83068.4
26.035	83052.4
26.040	83057.4
26.045	83060.4
26.050	83057.4
26.055	83058.4
26.060	83066.4
26.065	83056.4
26.070	83022.4
26.075	83019.4
26.080	83035.4
26.085	83046.4
26.090	83048.4
26.095	83044.4
26.100	83052.4
26.105	83049.4
26.110	83059.4
26.115	83045.4
26.120	83055.4
26.125	83058.4
26.130	83060.4
26.135	83031.4
26.140	83029.4
26.145	83029.4
26.150	83058.4
26.155	83062.4
26.160	83058.4
26.165	83060.4
26.170	83051.4
26.175	83046.4
26.180	83041.4
26.185	83046.4
26.190	83053.4
26.195	83061.4
26.200	83041.4
26.205	83018.4
26.210	83022.4
26.215	83051.4
26.220	83056.4
26.225	83044.4
26.230	83054.4
26.235	83044.4
26.240	83056.4
26.245	83048.4
26.250	83060.4
26.255	83059.4
26.260	83065.4
26.265	83054.4
26.270	83017.4
26.275	83012.4
26.280	83050.4
26.285	83061.4
26.290	83065.4
26.295	83062.4
26.300	83067.4
26.305	83062.4
26.310	83052.4
26.315	83047.4
26.320	83058.4
26.325	83046.4
26.330	83060.4
26.335	83028.4
26.340	83022.4
26.345	83031.4
26.350	83052.4
26.355	83046.4
26.360	83039.4
26.365	83041.4
26.370	83041.4
26.375	83044.4
26.380	83056.4
26.385	83056.4
26.390	83067.4
26.395	83058.4
