PK2650 Power Data
Z Position (mm)	110.000	W Position (deg)	288.00
Preform ID	Diameter (mm)	Time Stamp	Start Time	Operator	Serial Number
Test 1	25	03-Nov-22 18:05:01	03-Nov-22 18:08:15	[no user]	266007708
Radius (mm)	Power
-26.260	83125.7
-26.255	83114.7
-26.250	83116.7
-26.245	83114.7
-26.240	83115.7
-26.235	83121.7
-26.230	83118.7
-26.225	83097.7
-26.220	83092.7
-26.215	83125.7
-26.210	83130.7
-26.205	83119.7
-26.200	83121.7
-26.195	83118.7
-26.190	83129.7
-26.185	83123.7
-26.180	83121.7
-26.175	83131.7
-26.170	83141.7
-26.165	83144.7
-26.160	83122.7
-26.155	83110.7
-26.150	83124.7
-26.145	83149.7
-26.140	83151.7
-26.135	83149.7
-26.130	83158.7
-26.125	83158.7
-26.120	83155.7
-26.115	83155.7
-26.110	83143.7
-26.105	83145.7
-26.100	83151.7
-26.095	83133.7
-26.090	83131.7
-26.085	83138.7
-26.080	83168.7
-26.075	83158.7
-26.070	83160.7
-26.065	83158.7
-26.060	83155.7
-26.055	83154.7
-26.050	83156.7
-26.045	83147.7
-26.040	83162.7
-26.035	83165.7
-26.030	83174.7
-26.025	83144.7
-26.020	83137.7
-26.015	83161.7
-26.010	83171.7
-26.005	83171.7
-26.000	83180.6
-25.995	83180.6
-25.990	83175.7
-25.985	83166.7
-25.980	83169.7
-25.975	83166.7
-25.970	83169.7
-25.965	83164.7
-25.960	83145.7
-25.955	83148.7
-25.950	83169.7
-25.945	83190.6
-25.940	83184.6
-25.935	83180.6
-25.930	83174.7
-25.925	83168.7
-25.920	83174.7
-25.915	83171.7
-25.910	83174.7
-25.905	83176.7
-25.900	83188.6
-25.895	83181.6
-25.890	83160.7
-25.885	83153.7
-25.880	83177.7
-25.875	83185.6
-25.870	83180.6
-25.865	83184.6
-25.860	83190.6
-25.855	83186.6
-25.850	83187.6
-25.845	83182.6
-25.840	83178.6
-25.835	83174.7
-25.830	83174.7
-25.825	83141.7
-25.820	83154.7
-25.815	83189.6
-25.810	83196.6
-25.805	83190.6
-25.800	83185.6
-25.795	83179.6
-25.790	83180.6
-25.785	83164.7
-25.780	83172.7
-25.775	83166.7
-25.770	83176.7
-25.765	83189.6
-25.760	83178.6
-25.755	83156.7
-25.750	83170.7
-25.745	83189.6
-25.740	83192.6
-25.735	83190.6
-25.730	83187.6
-25.725	83188.6
-25.720	83187.6
-25.715	83190.6
-25.710	83187.6
-25.705	83180.7
-25.700	83191.6
-25.695	83163.7
-25.690	83151.7
-25.685	83158.7
-25.680	83196.6
-25.675	83182.6
-25.670	83194.6
-25.665	83178.7
-25.660	83183.6
-25.655	83167.7
-25.650	83176.7
-25.645	83165.7
-25.640	83181.7
-25.635	83187.6
-25.630	83182.6
-25.625	83163.7
-25.620	83152.7
-25.615	83182.6
-25.610	83182.6
-25.605	83188.6
-25.600	83188.6
-25.595	83178.6
-25.590	83187.6
-25.585	83183.7
-25.580	83183.6
-25.575	83180.7
-25.570	83170.7
-25.565	83175.7
-25.560	83148.7
-25.555	83138.7
-25.550	83169.7
-25.545	83180.6
-25.540	83178.6
-25.535	83177.7
-25.530	83177.7
-25.525	83173.7
-25.520	83168.7
-25.515	83163.7
-25.510	83164.7
-25.505	83169.7
-25.500	83183.6
-25.495	83170.7
-25.490	83160.7
-25.485	83157.7
-25.480	83192.6
-25.475	83183.6
-25.470	83181.6
-25.465	83174.7
-25.460	83187.6
-25.455	83175.7
-25.450	83179.7
-25.445	83181.7
-25.440	83180.7
-25.435	83182.6
-25.430	83164.7
-25.425	83137.7
-25.420	83138.7
-25.415	83167.7
-25.410	83174.7
-25.405	83178.7
-25.400	83179.6
-25.395	83171.7
-25.390	83180.6
-25.385	83159.7
-25.380	83162.7
-25.375	83156.7
-25.370	83170.7
-25.365	83173.7
-25.360	83157.7
-25.355	83142.7
-25.350	83166.7
-25.345	83180.6
-25.340	83175.7
-25.335	83176.6
-25.330	83170.7
-25.325	83174.7
-25.320	83165.7
-25.315	83165.7
-25.310	83177.7
-25.305	83167.7
-25.300	83175.7
-25.295	83144.7
-25.290	83130.7
-25.285	83137.7
-25.280	83169.7
-25.275	83166.7
-25.270	83170.7
-25.265	83170.7
-25.260	83169.7
-25.255	83160.7
-25.250	83164.7
-25.245	83158.7
-25.240	83165.7
-25.235	83165.7
-25.230	83162.7
-25.225	83146.7
-25.220	83139.7
-25.215	83174.7
-25.210	83184.6
-25.205	83178.7
-25.200	83169.7
-25.195	83166.7
-25.190	83164.7
-25.185	83155.7
-25.180	83157.7
-25.175	83160.7
-25.170	83161.7
-25.165	83160.7
-25.160	83130.7
-25.155	83132.7
-25.150	83148.7
-25.145	83157.7
-25.140	83155.7
-25.135	83157.7
-25.130	83154.7
-25.125	83154.7
-25.120	83149.7
-25.115	83145.7
-25.110	83155.7
-25.105	83151.7
-25.100	83160.7
-25.095	83140.7
-25.090	83128.7
-25.085	83141.7
-25.080	83169.7
-25.075	83162.7
-25.070	83171.7
-25.065	83163.7
-25.060	83156.7
-25.055	83148.7
-25.050	83143.7
-25.045	83146.7
-25.040	83156.7
-25.035	83157.7
-25.030	83146.7
-25.025	83115.7
-25.020	83112.7
-25.015	83149.7
-25.010	83146.7
-25.005	83147.7
-25.000	83147.7
-24.995	83155.7
-24.990	83144.7
-24.985	83141.7
-24.980	83145.7
-24.975	83143.7
-24.970	83153.7
-24.965	83149.7
-24.960	83124.7
-24.955	83115.7
-24.950	83140.7
-24.945	83154.7
-24.940	83156.7
-24.935	83161.7
-24.930	83152.7
-24.925	83143.7
-24.920	83134.7
-24.915	83138.7
-24.910	83144.7
-24.905	83130.7
-24.900	83152.7
-24.895	83123.7
-24.890	83106.7
-24.885	83116.7
-24.880	83152.7
-24.875	83132.7
-24.870	83142.7
-24.865	83135.7
-24.860	83140.7
-24.855	83133.7
-24.850	83136.7
-24.845	83129.7
-24.840	83131.7
-24.835	83140.7
-24.830	83132.7
-24.825	83103.7
-24.820	83112.7
-24.815	83142.7
-24.810	83147.7
-24.805	83141.7
-24.800	83143.7
-24.795	83136.7
-24.790	83136.7
-24.785	83125.7
-24.780	83125.7
-24.775	83120.7
-24.770	83134.7
-24.765	83122.7
-24.760	83105.7
-24.755	83090.7
-24.750	83122.7
-24.745	83128.7
-24.740	83130.7
-24.735	83118.7
-24.730	83115.7
-24.725	83117.7
-24.720	83108.7
-24.715	83120.7
-24.710	83119.7
-24.705	83116.7
-24.700	83125.7
-24.695	83102.7
-24.690	83086.7
-24.685	83093.7
-24.680	83119.7
-24.675	83123.7
-24.670	83133.7
-24.665	83124.7
-24.660	83124.7
-24.655	83105.7
-24.650	83114.7
-24.645	83105.7
-24.640	83112.7
-24.635	83111.7
-24.630	83097.7
-24.625	83074.7
-24.620	83075.7
-24.615	83108.7
-24.610	83113.7
-24.605	83104.7
-24.600	83105.7
-24.595	83095.7
-24.590	83089.7
-24.585	83093.7
-24.580	83103.7
-24.575	83099.7
-24.570	83116.7
-24.565	83108.7
-24.560	83086.7
-24.555	83067.7
-24.550	83100.7
-24.545	83114.7
-24.540	83117.7
-24.535	83119.7
-24.530	83111.7
-24.525	83107.7
-24.520	83102.7
-24.515	83092.7
-24.510	83096.7
-24.505	83097.7
-24.500	83099.7
-24.495	83064.7
-24.490	83060.7
-24.485	83083.7
-24.480	83103.7
-24.475	83097.7
-24.470	83099.7
-24.465	83080.7
-24.460	83087.7
-24.455	83082.7
-24.450	83081.7
-24.445	83084.7
-24.440	83095.7
-24.435	83098.7
-24.430	83091.7
-24.425	83069.7
-24.420	83056.7
-24.415	83093.7
-24.410	83091.7
-24.405	83100.7
-24.400	83098.7
-24.395	83094.7
-24.390	83090.7
-24.385	83083.7
-24.380	83089.7
-24.375	83087.7
-24.370	83084.7
-24.365	83081.7
-24.360	83056.7
-24.355	83050.8
-24.350	83082.7
-24.345	83091.7
-24.340	83090.7
-24.335	83073.7
-24.330	83077.7
-24.325	83071.7
-24.320	83070.7
-24.315	83071.7
-24.310	83072.7
-24.305	83082.7
-24.300	83095.7
-24.295	83071.7
-24.290	83054.8
-24.285	83061.7
-24.280	83092.7
-24.275	83085.7
-24.270	83094.7
-24.265	83082.7
-24.260	83083.7
-24.255	83080.7
-24.250	83080.7
-24.245	83076.7
-24.240	83082.7
-24.235	83077.7
-24.230	83066.7
-24.225	83042.8
-24.220	83054.7
-24.215	83082.7
-24.210	83089.7
-24.205	83073.7
-24.200	83077.7
-24.195	83071.7
-24.190	83074.7
-24.185	83069.7
-24.180	83065.7
-24.175	83073.7
-24.170	83082.7
-24.165	83075.7
-24.160	83055.7
-24.155	83040.8
-24.150	83074.7
-24.145	83076.7
-24.140	83086.7
-24.135	83085.7
-24.130	83085.7
-24.125	83074.7
-24.120	83076.7
-24.115	83077.7
-24.110	83074.7
-24.105	83069.7
-24.100	83075.7
-24.095	83045.8
-24.090	83041.8
-24.085	83058.7
-24.080	83084.7
-24.075	83086.7
-24.070	83088.7
-24.065	83080.7
-24.060	83071.7
-24.055	83065.7
-24.050	83069.7
-24.045	83068.7
-24.040	83074.7
-24.035	83078.7
-24.030	83067.7
-24.025	83054.8
-24.020	83052.8
-24.015	83083.7
-24.010	83084.7
-24.005	83078.7
-24.000	83077.7
-23.995	83077.7
-23.990	83076.7
-23.985	83077.7
-23.980	83076.7
-23.975	83075.7
-23.970	83075.7
-23.965	83064.7
-23.960	83040.8
-23.955	83040.8
-23.950	83072.7
-23.945	83087.7
-23.940	83078.7
-23.935	83075.7
-23.930	83071.7
-23.925	83072.7
-23.920	83068.7
-23.915	83064.7
-23.910	83065.7
-23.905	83070.7
-23.900	83076.7
-23.895	83059.7
-23.890	83052.8
-23.885	83066.7
-23.880	83089.7
-23.875	83079.7
-23.870	83084.7
-23.865	83079.7
-23.860	83091.7
-23.855	83078.7
-23.850	83081.7
-23.845	83083.7
-23.840	83078.7
-23.835	83084.7
-23.830	83059.7
-23.825	83051.8
-23.820	83061.7
-23.815	83092.7
-23.810	83083.7
-23.805	83090.7
-23.800	83094.7
-23.795	83083.7
-23.790	83090.7
-23.785	83078.7
-23.780	83091.7
-23.775	83085.7
-23.770	83097.7
-23.765	83089.7
-23.760	83078.7
-23.755	83063.7
-23.750	83103.7
-23.745	83098.7
-23.740	83100.7
-23.735	83098.7
-23.730	83098.7
-23.725	83099.7
-23.720	83097.7
-23.715	83096.7
-23.710	83093.7
-23.705	83095.7
-23.700	83098.7
-23.695	83072.7
-23.690	83062.7
-23.685	83077.7
-23.680	83097.7
-23.675	83090.7
-23.670	83097.7
-23.665	83098.7
-23.660	83091.7
-23.655	83092.7
-23.650	83092.7
-23.645	83094.7
-23.640	83098.7
-23.635	83104.7
-23.630	83090.7
-23.625	83073.7
-23.620	83077.7
-23.615	83105.7
-23.610	83109.7
-23.605	83109.7
-23.600	83114.7
-23.595	83104.7
-23.590	83102.7
-23.585	83089.7
-23.580	83095.7
-23.575	83100.7
-23.570	83094.7
-23.565	83082.7
-23.560	83061.7
-23.555	83066.7
-23.550	83097.7
-23.545	83105.7
-23.540	83103.7
-23.535	83103.7
-23.530	83100.7
-23.525	83098.7
-23.520	83096.7
-23.515	83089.7
-23.510	83098.7
-23.505	83099.7
-23.500	83116.7
-23.495	83075.7
-23.490	83074.7
-23.485	83090.7
-23.480	83124.7
-23.475	83114.7
-23.470	83119.7
-23.465	83104.7
-23.460	83111.7
-23.455	83106.7
-23.450	83113.7
-23.445	83109.7
-23.440	83109.7
-23.435	83113.7
-23.430	83086.7
-23.425	83074.7
-23.420	83088.7
-23.415	83117.7
-23.410	83113.7
-23.405	83110.7
-23.400	83109.7
-23.395	83105.7
-23.390	83109.7
-23.385	83111.7
-23.380	83112.7
-23.375	83116.7
-23.370	83124.7
-23.365	83108.7
-23.360	83092.7
-23.355	83086.7
-23.350	83127.7
-23.345	83131.7
-23.340	83138.7
-23.335	83140.7
-23.330	83131.7
-23.325	83128.7
-23.320	83123.7
-23.315	83117.7
-23.310	83132.7
-23.305	83122.7
-23.300	83127.7
-23.295	83098.7
-23.290	83096.7
-23.285	83116.7
-23.280	83133.7
-23.275	83133.7
-23.270	83120.7
-23.265	83123.7
-23.260	83113.7
-23.255	83119.7
-23.250	83123.7
-23.245	83132.7
-23.240	83139.7
-23.235	83137.7
-23.230	83124.7
-23.225	83094.7
-23.220	83113.7
-23.215	83139.7
-23.210	83145.7
-23.205	83140.7
-23.200	83148.7
-23.195	83140.7
-23.190	83137.7
-23.185	83128.7
-23.180	83139.7
-23.175	83130.7
-23.170	83144.7
-23.165	83117.7
-23.160	83110.7
-23.155	83117.7
-23.150	83152.7
-23.145	83150.7
-23.140	83147.7
-23.135	83130.7
-23.130	83132.7
-23.125	83136.7
-23.120	83138.7
-23.115	83136.7
-23.110	83132.7
-23.105	83142.7
-23.100	83145.7
-23.095	83119.7
-23.090	83114.7
-23.085	83133.7
-23.080	83159.7
-23.075	83152.7
-23.070	83151.7
-23.065	83156.7
-23.060	83147.7
-23.055	83142.7
-23.050	83145.7
-23.045	83135.7
-23.040	83141.7
-23.035	83148.7
-23.030	83129.7
-23.025	83109.7
-23.020	83133.7
-23.015	83151.7
-23.010	83150.7
-23.005	83149.7
-23.000	83146.7
-22.995	83140.7
-22.990	83137.7
-22.985	83135.7
-22.980	83146.7
-22.975	83145.7
-22.970	83150.7
-22.965	83146.7
-22.960	83128.7
-22.955	83118.7
-22.950	83153.7
-22.945	83150.7
-22.940	83161.7
-22.935	83155.7
-22.930	83154.7
-22.925	83147.7
-22.920	83144.7
-22.915	83139.7
-22.910	83149.7
-22.905	83143.7
-22.900	83149.7
-22.895	83118.7
-22.890	83114.7
-22.885	83139.7
-22.880	83163.7
-22.875	83151.7
-22.870	83146.7
-22.865	83145.7
-22.860	83137.7
-22.855	83134.7
-22.850	83144.7
-22.845	83137.7
-22.840	83153.7
-22.835	83162.7
-22.830	83140.7
-22.825	83116.7
-22.820	83129.7
-22.815	83153.7
-22.810	83156.7
-22.805	83155.7
-22.800	83151.7
-22.795	83155.7
-22.790	83150.7
-22.785	83149.7
-22.780	83153.7
-22.775	83152.7
-22.770	83152.7
-22.765	83135.7
-22.760	83114.7
-22.755	83120.7
-22.750	83157.7
-22.745	83153.7
-22.740	83145.7
-22.735	83146.7
-22.730	83149.7
-22.725	83134.7
-22.720	83140.7
-22.715	83140.7
-22.710	83148.7
-22.705	83150.7
-22.700	83161.7
-22.695	83132.7
-22.690	83127.7
-22.685	83145.7
-22.680	83164.7
-22.675	83153.7
-22.670	83171.7
-22.665	83157.7
-22.660	83159.7
-22.655	83158.7
-22.650	83153.7
-22.645	83155.7
-22.640	83145.7
-22.635	83147.7
-22.630	83130.7
-22.625	83123.7
-22.620	83137.7
-22.615	83152.7
-22.610	83157.7
-22.605	83150.7
-22.600	83150.7
-22.595	83151.7
-22.590	83152.7
-22.585	83142.7
-22.580	83154.7
-22.575	83151.7
-22.570	83166.7
-22.565	83148.7
-22.560	83135.7
-22.555	83123.7
-22.550	83158.7
-22.545	83157.7
-22.540	83160.7
-22.535	83156.7
-22.530	83165.7
-22.525	83155.7
-22.520	83163.7
-22.515	83155.7
-22.510	83155.7
-22.505	83153.7
-22.500	83146.7
-22.495	83125.7
-22.490	83125.7
-22.485	83154.7
-22.480	83162.7
-22.475	83162.7
-22.470	83152.7
-22.465	83154.7
-22.460	83156.7
-22.455	83149.7
-22.450	83148.7
-22.445	83148.7
-22.440	83163.7
-22.435	83162.7
-22.430	83152.7
-22.425	83136.7
-22.420	83149.7
-22.415	83161.7
-22.410	83179.7
-22.405	83162.7
-22.400	83163.7
-22.395	83162.7
-22.390	83167.7
-22.385	83163.7
-22.380	83162.7
-22.375	83156.7
-22.370	83160.7
-22.365	83140.7
-22.360	83129.7
-22.355	83141.7
-22.350	83166.7
-22.345	83169.7
-22.340	83159.7
-22.335	83157.7
-22.330	83158.7
-22.325	83154.7
-22.320	83163.7
-22.315	83153.7
-22.310	83166.7
-22.305	83160.7
-22.300	83163.7
-22.295	83136.7
-22.290	83140.7
-22.285	83162.7
-22.280	83174.7
-22.275	83174.7
-22.270	83172.7
-22.265	83162.7
-22.260	83164.7
-22.255	83155.7
-22.250	83161.7
-22.245	83157.7
-22.240	83167.7
-22.235	83161.7
-22.230	83132.7
-22.225	83117.7
-22.220	83145.7
-22.215	83164.7
-22.210	83153.7
-22.205	83157.7
-22.200	83156.7
-22.195	83156.7
-22.190	83159.7
-22.185	83151.7
-22.180	83154.7
-22.175	83164.7
-22.170	83168.7
-22.165	83154.7
-22.160	83133.7
-22.155	83134.7
-22.150	83167.7
-22.145	83166.7
-22.140	83163.7
-22.135	83167.7
-22.130	83163.7
-22.125	83157.7
-22.120	83157.7
-22.115	83144.7
-22.110	83157.7
-22.105	83161.7
-22.100	83150.7
-22.095	83124.7
-22.090	83127.7
-22.085	83151.7
-22.080	83161.7
-22.075	83152.7
-22.070	83153.7
-22.065	83156.7
-22.060	83147.7
-22.055	83148.7
-22.050	83143.7
-22.045	83140.7
-22.040	83153.7
-22.035	83152.7
-22.030	83135.7
-22.025	83123.7
-22.020	83137.7
-22.015	83154.7
-22.010	83164.7
-22.005	83153.7
-22.000	83158.7
-21.995	83146.7
-21.990	83149.7
-21.985	83147.7
-21.980	83143.7
-21.975	83151.7
-21.970	83147.7
-21.965	83129.7
-21.960	83113.7
-21.955	83130.7
-21.950	83162.7
-21.945	83149.7
-21.940	83149.7
-21.935	83146.7
-21.930	83146.7
-21.925	83144.7
-21.920	83145.7
-21.915	83143.7
-21.910	83144.7
-21.905	83149.7
-21.900	83148.7
-21.895	83124.7
-21.890	83117.7
-21.885	83153.7
-21.880	83161.7
-21.875	83153.7
-21.870	83161.7
-21.865	83145.7
-21.860	83155.7
-21.855	83144.7
-21.850	83145.7
-21.845	83141.7
-21.840	83137.7
-21.835	83147.7
-21.830	83118.7
-21.825	83107.7
-21.820	83136.7
-21.815	83146.7
-21.810	83143.7
-21.805	83137.7
-21.800	83140.7
-21.795	83132.7
-21.790	83133.7
-21.785	83126.7
-21.780	83136.7
-21.775	83137.7
-21.770	83148.7
-21.765	83134.7
-21.760	83110.7
-21.755	83118.7
-21.750	83141.7
-21.745	83151.7
-21.740	83154.7
-21.735	83149.7
-21.730	83147.7
-21.725	83133.7
-21.720	83138.7
-21.715	83133.7
-21.710	83136.7
-21.705	83130.7
-21.700	83116.7
-21.695	83103.7
-21.690	83110.7
-21.685	83139.7
-21.680	83144.7
-21.675	83134.7
-21.670	83129.7
-21.665	83125.7
-21.660	83121.7
-21.655	83128.7
-21.650	83118.7
-21.645	83126.7
-21.640	83134.7
-21.635	83142.7
-21.630	83120.7
-21.625	83096.7
-21.620	83117.7
-21.615	83141.7
-21.610	83141.7
-21.605	83138.7
-21.600	83132.7
-21.595	83130.7
-21.590	83133.7
-21.585	83124.7
-21.580	83124.7
-21.575	83126.7
-21.570	83127.7
-21.565	83105.7
-21.560	83092.7
-21.555	83101.7
-21.550	83126.7
-21.545	83118.7
-21.540	83122.7
-21.535	83118.7
-21.530	83116.7
-21.525	83110.7
-21.520	83114.7
-21.515	83116.7
-21.510	83120.7
-21.505	83117.7
-21.500	83128.7
-21.495	83102.7
-21.490	83091.7
-21.485	83113.7
-21.480	83136.7
-21.475	83132.7
-21.470	83132.7
-21.465	83130.7
-21.460	83123.7
-21.455	83121.7
-21.450	83115.7
-21.445	83117.7
-21.440	83122.7
-21.435	83112.7
-21.430	83092.7
-21.425	83085.7
-21.420	83106.7
-21.415	83119.7
-21.410	83122.7
-21.405	83108.7
-21.400	83110.7
-21.395	83100.7
-21.390	83094.7
-21.385	83090.7
-21.380	83083.7
-21.375	83088.7
-21.370	83097.7
-21.365	83067.7
-21.360	83023.8
-21.355	82993.8
-21.350	82972.9
-21.345	82893.9
-21.340	82795.1
-21.335	82644.2
-21.330	82459.4
-21.325	82191.7
-21.320	81857.1
-21.315	81431.6
-21.310	80962.1
-21.305	80520.6
-21.300	80057.2
-21.295	79589.8
-21.290	79096.5
-21.285	78560.2
-21.280	77931.0
-21.275	77318.8
-21.270	76718.6
-21.265	76019.5
-21.260	75161.5
-21.255	74190.5
-21.250	73517.4
-21.245	73314.9
-21.240	72974.3
-21.235	72715.5
-21.230	73351.9
-21.225	73726.6
-21.220	73593.5
-21.215	74203.9
-21.210	75231.1
-21.205	76213.3
-21.200	76834.8
-21.195	76679.9
-21.190	75526.6
-21.185	74562.1
-21.180	75117.6
-21.175	75920.0
-21.170	75616.1
-21.165	75793.9
-21.160	76485.3
-21.155	75220.1
-21.150	74689.5
-21.145	76562.1
-21.140	77726.2
-21.135	78109.9
-21.130	78104.8
-21.125	77830.0
-21.120	77006.5
-21.115	75723.4
-21.110	75912.2
-21.105	77039.4
-21.100	77357.2
-21.095	77586.0
-21.090	78286.4
-21.085	78613.1
-21.080	78029.5
-21.075	76481.6
-21.070	75397.3
-21.065	76391.5
-21.060	78038.4
-21.055	77354.9
-21.050	75154.5
-21.045	74623.8
-21.040	76686.2
-21.035	78399.0
-21.030	78576.8
-21.025	78076.1
-21.020	77792.3
-21.015	77973.2
-21.010	77942.2
-21.005	77678.3
-21.000	77928.1
-20.995	78564.7
-20.990	78953.4
-20.985	78954.3
-20.980	78768.4
-20.975	78646.5
-20.970	78558.5
-20.965	78502.6
-20.960	78447.6
-20.955	78436.6
-20.950	78778.3
-20.945	79239.0
-20.940	79492.8
-20.935	79489.8
-20.930	79283.9
-20.925	78847.2
-20.920	78390.5
-20.915	78302.6
-20.910	78502.4
-20.905	78779.2
-20.900	78988.0
-20.895	79012.0
-20.890	78989.0
-20.885	79093.9
-20.880	79225.8
-20.875	79331.7
-20.870	79314.7
-20.865	79228.8
-20.860	79162.8
-20.855	79101.8
-20.850	79095.8
-20.845	79182.7
-20.840	79280.7
-20.835	79375.6
-20.830	79407.5
-20.825	79370.6
-20.820	79362.6
-20.815	79289.6
-20.810	79199.6
-20.805	79132.7
-20.800	79067.7
-20.795	78920.8
-20.790	78818.9
-20.785	78851.9
-20.780	78941.8
-20.775	78998.7
-20.770	79082.7
-20.765	79123.6
-20.760	79192.6
-20.755	79240.5
-20.750	79240.5
-20.745	79193.5
-20.740	79186.5
-20.735	79232.5
-20.730	79303.4
-20.725	79386.3
-20.720	79417.3
-20.715	79425.3
-20.710	79508.2
-20.705	79571.2
-20.700	79637.1
-20.695	79698.1
-20.690	79717.1
-20.685	79800.0
-20.680	79863.9
-20.675	79883.9
-20.670	79900.9
-20.665	79919.9
-20.660	79942.8
-20.655	79964.8
-20.650	79991.8
-20.645	80015.8
-20.640	80035.7
-20.635	80014.8
-20.630	79976.8
-20.625	79938.8
-20.620	79932.8
-20.615	79924.8
-20.610	79922.8
-20.605	79890.8
-20.600	79871.8
-20.595	79885.8
-20.590	79927.8
-20.585	79958.7
-20.580	79967.7
-20.575	80012.7
-20.570	80031.7
-20.565	79993.7
-20.560	79974.7
-20.555	80007.7
-20.550	80044.6
-20.545	80025.6
-20.540	79985.7
-20.535	79954.7
-20.530	79963.7
-20.525	79974.7
-20.520	80008.6
-20.515	80075.6
-20.510	80152.5
-20.505	80204.5
-20.500	80261.4
-20.495	80263.4
-20.490	80284.4
-20.485	80355.3
-20.480	80400.3
-20.475	80418.3
-20.470	80433.3
-20.465	80442.2
-20.460	80448.2
-20.455	80463.2
-20.450	80468.2
-20.445	80482.2
-20.440	80485.2
-20.435	80499.2
-20.430	80490.2
-20.425	80456.2
-20.420	80467.2
-20.415	80493.2
-20.410	80510.1
-20.405	80504.1
-20.400	80506.1
-20.395	80489.2
-20.390	80458.2
-20.385	80441.2
-20.380	80447.2
-20.375	80447.2
-20.370	80472.1
-20.365	80434.2
-20.360	80404.2
-20.355	80389.2
-20.350	80386.2
-20.345	80381.2
-20.340	80405.2
-20.335	80391.2
-20.330	80371.2
-20.325	80349.2
-20.320	80334.2
-20.315	80330.2
-20.310	80313.2
-20.305	80292.2
-20.300	80263.2
-20.295	80233.3
-20.290	80235.3
-20.285	80280.2
-20.280	80298.2
-20.275	80336.2
-20.270	80365.1
-20.265	80386.1
-20.260	80408.1
-20.255	80451.1
-20.250	80495.0
-20.245	80519.0
-20.240	80559.0
-20.235	80569.0
-20.230	80582.9
-20.225	80598.9
-20.220	80656.9
-20.215	80676.9
-20.210	80697.8
-20.205	80713.8
-20.200	80740.8
-20.195	80722.8
-20.190	80732.8
-20.185	80727.8
-20.180	80720.8
-20.175	80704.8
-20.170	80693.8
-20.165	80678.8
-20.160	80662.8
-20.155	80669.8
-20.150	80666.8
-20.145	80645.8
-20.140	80660.8
-20.135	80675.8
-20.130	80681.8
-20.125	80674.8
-20.120	80661.8
-20.115	80669.8
-20.110	80703.8
-20.105	80718.8
-20.100	80708.8
-20.095	80705.8
-20.090	80716.8
-20.085	80751.7
-20.080	80750.7
-20.075	80749.7
-20.070	80761.7
-20.065	80754.7
-20.060	80765.7
-20.055	80768.7
-20.050	80786.7
-20.045	80807.7
-20.040	80836.7
-20.035	80865.6
-20.030	80864.6
-20.025	80868.6
-20.020	80919.6
-20.015	80938.6
-20.010	80966.5
-20.005	80976.5
-20.000	80991.5
-19.995	81003.5
-19.990	81000.5
-19.985	81005.5
-19.980	81002.5
-19.975	81003.5
-19.970	80998.5
-19.965	80978.5
-19.960	80969.5
-19.955	80994.5
-19.950	81023.5
-19.945	81019.5
-19.940	81012.5
-19.935	81005.5
-19.930	81004.5
-19.925	80987.5
-19.920	81000.5
-19.915	80999.5
-19.910	81018.4
-19.905	81023.4
-19.900	81030.4
-19.895	81022.4
-19.890	81022.4
-19.885	81057.4
-19.880	81053.4
-19.875	81039.4
-19.870	81036.4
-19.865	81015.4
-19.860	81019.4
-19.855	80997.4
-19.850	81004.4
-19.845	80997.4
-19.840	80992.4
-19.835	80980.4
-19.830	80937.5
-19.825	80909.5
-19.820	80923.5
-19.815	80908.5
-19.810	80902.5
-19.805	80905.5
-19.800	80879.5
-19.795	80860.5
-19.790	80851.5
-19.785	80832.5
-19.780	80827.5
-19.775	80829.5
-19.770	80836.5
-19.765	80772.6
-19.760	80740.6
-19.755	80736.6
-19.750	80757.6
-19.745	80768.6
-19.740	80792.5
-19.735	80778.6
-19.730	80761.6
-19.725	80748.6
-19.720	80754.6
-19.715	80773.5
-19.710	80781.5
-19.705	80784.5
-19.700	80770.5
-19.695	80754.6
-19.690	80768.5
-19.685	80800.5
-19.680	80800.5
-19.675	80794.5
-19.670	80778.5
-19.665	80781.5
-19.660	80769.5
-19.655	80778.5
-19.650	80788.5
-19.645	80793.5
-19.640	80801.5
-19.635	80781.5
-19.630	80772.5
-19.625	80758.5
-19.620	80794.5
-19.615	80785.5
-19.610	80794.5
-19.605	80774.5
-19.600	80772.5
-19.595	80755.5
-19.590	80759.5
-19.585	80768.5
-19.580	80786.5
-19.575	80793.5
-19.570	80786.5
-19.565	80750.5
-19.560	80721.5
-19.555	80736.5
-19.550	80763.5
-19.545	80755.5
-19.540	80753.5
-19.535	80740.5
-19.530	80749.5
-19.525	80746.5
-19.520	80766.5
-19.515	80792.5
-19.510	80808.4
-19.505	80823.4
-19.500	80834.4
-19.495	80828.4
-19.490	80868.4
-19.485	80930.3
-19.480	80966.3
-19.475	80959.3
-19.470	80957.3
-19.465	80942.3
-19.460	80951.3
-19.455	80975.3
-19.450	80997.3
-19.445	81003.3
-19.440	81027.3
-19.435	81007.3
-19.430	80995.3
-19.425	81019.3
-19.420	81090.2
-19.415	81101.2
-19.410	81111.2
-19.405	81127.2
-19.400	81127.2
-19.395	81117.2
-19.390	81118.2
-19.385	81108.2
-19.380	81104.2
-19.375	81102.2
-19.370	81116.2
-19.365	81079.2
-19.360	81061.2
-19.355	81070.2
-19.350	81077.2
-19.345	81064.2
-19.340	81061.2
-19.335	81030.2
-19.330	81032.2
-19.325	81005.2
-19.320	80993.3
-19.315	80995.2
-19.310	80999.2
-19.305	80991.3
-19.300	80979.3
-19.295	80954.3
-19.290	80958.3
-19.285	80952.3
-19.280	80948.3
-19.275	80938.3
-19.270	80953.3
-19.265	80961.3
-19.260	80986.2
-19.255	80971.3
-19.250	80954.3
-19.245	80966.3
-19.240	80998.2
-19.235	81021.2
-19.230	81022.2
-19.225	81020.2
-19.220	81058.2
-19.215	81072.2
-19.210	81100.1
-19.205	81119.1
-19.200	81165.1
-19.195	81193.1
-19.190	81206.1
-19.185	81231.0
-19.180	81255.0
-19.175	81266.0
-19.170	81283.0
-19.165	81266.0
-19.160	81275.0
-19.155	81297.0
-19.150	81340.9
-19.145	81351.9
-19.140	81357.9
-19.135	81353.9
-19.130	81365.9
-19.125	81367.9
-19.120	81361.9
-19.115	81353.9
-19.110	81359.9
-19.105	81341.9
-19.100	81336.9
-19.095	81313.0
-19.090	81316.9
-19.085	81341.9
-19.080	81331.9
-19.075	81317.9
-19.070	81303.0
-19.065	81278.0
-19.060	81274.0
-19.055	81249.0
-19.050	81248.0
-19.045	81248.0
-19.040	81235.0
-19.035	81206.0
-19.030	81188.0
-19.025	81174.0
-19.020	81196.0
-19.015	81191.0
-19.010	81198.0
-19.005	81210.0
-19.000	81212.0
-18.995	81229.0
-18.990	81227.0
-18.985	81216.0
-18.980	81216.0
-18.975	81215.0
-18.970	81221.0
-18.965	81207.0
-18.960	81200.0
-18.955	81212.0
-18.950	81235.0
-18.945	81245.0
-18.940	81243.0
-18.935	81244.0
-18.930	81246.0
-18.925	81244.0
-18.920	81238.0
-18.915	81217.0
-18.910	81216.0
-18.905	81205.0
-18.900	81176.0
-18.895	81169.0
-18.890	81183.0
-18.885	81202.0
-18.880	81205.0
-18.875	81206.0
-18.870	81205.0
-18.865	81200.0
-18.860	81210.0
-18.855	81208.0
-18.850	81213.0
-18.845	81208.0
-18.840	81208.0
-18.835	81185.0
-18.830	81169.0
-18.825	81161.0
-18.820	81194.0
-18.815	81196.0
-18.810	81202.0
-18.805	81189.0
-18.800	81168.0
-18.795	81155.0
-18.790	81154.0
-18.785	81156.0
-18.780	81162.0
-18.775	81158.0
-18.770	81178.0
-18.765	81166.0
-18.760	81162.0
-18.755	81168.0
-18.750	81187.0
-18.745	81185.0
-18.740	81186.0
-18.735	81182.0
-18.730	81184.0
-18.725	81169.0
-18.720	81200.0
-18.715	81210.9
-18.710	81247.9
-18.705	81249.9
-18.700	81257.9
-18.695	81253.9
-18.690	81293.9
-18.685	81358.8
-18.680	81374.8
-18.675	81379.8
-18.670	81375.8
-18.665	81391.8
-18.660	81402.8
-18.655	81411.8
-18.650	81421.8
-18.645	81410.8
-18.640	81416.8
-18.635	81397.8
-18.630	81389.8
-18.625	81390.8
-18.620	81447.8
-18.615	81449.7
-18.610	81457.7
-18.605	81461.7
-18.600	81471.7
-18.595	81460.7
-18.590	81472.7
-18.585	81469.7
-18.580	81486.7
-18.575	81500.7
-18.570	81512.7
-18.565	81481.7
-18.560	81488.7
-18.555	81506.7
-18.550	81532.7
-18.545	81539.7
-18.540	81549.7
-18.535	81547.7
-18.530	81552.7
-18.525	81544.7
-18.520	81548.7
-18.515	81558.7
-18.510	81572.6
-18.505	81570.6
-18.500	81535.7
-18.495	81513.7
-18.490	81532.7
-18.485	81560.6
-18.480	81570.6
-18.475	81574.6
-18.470	81569.6
-18.465	81562.6
-18.460	81564.6
-18.455	81555.6
-18.450	81569.6
-18.445	81566.6
-18.440	81583.6
-18.435	81556.6
-18.430	81547.6
-18.425	81538.7
-18.420	81580.6
-18.415	81570.6
-18.410	81580.6
-18.405	81562.6
-18.400	81560.6
-18.395	81566.6
-18.390	81558.6
-18.385	81560.6
-18.380	81560.6
-18.375	81554.6
-18.370	81552.6
-18.365	81528.7
-18.360	81536.6
-18.355	81574.6
-18.350	81576.6
-18.345	81572.6
-18.340	81584.6
-18.335	81577.6
-18.330	81583.6
-18.325	81573.6
-18.320	81570.6
-18.315	81570.6
-18.310	81587.6
-18.305	81585.6
-18.300	81578.6
-18.295	81552.6
-18.290	81565.6
-18.285	81578.6
-18.280	81594.6
-18.275	81589.6
-18.270	81585.6
-18.265	81587.6
-18.260	81589.6
-18.255	81587.6
-18.250	81587.6
-18.245	81590.6
-18.240	81596.6
-18.235	81581.6
-18.230	81560.6
-18.225	81567.6
-18.220	81615.6
-18.215	81605.6
-18.210	81604.6
-18.205	81598.6
-18.200	81595.6
-18.195	81583.6
-18.190	81602.6
-18.185	81600.6
-18.180	81606.6
-18.175	81619.6
-18.170	81614.6
-18.165	81591.6
-18.160	81575.6
-18.155	81599.6
-18.150	81612.6
-18.145	81587.6
-18.140	81581.6
-18.135	81573.6
-18.130	81568.6
-18.125	81552.6
-18.120	81544.6
-18.115	81525.6
-18.110	81523.6
-18.105	81526.6
-18.100	81489.6
-18.095	81467.7
-18.090	81477.6
-18.085	81486.6
-18.080	81481.6
-18.075	81474.6
-18.070	81455.7
-18.065	81451.7
-18.060	81447.7
-18.055	81441.7
-18.050	81448.7
-18.045	81453.7
-18.040	81452.7
-18.035	81424.7
-18.030	81386.7
-18.025	81367.7
-18.020	81393.7
-18.015	81391.7
-18.010	81384.7
-18.005	81376.7
-18.000	81380.7
-17.995	81372.7
-17.990	81370.7
-17.985	81359.7
-17.980	81369.7
-17.975	81361.7
-17.970	81356.7
-17.965	81345.7
-17.960	81357.7
-17.955	81397.7
-17.950	81426.7
-17.945	81426.7
-17.940	81417.7
-17.935	81413.7
-17.930	81421.7
-17.925	81435.7
-17.920	81449.6
-17.915	81460.6
-17.910	81475.6
-17.905	81483.6
-17.900	81473.6
-17.895	81466.6
-17.890	81484.6
-17.885	81517.6
-17.880	81526.6
-17.875	81514.6
-17.870	81517.6
-17.865	81523.6
-17.860	81530.6
-17.855	81531.6
-17.850	81546.6
-17.845	81538.6
-17.840	81548.6
-17.835	81513.6
-17.830	81502.6
-17.825	81512.6
-17.820	81552.6
-17.815	81559.6
-17.810	81556.6
-17.805	81555.6
-17.800	81554.6
-17.795	81543.6
-17.790	81541.6
-17.785	81539.6
-17.780	81545.6
-17.775	81554.6
-17.770	81572.5
-17.765	81550.6
-17.760	81540.6
-17.755	81566.5
-17.750	81583.5
-17.745	81588.5
-17.740	81581.5
-17.735	81574.5
-17.730	81576.5
-17.725	81564.5
-17.720	81579.5
-17.715	81571.5
-17.710	81585.5
-17.705	81598.5
-17.700	81574.5
-17.695	81559.5
-17.690	81604.5
-17.685	81619.5
-17.680	81623.5
-17.675	81618.5
-17.670	81623.5
-17.665	81630.5
-17.660	81631.5
-17.655	81633.5
-17.650	81641.5
-17.645	81650.5
-17.640	81659.5
-17.635	81640.5
-17.630	81629.5
-17.625	81626.5
-17.620	81675.4
-17.615	81665.4
-17.610	81671.4
-17.605	81675.4
-17.600	81674.4
-17.595	81669.4
-17.590	81667.4
-17.585	81671.4
-17.580	81657.4
-17.575	81560.5
-17.570	81497.6
-17.565	81545.5
-17.560	81614.5
-17.555	81657.4
-17.550	81664.4
-17.545	81653.4
-17.540	81653.5
-17.535	81636.5
-17.530	81635.5
-17.525	81633.5
-17.520	81635.5
-17.515	81628.5
-17.510	81631.5
-17.505	81637.5
-17.500	81614.5
-17.495	81604.5
-17.490	81626.5
-17.485	81647.4
-17.480	81641.4
-17.475	81650.4
-17.470	81653.4
-17.465	81636.5
-17.460	81640.5
-17.455	81641.4
-17.450	81649.4
-17.445	81643.4
-17.440	81652.4
-17.435	81637.4
-17.430	81617.5
-17.425	81620.5
-17.420	81657.4
-17.415	81657.4
-17.410	81664.4
-17.405	81664.4
-17.400	81660.4
-17.395	81658.4
-17.390	81682.4
-17.385	81677.4
-17.380	81691.4
-17.375	81703.4
-17.370	81705.4
-17.365	81676.4
-17.360	81677.4
-17.355	81702.4
-17.350	81721.4
-17.345	81717.4
-17.340	81714.4
-17.335	81707.4
-17.330	81704.4
-17.325	81699.4
-17.320	81716.4
-17.315	81715.4
-17.310	81719.4
-17.305	81725.4
-17.300	81703.4
-17.295	81690.4
-17.290	81713.4
-17.285	81739.4
-17.280	81739.4
-17.275	81740.4
-17.270	81749.3
-17.265	81741.4
-17.260	81760.3
-17.255	81754.3
-17.250	81763.3
-17.245	81758.3
-17.240	81778.3
-17.235	81764.3
-17.230	81753.3
-17.225	81754.3
-17.220	81789.3
-17.215	81793.3
-17.210	81795.3
-17.205	81799.3
-17.200	81804.3
-17.195	81811.3
-17.190	81806.3
-17.185	81801.3
-17.180	81800.3
-17.175	81799.3
-17.170	81788.3
-17.165	81768.3
-17.160	81772.3
-17.155	81800.3
-17.150	81810.3
-17.145	81801.3
-17.140	81807.3
-17.135	81803.3
-17.130	81806.3
-17.125	81805.3
-17.120	81800.3
-17.115	81793.3
-17.110	81795.3
-17.105	81784.3
-17.100	81769.3
-17.095	81741.3
-17.090	81761.3
-17.085	81780.3
-17.080	81777.3
-17.075	81778.3
-17.070	81781.3
-17.065	81792.3
-17.060	81784.3
-17.055	81793.3
-17.050	81778.3
-17.045	81777.3
-17.040	81782.3
-17.035	81767.3
-17.030	81756.3
-17.025	81775.3
-17.020	81799.3
-17.015	81796.3
-17.010	81810.3
-17.005	81807.3
-17.000	81803.3
-16.995	81806.3
-16.990	81803.3
-16.985	81801.3
-16.980	81800.3
-16.975	81812.3
-16.970	81815.3
-16.965	81794.3
-16.960	81803.3
-16.955	81832.3
-16.950	81845.2
-16.945	81840.2
-16.940	81840.2
-16.935	81831.3
-16.930	81833.2
-16.925	81828.3
-16.920	81832.2
-16.915	81826.3
-16.910	81827.3
-16.905	81828.3
-16.900	81805.3
-16.895	81791.3
-16.890	81813.3
-16.885	81825.2
-16.880	81822.3
-16.875	81822.3
-16.870	81811.3
-16.865	81813.3
-16.860	81812.3
-16.855	81809.3
-16.850	81819.3
-16.845	81822.2
-16.840	81832.2
-16.835	81803.3
-16.830	81799.3
-16.825	81794.3
-16.820	81822.2
-16.815	81818.3
-16.810	81821.2
-16.805	81814.3
-16.800	81812.3
-16.795	81811.3
-16.790	81810.3
-16.785	81796.3
-16.780	81783.3
-16.775	81782.3
-16.770	81764.3
-16.765	81740.3
-16.760	81738.3
-16.755	81767.3
-16.750	81759.3
-16.745	81745.3
-16.740	81739.3
-16.735	81721.3
-16.730	81727.3
-16.725	81726.3
-16.720	81728.3
-16.715	81731.3
-16.710	81745.3
-16.705	81738.3
-16.700	81709.3
-16.695	81685.3
-16.690	81729.3
-16.685	81735.3
-16.680	81739.3
-16.675	81735.3
-16.670	81738.3
-16.665	81740.3
-16.660	81730.3
-16.655	81741.3
-16.650	81740.3
-16.645	81726.3
-16.640	81726.3
-16.635	81705.3
-16.630	81701.3
-16.625	81698.3
-16.620	81736.3
-16.615	81731.3
-16.610	81733.3
-16.605	81736.3
-16.600	81734.3
-16.595	81735.3
-16.590	81738.3
-16.585	81729.3
-16.580	81741.3
-16.575	81743.3
-16.570	81721.3
-16.565	81698.3
-16.560	81694.3
-16.555	81725.3
-16.550	81729.3
-16.545	81715.3
-16.540	81721.3
-16.535	81713.3
-16.530	81717.3
-16.525	81709.3
-16.520	81712.3
-16.515	81702.3
-16.510	81698.3
-16.505	81689.3
-16.500	81666.3
-16.495	81660.3
-16.490	81694.3
-16.485	81704.3
-16.480	81712.3
-16.475	81704.3
-16.470	81694.3
-16.465	81692.3
-16.460	81696.3
-16.455	81688.3
-16.450	81696.3
-16.445	81701.3
-16.440	81702.3
-16.435	81684.3
-16.430	81668.3
-16.425	81678.3
-16.420	81697.3
-16.415	81698.3
-16.410	81701.3
-16.405	81701.3
-16.400	81714.3
-16.395	81715.3
-16.390	81719.3
-16.385	81720.3
-16.380	81724.3
-16.375	81735.3
-16.370	81724.3
-16.365	81708.3
-16.360	81712.3
-16.355	81732.3
-16.350	81745.3
-16.345	81738.3
-16.340	81746.3
-16.335	81750.3
-16.330	81746.3
-16.325	81748.3
-16.320	81756.3
-16.315	81756.3
-16.310	81767.2
-16.305	81770.2
-16.300	81742.3
-16.295	81734.3
-16.290	81759.2
-16.285	81778.2
-16.280	81783.2
-16.275	81784.2
-16.270	81784.2
-16.265	81787.2
-16.260	81792.2
-16.255	81791.2
-16.250	81797.2
-16.245	81798.2
-16.240	81805.2
-16.235	81784.2
-16.230	81768.2
-16.225	81772.2
-16.220	81803.2
-16.215	81785.2
-16.210	81791.2
-16.205	81792.2
-16.200	81786.2
-16.195	81783.2
-16.190	81799.2
-16.185	81792.2
-16.180	81803.2
-16.175	81801.2
-16.170	81786.2
-16.165	81772.2
-16.160	81766.2
-16.155	81798.2
-16.150	81786.2
-16.145	81774.2
-16.140	81764.2
-16.135	81762.2
-16.130	81756.2
-16.125	81755.2
-16.120	81759.2
-16.115	81761.2
-16.110	81757.2
-16.105	81741.2
-16.100	81725.3
-16.095	81708.3
-16.090	81733.2
-16.085	81728.3
-16.080	81709.3
-16.075	81696.3
-16.070	81700.3
-16.065	81692.3
-16.060	81689.3
-16.055	81685.3
-16.050	81678.3
-16.045	81664.3
-16.040	81676.3
-16.035	81645.3
-16.030	81622.3
-16.025	81636.3
-16.020	81647.3
-16.015	81641.3
-16.010	81627.3
-16.005	81630.3
-16.000	81624.3
-15.995	81630.3
-15.990	81625.3
-15.985	81628.3
-15.980	81626.3
-15.975	81633.3
-15.970	81617.3
-15.965	81599.3
-15.960	81608.3
-15.955	81652.3
-15.950	81657.3
-15.945	81646.3
-15.940	81639.3
-15.935	81637.3
-15.930	81634.3
-15.925	81638.3
-15.920	81642.3
-15.915	81647.3
-15.910	81659.3
-15.905	81664.3
-15.900	81641.3
-15.895	81639.3
-15.890	81681.3
-15.885	81690.3
-15.880	81701.3
-15.875	81691.3
-15.870	81699.3
-15.865	81693.3
-15.860	81701.3
-15.855	81707.3
-15.850	81715.2
-15.845	81718.2
-15.840	81742.2
-15.835	81714.2
-15.830	81707.3
-15.825	81727.2
-15.820	81752.2
-15.815	81756.2
-15.810	81765.2
-15.805	81760.2
-15.800	81758.2
-15.795	81764.2
-15.790	81773.2
-15.785	81781.2
-15.780	81798.2
-15.775	81808.2
-15.770	81802.2
-15.765	81777.2
-15.760	81792.2
-15.755	81838.1
-15.750	81837.2
-15.745	81837.1
-15.740	81848.1
-15.735	81841.1
-15.730	81849.1
-15.725	81850.1
-15.720	81854.1
-15.715	81860.1
-15.710	81868.1
-15.705	81850.1
-15.700	81832.2
-15.695	81824.2
-15.690	81853.1
-15.685	81867.1
-15.680	81861.1
-15.675	81858.1
-15.670	81855.1
-15.665	81856.1
-15.660	81860.1
-15.655	81847.1
-15.650	81866.1
-15.645	81859.1
-15.640	81868.1
-15.635	81845.1
-15.630	81828.2
-15.625	81830.1
-15.620	81856.1
-15.615	81859.1
-15.610	81857.1
-15.605	81857.1
-15.600	81850.1
-15.595	81840.1
-15.590	81834.1
-15.585	81839.1
-15.580	81833.1
-15.575	81838.1
-15.570	81814.2
-15.565	81795.2
-15.560	81800.2
-15.555	81821.1
-15.550	81826.1
-15.545	81818.1
-15.540	81817.2
-15.535	81806.2
-15.530	81805.2
-15.525	81800.2
-15.520	81792.2
-15.515	81795.2
-15.510	81808.2
-15.505	81804.2
-15.500	81777.2
-15.495	81762.2
-15.490	81802.2
-15.485	81804.2
-15.480	81814.1
-15.475	81814.1
-15.470	81803.2
-15.465	81801.2
-15.460	81797.2
-15.455	81794.2
-15.450	81800.2
-15.445	81791.2
-15.440	81805.2
-15.435	81778.2
-15.430	81765.2
-15.425	81774.2
-15.420	81800.2
-15.415	81794.2
-15.410	81791.2
-15.405	81781.2
-15.400	81767.2
-15.395	81761.2
-15.390	81772.2
-15.385	81768.2
-15.380	81785.2
-15.375	81792.2
-15.370	81787.2
-15.365	81758.2
-15.360	81771.2
-15.355	81793.2
-15.350	81806.1
-15.345	81807.1
-15.340	81805.1
-15.335	81790.2
-15.330	81802.1
-15.325	81796.2
-15.320	81799.2
-15.315	81800.1
-15.310	81801.1
-15.305	81792.2
-15.300	81769.2
-15.295	81775.2
-15.290	81815.1
-15.285	81817.1
-15.280	81829.1
-15.275	81827.1
-15.270	81814.1
-15.265	81804.1
-15.260	81811.1
-15.255	81806.1
-15.250	81806.1
-15.245	81814.1
-15.240	81827.1
-15.235	81796.1
-15.230	81786.2
-15.225	81793.1
-15.220	81813.1
-15.215	81811.1
-15.210	81823.1
-15.205	81812.1
-15.200	81806.1
-15.195	81800.1
-15.190	81803.1
-15.185	81784.2
-15.180	81779.2
-15.175	81780.2
-15.170	81751.2
-15.165	81720.2
-15.160	81716.2
-15.155	81748.2
-15.150	81744.2
-15.145	81749.2
-15.140	81744.2
-15.135	81735.2
-15.130	81720.2
-15.125	81713.2
-15.120	81697.2
-15.115	81687.2
-15.110	81683.2
-15.105	81663.2
-15.100	81630.3
-15.095	81604.3
-15.090	81630.3
-15.085	81617.3
-15.080	81610.3
-15.075	81594.3
-15.070	81570.3
-15.065	81552.3
-15.060	81529.3
-15.055	81505.3
-15.050	81495.4
-15.045	81502.4
-15.040	81497.4
-15.035	81451.4
-15.030	81453.4
-15.025	81458.4
-15.020	81478.4
-15.015	81486.4
-15.010	81477.4
-15.005	81477.4
-15.000	81470.4
-14.995	81473.4
-14.990	81471.4
-14.985	81478.4
-14.980	81484.4
-14.975	81474.4
-14.970	81459.4
-14.965	81441.4
-14.960	81447.4
-14.955	81479.4
-14.950	81480.4
-14.945	81476.4
-14.940	81486.4
-14.935	81476.4
-14.930	81484.4
-14.925	81474.4
-14.920	81488.4
-14.915	81503.4
-14.910	81512.3
-14.905	81521.3
-14.900	81505.4
-14.895	81513.3
-14.890	81563.3
-14.885	81575.3
-14.880	81588.3
-14.875	81593.3
-14.870	81602.3
-14.865	81605.3
-14.860	81624.3
-14.855	81628.3
-14.850	81638.2
-14.845	81645.2
-14.840	81661.2
-14.835	81650.2
-14.830	81638.2
-14.825	81675.2
-14.820	81712.2
-14.815	81704.2
-14.810	81713.2
-14.805	81718.2
-14.800	81727.2
-14.795	81715.2
-14.790	81723.2
-14.785	81736.2
-14.780	81744.2
-14.775	81750.2
-14.770	81745.2
-14.765	81723.2
-14.760	81745.2
-14.755	81770.1
-14.750	81779.1
-14.745	81779.1
-14.740	81790.1
-14.735	81778.1
-14.730	81783.1
-14.725	81776.1
-14.720	81771.1
-14.715	81780.1
-14.710	81798.1
-14.705	81783.1
-14.700	81763.1
-14.695	81755.2
-14.690	81796.1
-14.685	81802.1
-14.680	81807.1
-14.675	81796.1
-14.670	81791.1
-14.665	81785.1
-14.660	81782.1
-14.655	81766.1
-14.650	81773.1
-14.645	81767.1
-14.640	81764.1
-14.635	81731.2
-14.630	81727.2
-14.625	81740.2
-14.620	81761.1
-14.615	81758.1
-14.610	81763.1
-14.605	81757.1
-14.600	81750.1
-14.595	81745.2
-14.590	81732.2
-14.585	81742.2
-14.580	81757.1
-14.575	81762.1
-14.570	81740.2
-14.565	81723.2
-14.560	81728.2
-14.555	81744.2
-14.550	81746.1
-14.545	81754.1
-14.540	81756.1
-14.535	81745.2
-14.530	81750.1
-14.525	81756.1
-14.520	81768.1
-14.515	81759.1
-14.510	81757.1
-14.505	81743.1
-14.500	81728.2
-14.495	81734.2
-14.490	81773.1
-14.485	81771.1
-14.480	81773.1
-14.475	81778.1
-14.470	81786.1
-14.465	81782.1
-14.460	81786.1
-14.455	81788.1
-14.450	81792.1
-14.445	81800.1
-14.440	81811.1
-14.435	81783.1
-14.430	81776.1
-14.425	81795.1
-14.420	81810.1
-14.415	81815.1
-14.410	81820.1
-14.405	81824.1
-14.400	81830.1
-14.395	81830.1
-14.390	81821.1
-14.385	81828.1
-14.380	81842.1
-14.375	81831.1
-14.370	81819.1
-14.365	81802.1
-14.360	81819.1
-14.355	81841.1
-14.350	81842.1
-14.345	81848.1
-14.340	81865.0
-14.335	81858.1
-14.330	81870.0
-14.325	81868.0
-14.320	81861.0
-14.315	81870.0
-14.310	81889.0
-14.305	81874.0
-14.300	81854.0
-14.295	81856.1
-14.290	81894.0
-14.285	81889.0
-14.280	81894.0
-14.275	81890.0
-14.270	81882.0
-14.265	81884.0
-14.260	81892.0
-14.255	81880.0
-14.250	81877.0
-14.245	81889.0
-14.240	81892.0
-14.235	81849.1
-14.230	81865.0
-14.225	81888.0
-14.220	81905.0
-14.215	81890.0
-14.210	81901.0
-14.205	81887.0
-14.200	81882.0
-14.195	81885.0
-14.190	81886.0
-14.185	81883.0
-14.180	81888.0
-14.175	81894.0
-14.170	81887.0
-14.165	81868.0
-14.160	81877.0
-14.155	81898.0
-14.150	81893.0
-14.145	81883.0
-14.140	81889.0
-14.135	81888.0
-14.130	81890.0
-14.125	81881.0
-14.120	81874.0
-14.115	81879.0
-14.110	81888.0
-14.105	81871.0
-14.100	81858.0
-14.095	81862.0
-14.090	81890.0
-14.085	81899.0
-14.080	81897.0
-14.075	81890.0
-14.070	81892.0
-14.065	81891.0
-14.060	81892.0
-14.055	81879.0
-14.050	81883.0
-14.045	81883.0
-14.040	81898.0
-14.035	81871.0
-14.030	81865.0
-14.025	81893.0
-14.020	81898.0
-14.015	81903.0
-14.010	81910.0
-14.005	81914.0
-14.000	81907.0
-13.995	81899.0
-13.990	81899.0
-13.985	81902.0
-13.980	81902.0
-13.975	81897.0
-13.970	81878.0
-13.965	81860.0
-13.960	81878.0
-13.955	81905.0
-13.950	81899.0
-13.945	81907.0
-13.940	81910.0
-13.935	81912.0
-13.930	81919.0
-13.925	81912.0
-13.920	81916.0
-13.915	81915.0
-13.910	81915.0
-13.905	81904.0
-13.900	81886.0
-13.895	81886.0
-13.890	81927.0
-13.885	81925.0
-13.880	81914.0
-13.875	81915.0
-13.870	81925.0
-13.865	81914.0
-13.860	81916.0
-13.855	81915.0
-13.850	81917.0
-13.845	81913.0
-13.840	81904.0
-13.835	81880.0
-13.830	81884.0
-13.825	81917.0
-13.820	81922.0
-13.815	81911.0
-13.810	81909.0
-13.805	81903.0
-13.800	81897.0
-13.795	81896.0
-13.790	81900.0
-13.785	81895.0
-13.780	81899.0
-13.775	81906.0
-13.770	81899.0
-13.765	81877.0
-13.760	81899.0
-13.755	81929.0
-13.750	81929.0
-13.745	81931.0
-13.740	81931.0
-13.735	81919.0
-13.730	81918.0
-13.725	81918.0
-13.720	81927.0
-13.715	81925.0
-13.710	81935.0
-13.705	81912.0
-13.700	81899.0
-13.695	81912.0
-13.690	81948.0
-13.685	81937.0
-13.680	81932.0
-13.675	81932.0
-13.670	81940.0
-13.665	81938.0
-13.660	81935.0
-13.655	81936.0
-13.650	81947.0
-13.645	81946.0
-13.640	81953.9
-13.635	81928.0
-13.630	81930.0
-13.625	81951.9
-13.620	81962.9
-13.615	81967.9
-13.610	81956.9
-13.605	81957.9
-13.600	81968.9
-13.595	81967.9
-13.590	81960.9
-13.585	81964.9
-13.580	81968.9
-13.575	81963.9
-13.570	81937.0
-13.565	81928.0
-13.560	81951.9
-13.555	81969.9
-13.550	81963.9
-13.545	81954.9
-13.540	81965.9
-13.535	81950.9
-13.530	81947.9
-13.525	81938.0
-13.520	81948.9
-13.515	81938.0
-13.510	81939.9
-13.505	81930.0
-13.500	81909.0
-13.495	81900.0
-13.490	81939.0
-13.485	81939.0
-13.480	81937.0
-13.475	81934.0
-13.470	81929.0
-13.465	81919.0
-13.460	81923.0
-13.455	81909.0
-13.450	81910.0
-13.445	81911.0
-13.440	81889.0
-13.435	81855.0
-13.430	81850.0
-13.425	81868.0
-13.420	81878.0
-13.415	81867.0
-13.410	81872.0
-13.405	81868.0
-13.400	81863.0
-13.395	81846.0
-13.390	81838.0
-13.385	81822.0
-13.380	81832.0
-13.375	81825.0
-13.370	81799.1
-13.365	81774.1
-13.360	81782.1
-13.355	81796.1
-13.350	81793.1
-13.345	81787.1
-13.340	81785.1
-13.335	81769.1
-13.330	81775.1
-13.325	81758.1
-13.320	81760.1
-13.315	81755.1
-13.310	81767.1
-13.305	81742.1
-13.300	81730.1
-13.295	81739.1
-13.290	81763.1
-13.285	81765.1
-13.280	81767.1
-13.275	81766.1
-13.270	81766.1
-13.265	81757.1
-13.260	81762.1
-13.255	81761.1
-13.250	81771.1
-13.245	81763.1
-13.240	81767.1
-13.235	81750.1
-13.230	81746.1
-13.225	81775.1
-13.220	81784.1
-13.215	81793.1
-13.210	81803.0
-13.205	81792.0
-13.200	81794.0
-13.195	81795.0
-13.190	81799.0
-13.185	81801.0
-13.180	81808.0
-13.175	81799.0
-13.170	81789.1
-13.165	81770.1
-13.160	81792.1
-13.155	81804.0
-13.150	81802.0
-13.145	81812.0
-13.140	81812.0
-13.135	81813.0
-13.130	81826.0
-13.125	81822.0
-13.120	81820.0
-13.115	81831.0
-13.110	81836.0
-13.105	81823.0
-13.100	81815.0
-13.095	81818.0
-13.090	81843.0
-13.085	81845.0
-13.080	81842.0
-13.075	81830.0
-13.070	81832.0
-13.065	81823.0
-13.060	81825.0
-13.055	81828.0
-13.050	81838.0
-13.045	81843.0
-13.040	81845.0
-13.035	81823.0
-13.030	81823.0
-13.025	81859.0
-13.020	81858.0
-13.015	81857.0
-13.010	81851.0
-13.005	81851.0
-13.000	81844.0
-12.995	81845.0
-12.990	81842.0
-12.985	81848.0
-12.980	81858.0
-12.975	81857.0
-12.970	81831.0
-12.965	81816.0
-12.960	81838.0
-12.955	81850.0
-12.950	81858.0
-12.945	81852.0
-12.940	81851.0
-12.935	81838.0
-12.930	81831.0
-12.925	81833.0
-12.920	81838.0
-12.915	81838.0
-12.910	81836.0
-12.905	81818.0
-12.900	81801.0
-12.895	81793.0
-12.890	81827.0
-12.885	81837.0
-12.880	81826.0
-12.875	81817.0
-12.870	81819.0
-12.865	81824.0
-12.860	81816.0
-12.855	81812.0
-12.850	81814.0
-12.845	81824.0
-12.840	81824.0
-12.835	81799.0
-12.830	81799.0
-12.825	81825.0
-12.820	81819.0
-12.815	81833.0
-12.810	81830.0
-12.805	81822.0
-12.800	81818.0
-12.795	81811.0
-12.790	81819.0
-12.785	81816.0
-12.780	81818.0
-12.775	81818.0
-12.770	81804.0
-12.765	81792.0
-12.760	81826.0
-12.755	81844.0
-12.750	81846.0
-12.745	81839.0
-12.740	81834.0
-12.735	81837.0
-12.730	81836.0
-12.725	81837.0
-12.720	81845.0
-12.715	81858.0
-12.710	81853.0
-12.705	81839.0
-12.700	81826.0
-12.695	81830.0
-12.690	81866.0
-12.685	81859.0
-12.680	81871.0
-12.675	81871.0
-12.670	81866.0
-12.665	81863.0
-12.660	81875.0
-12.655	81862.0
-12.650	81868.0
-12.645	81859.0
-12.640	81849.0
-12.635	81828.0
-12.630	81828.0
-12.625	81844.0
-12.620	81865.0
-12.615	81856.0
-12.610	81853.0
-12.605	81855.0
-12.600	81856.0
-12.595	81853.0
-12.590	81846.0
-12.585	81867.0
-12.580	81881.0
-12.575	81869.0
-12.570	81855.0
-12.565	81844.0
-12.560	81865.0
-12.555	81884.0
-12.550	81890.9
-12.545	81884.0
-12.540	81884.0
-12.535	81881.0
-12.530	81875.0
-12.525	81866.0
-12.520	81875.0
-12.515	81862.0
-12.510	81878.0
-12.505	81846.0
-12.500	81837.0
-12.495	81845.0
-12.490	81879.0
-12.485	81874.0
-12.480	81881.0
-12.475	81861.0
-12.470	81868.0
-12.465	81865.0
-12.460	81862.0
-12.455	81855.0
-12.450	81872.0
-12.445	81876.0
-12.440	81873.0
-12.435	81855.0
-12.430	81845.0
-12.425	81879.0
-12.420	81885.9
-12.415	81889.9
-12.410	81877.0
-12.405	81873.0
-12.400	81877.0
-12.395	81878.0
-12.390	81871.0
-12.385	81870.0
-12.380	81881.9
-12.375	81880.9
-12.370	81852.0
-12.365	81851.0
-12.360	81878.0
-12.355	81880.9
-12.350	81895.9
-12.345	81888.9
-12.340	81897.9
-12.335	81896.9
-12.330	81898.9
-12.325	81894.9
-12.320	81899.9
-12.315	81897.9
-12.310	81901.9
-12.305	81891.9
-12.300	81870.0
-12.295	81869.0
-12.290	81910.9
-12.285	81916.9
-12.280	81922.9
-12.275	81911.9
-12.270	81911.9
-12.265	81909.9
-12.260	81909.9
-12.255	81904.9
-12.250	81918.9
-12.245	81921.9
-12.240	81899.9
-12.235	81889.9
-12.230	81895.9
-12.225	81917.9
-12.220	81924.9
-12.215	81935.9
-12.210	81933.9
-12.205	81928.9
-12.200	81930.9
-12.195	81930.9
-12.190	81927.9
-12.185	81938.9
-12.180	81947.9
-12.175	81944.9
-12.170	81931.9
-12.165	81917.9
-12.160	81937.9
-12.155	81944.9
-12.150	81956.9
-12.145	81955.9
-12.140	81955.9
-12.135	81960.9
-12.130	81958.9
-12.125	81952.9
-12.120	81957.9
-12.115	81955.9
-12.110	81957.9
-12.105	81945.9
-12.100	81934.9
-12.095	81954.9
-12.090	81978.9
-12.085	81973.9
-12.080	81975.9
-12.075	81969.9
-12.070	81977.9
-12.065	81976.9
-12.060	81974.9
-12.055	81981.9
-12.050	81987.9
-12.045	81983.9
-12.040	81982.9
-12.035	81974.9
-12.030	81964.9
-12.025	82001.8
-12.020	82004.8
-12.015	82010.8
-12.010	82017.8
-12.005	82015.8
-12.000	82011.8
-11.995	82010.8
-11.990	82008.8
-11.985	82010.8
-11.980	82017.8
-11.975	82014.8
-11.970	81993.8
-11.965	81978.9
-11.960	82011.8
-11.955	82019.8
-11.950	82028.8
-11.945	82024.8
-11.940	82015.8
-11.935	82028.8
-11.930	82022.8
-11.925	82015.8
-11.920	82022.8
-11.915	82032.8
-11.910	82039.8
-11.905	82019.8
-11.900	82013.8
-11.895	82004.8
-11.890	82041.8
-11.885	82050.8
-11.880	82043.8
-11.875	82043.8
-11.870	82042.8
-11.865	82034.8
-11.860	82027.8
-11.855	82029.8
-11.850	82037.8
-11.845	82029.8
-11.840	82029.8
-11.835	81997.8
-11.830	82008.8
-11.825	82040.8
-11.820	82039.8
-11.815	82038.8
-11.810	82043.8
-11.805	82039.8
-11.800	82041.8
-11.795	82041.8
-11.790	82040.8
-11.785	82033.8
-11.780	82041.8
-11.775	82039.8
-11.770	82029.8
-11.765	82010.8
-11.760	82045.8
-11.755	82054.8
-11.750	82061.8
-11.745	82054.8
-11.740	82056.8
-11.735	82043.8
-11.730	82046.8
-11.725	82038.8
-11.720	82037.8
-11.715	82040.8
-11.710	82038.8
-11.705	82021.8
-11.700	82011.8
-11.695	82027.8
-11.690	82050.8
-11.685	82044.8
-11.680	82046.8
-11.675	82035.8
-11.670	82030.8
-11.665	82025.8
-11.660	82031.8
-11.655	82015.8
-11.650	82024.8
-11.645	82036.8
-11.640	82025.8
-11.635	81993.8
-11.630	81992.8
-11.625	82021.8
-11.620	82019.8
-11.615	82017.8
-11.610	82021.8
-11.605	82019.8
-11.600	82021.8
-11.595	82011.8
-11.590	82002.8
-11.585	82006.8
-11.580	82016.8
-11.575	81998.8
-11.570	81983.8
-11.565	81974.8
-11.560	82003.8
-11.555	82006.8
-11.550	82005.8
-11.545	82001.8
-11.540	81991.8
-11.535	81992.8
-11.530	81991.8
-11.525	81985.8
-11.520	81995.8
-11.515	82003.8
-11.510	82021.8
-11.505	81990.8
-11.500	81968.8
-11.495	81981.8
-11.490	82002.8
-11.485	82006.8
-11.480	82017.8
-11.475	81997.8
-11.470	82009.8
-11.465	81985.8
-11.460	81985.8
-11.455	81983.8
-11.450	81981.8
-11.445	81975.8
-11.440	81958.9
-11.435	81935.9
-11.430	81943.9
-11.425	81967.8
-11.420	81965.9
-11.415	81956.9
-11.410	81955.9
-11.405	81959.9
-11.400	81960.9
-11.395	81960.9
-11.390	81966.9
-11.385	81972.8
-11.380	81974.8
-11.375	81969.8
-11.370	81941.9
-11.365	81933.9
-11.360	81965.8
-11.355	81978.8
-11.350	81973.8
-11.345	81965.8
-11.340	81976.8
-11.335	81971.8
-11.330	81977.8
-11.325	81965.8
-11.320	81971.8
-11.315	81970.8
-11.310	81969.8
-11.305	81940.9
-11.300	81943.9
-11.295	81951.9
-11.290	81980.8
-11.285	81973.8
-11.280	81978.8
-11.275	81972.8
-11.270	81972.8
-11.265	81965.8
-11.260	81970.8
-11.255	81967.8
-11.250	81980.8
-11.245	81980.8
-11.240	81966.8
-11.235	81933.9
-11.230	81941.9
-11.225	81984.8
-11.220	81979.8
-11.215	81985.8
-11.210	81975.8
-11.205	81974.8
-11.200	81970.8
-11.195	81967.8
-11.190	81972.8
-11.185	81965.8
-11.180	81975.8
-11.175	81950.9
-11.170	81932.9
-11.165	81930.9
-11.160	81963.8
-11.155	81971.8
-11.150	81968.8
-11.145	81954.8
-11.140	81964.8
-11.135	81952.8
-11.130	81951.9
-11.125	81951.9
-11.120	81961.8
-11.115	81969.8
-11.110	81960.8
-11.105	81947.9
-11.100	81933.9
-11.095	81937.9
-11.090	81966.8
-11.085	81974.8
-11.080	81968.8
-11.075	81952.8
-11.070	81957.8
-11.065	81950.9
-11.060	81953.8
-11.055	81956.8
-11.050	81958.8
-11.045	81950.8
-11.040	81936.9
-11.035	81914.9
-11.030	81930.9
-11.025	81961.8
-11.020	81955.8
-11.015	81941.9
-11.010	81932.9
-11.005	81929.9
-11.000	81921.9
-10.995	81906.9
-10.990	81906.9
-10.985	81914.9
-10.980	81919.9
-10.975	81922.9
-10.970	81914.9
-10.965	81925.9
-10.960	81968.8
-10.955	81984.8
-10.950	81978.8
-10.945	81988.8
-10.940	81978.8
-10.935	81974.8
-10.930	81973.8
-10.925	81977.8
-10.920	81976.8
-10.915	81972.8
-10.910	81978.8
-10.905	81947.8
-10.900	81943.8
-10.895	81960.8
-10.890	81982.8
-10.885	81964.8
-10.880	81972.8
-10.875	81968.8
-10.870	81973.8
-10.865	81971.8
-10.860	81979.8
-10.855	81973.8
-10.850	81988.8
-10.845	82001.8
-10.840	81994.8
-10.835	81971.8
-10.830	81974.8
-10.825	82004.8
-10.820	82006.8
-10.815	82003.8
-10.810	82010.8
-10.805	82010.8
-10.800	82012.8
-10.795	82014.8
-10.790	82010.8
-10.785	82021.8
-10.780	82015.8
-10.775	81992.8
-10.770	81985.8
-10.765	81980.8
-10.760	82018.8
-10.755	82017.8
-10.750	82027.8
-10.745	82021.8
-10.740	82023.8
-10.735	82022.8
-10.730	82026.8
-10.725	82022.8
-10.720	82031.8
-10.715	82029.8
-10.710	82039.8
-10.705	82007.8
-10.700	81998.8
-10.695	82021.8
-10.690	82048.8
-10.685	82051.8
-10.680	82050.8
-10.675	82047.8
-10.670	82048.8
-10.665	82036.8
-10.660	82042.8
-10.655	82038.8
-10.650	82046.8
-10.645	82042.8
-10.640	82020.8
-10.635	82004.8
-10.630	82015.8
-10.625	82035.8
-10.620	82054.8
-10.615	82048.8
-10.610	82047.8
-10.605	82037.8
-10.600	82041.8
-10.595	82034.8
-10.590	82036.8
-10.585	82032.8
-10.580	82047.8
-10.575	82026.8
-10.570	82011.8
-10.565	81997.8
-10.560	82034.8
-10.555	82032.8
-10.550	82045.8
-10.545	82037.8
-10.540	82031.8
-10.535	82025.8
-10.530	82034.8
-10.525	82024.8
-10.520	82030.8
-10.515	82018.8
-10.510	82008.8
-10.505	81994.8
-10.500	81982.8
-10.495	81995.8
-10.490	82008.8
-10.485	82004.8
-10.480	82003.8
-10.475	81991.8
-10.470	81998.8
-10.465	81981.8
-10.460	81983.8
-10.455	81972.8
-10.450	81993.8
-10.445	81994.8
-10.440	81997.8
-10.435	81958.8
-10.430	81966.8
-10.425	81985.8
-10.420	81988.8
-10.415	81975.8
-10.410	81985.8
-10.405	81988.8
-10.400	81972.8
-10.395	81971.8
-10.390	81985.8
-10.385	81980.8
-10.380	81989.8
-10.375	81977.8
-10.370	81960.8
-10.365	81957.8
-10.360	81993.8
-10.355	81991.8
-10.350	81996.8
-10.345	81981.8
-10.340	81980.8
-10.335	81986.8
-10.330	81987.8
-10.325	81981.8
-10.320	81999.8
-10.315	82008.8
-10.310	82004.8
-10.305	81963.8
-10.300	81966.8
-10.295	81978.8
-10.290	81999.8
-10.285	81996.8
-10.280	82011.8
-10.275	81991.8
-10.270	81987.8
-10.265	81985.8
-10.260	81987.8
-10.255	81984.8
-10.250	81991.8
-10.245	81995.8
-10.240	81967.8
-10.235	81943.8
-10.230	81958.8
-10.225	81997.8
-10.220	82004.8
-10.215	82006.8
-10.210	81999.8
-10.205	82001.8
-10.200	82004.8
-10.195	81995.8
-10.190	82018.8
-10.185	82011.8
-10.180	82014.8
-10.175	82003.8
-10.170	81987.8
-10.165	81972.8
-10.160	82009.8
-10.155	82011.8
-10.150	82019.8
-10.145	82022.8
-10.140	82015.8
-10.135	82015.8
-10.130	82002.8
-10.125	82006.8
-10.120	82013.8
-10.115	82004.8
-10.110	82008.8
-10.105	81977.8
-10.100	81972.8
-10.095	81987.8
-10.090	82011.8
-10.085	82017.8
-10.080	82017.8
-10.075	82011.8
-10.070	82005.8
-10.065	81997.8
-10.060	81999.8
-10.055	82006.8
-10.050	82018.8
-10.045	82025.8
-10.040	82006.8
-10.035	81981.8
-10.030	82001.8
-10.025	82021.8
-10.020	82020.8
-10.015	82028.8
-10.010	82022.8
-10.005	82019.8
-10.000	82023.8
-9.995	82006.8
-9.990	82011.8
-9.985	82011.8
-9.980	82027.8
-9.975	82000.8
-9.970	81978.8
-9.965	81976.8
-9.960	82017.8
-9.955	82012.8
-9.950	82023.8
-9.945	82019.8
-9.940	82024.8
-9.935	82015.8
-9.930	82025.8
-9.925	82011.8
-9.920	82013.8
-9.915	82024.8
-9.910	82027.8
-9.905	81998.8
-9.900	81986.8
-9.895	82009.8
-9.890	82016.8
-9.885	82019.8
-9.880	82029.8
-9.875	82020.8
-9.870	82022.8
-9.865	82015.8
-9.860	82004.8
-9.855	82001.8
-9.850	82017.8
-9.845	82013.8
-9.840	81994.8
-9.835	81971.8
-9.830	81981.8
-9.825	82007.8
-9.820	82008.8
-9.815	82003.8
-9.810	82005.8
-9.805	82013.8
-9.800	82000.8
-9.795	81990.8
-9.790	82002.8
-9.785	81991.8
-9.780	82008.8
-9.775	81990.8
-9.770	81973.8
-9.765	81969.8
-9.760	82000.8
-9.755	81993.8
-9.750	82007.8
-9.745	82003.8
-9.740	82004.8
-9.735	81998.8
-9.730	82007.8
-9.725	81994.8
-9.720	81995.8
-9.715	81995.8
-9.710	81999.8
-9.705	81968.8
-9.700	81965.8
-9.695	81994.8
-9.690	82013.8
-9.685	82003.8
-9.680	81994.8
-9.675	81995.8
-9.670	82003.8
-9.665	81990.8
-9.660	81992.8
-9.655	81998.8
-9.650	82005.8
-9.645	82005.8
-9.640	81982.8
-9.635	81973.8
-9.630	81978.8
-9.625	82003.8
-9.620	82011.8
-9.615	82009.8
-9.610	82002.8
-9.605	82006.8
-9.600	82006.8
-9.595	81996.8
-9.590	82005.8
-9.585	81996.8
-9.580	82004.8
-9.575	81979.8
-9.570	81974.8
-9.565	81966.8
-9.560	82008.8
-9.555	82001.8
-9.550	81998.8
-9.545	81994.8
-9.540	81986.8
-9.535	81990.8
-9.530	81987.8
-9.525	82000.8
-9.520	82003.7
-9.515	81997.7
-9.510	82011.7
-9.505	81980.7
-9.500	81980.6
-9.495	81985.6
-9.490	81990.4
-9.485	81971.3
-9.480	81956.1
-9.475	81917.9
-9.470	81892.6
-9.465	81863.3
-9.460	81832.9
-9.455	81787.6
-9.450	81738.2
-9.445	81675.8
-9.440	81607.3
-9.435	81574.9
-9.430	81557.4
-9.425	81556.0
-9.420	81558.6
-9.415	81549.3
-9.410	81551.1
-9.405	81575.1
-9.400	81616.3
-9.395	81659.7
-9.390	81675.1
-9.385	81713.5
-9.380	81833.8
-9.375	81913.0
-9.370	81926.2
-9.365	81907.4
-9.360	81971.5
-9.355	81971.6
-9.350	81935.8
-9.345	81960.8
-9.340	81970.9
-9.335	81892.1
-9.330	81806.2
-9.325	81809.3
-9.320	81834.3
-9.315	81826.4
-9.310	81809.4
-9.305	81764.5
-9.300	81747.6
-9.295	81774.6
-9.290	81806.6
-9.285	81805.7
-9.280	81820.7
-9.275	81806.7
-9.270	81811.8
-9.265	81808.8
-9.260	81818.8
-9.255	81814.9
-9.250	81795.9
-9.245	81778.0
-9.240	81765.0
-9.235	81704.1
-9.230	81712.1
-9.225	81752.1
-9.220	81757.1
-9.215	81760.1
-9.210	81813.1
-9.205	81835.1
-9.200	81861.1
-9.195	81864.1
-9.190	81889.1
-9.185	81880.2
-9.180	81876.2
-9.175	81860.2
-9.170	81837.3
-9.165	81836.3
-9.160	81860.3
-9.155	81846.3
-9.150	81834.3
-9.145	81833.3
-9.140	81838.4
-9.135	81830.4
-9.130	81818.4
-9.125	81807.4
-9.120	81812.4
-9.115	81805.4
-9.110	81808.5
-9.105	81769.5
-9.100	81758.5
-9.095	81743.5
-9.090	81750.5
-9.085	81760.6
-9.080	81746.6
-9.075	81716.6
-9.070	81688.6
-9.065	81667.7
-9.060	81658.7
-9.055	81658.7
-9.050	81637.7
-9.045	81627.7
-9.040	81575.8
-9.035	81557.8
-9.030	81563.8
-9.025	81580.8
-9.020	81571.8
-9.015	81553.8
-9.010	81551.9
-9.005	81548.9
-9.000	81559.9
-8.995	81560.9
-8.990	81556.9
-8.985	81574.9
-8.980	81609.9
-8.975	81658.8
-8.970	81705.8
-8.965	81761.8
-8.960	81835.7
-8.955	81850.7
-8.950	81858.7
-8.945	81871.7
-8.940	81872.7
-8.935	81889.7
-8.930	81909.7
-8.925	81920.7
-8.920	81914.7
-8.915	81922.7
-8.910	81905.7
-8.905	81876.8
-8.900	81877.8
-8.895	81904.8
-8.890	81923.7
-8.885	81926.7
-8.880	81919.8
-8.875	81911.8
-8.870	81907.8
-8.865	81907.8
-8.860	81919.8
-8.855	81917.8
-8.850	81915.8
-8.845	81914.8
-8.840	81887.8
-8.835	81881.8
-8.830	81909.8
-8.825	81931.8
-8.820	81927.8
-8.815	81921.8
-8.810	81928.8
-8.805	81931.8
-8.800	81940.8
-8.795	81945.8
-8.790	81950.8
-8.785	81940.8
-8.780	81940.8
-8.775	81933.9
-8.770	81926.9
-8.765	81941.8
-8.760	81975.8
-8.755	81971.8
-8.750	81965.8
-8.745	81960.9
-8.740	81963.9
-8.735	81967.9
-8.730	81968.9
-8.725	81959.9
-8.720	81966.9
-8.715	81953.9
-8.710	81952.9
-8.705	81934.9
-8.700	81940.9
-8.695	81977.9
-8.690	81997.9
-8.685	81988.9
-8.680	81992.9
-8.675	81971.9
-8.670	81971.9
-8.665	81969.9
-8.660	81975.9
-8.655	81965.9
-8.650	81958.9
-8.645	81939.9
-8.640	81903.0
-8.635	81917.0
-8.630	81964.9
-8.625	81987.9
-8.620	81984.9
-8.615	81985.9
-8.610	81992.9
-8.605	81992.9
-8.600	82001.9
-8.595	81982.9
-8.590	81981.9
-8.585	81968.0
-8.580	81963.0
-8.575	81952.0
-8.570	81964.0
-8.565	81978.0
-8.560	82016.9
-8.555	82004.9
-8.550	81998.9
-8.545	81995.0
-8.540	82005.0
-8.535	82010.0
-8.530	82013.0
-8.525	82018.0
-8.520	82028.9
-8.515	82029.0
-8.510	82029.0
-8.505	82010.0
-8.500	82014.0
-8.495	82055.9
-8.490	82061.9
-8.485	82051.9
-8.480	82045.9
-8.475	82044.0
-8.470	82036.0
-8.465	82035.0
-8.460	82043.0
-8.455	82042.0
-8.450	82044.0
-8.445	82048.0
-8.440	82031.0
-8.435	82016.0
-8.430	82042.0
-8.425	82060.0
-8.420	82070.0
-8.415	82059.0
-8.410	82052.0
-8.405	82045.0
-8.400	82066.0
-8.395	82063.0
-8.390	82071.0
-8.385	82048.0
-8.380	82060.0
-8.375	82030.0
-8.370	82025.0
-8.365	82039.0
-8.360	82069.0
-8.355	82071.0
-8.350	82066.0
-8.345	82046.0
-8.340	82057.0
-8.335	82055.0
-8.330	82048.0
-8.325	82048.0
-8.320	82040.0
-8.315	82040.0
-8.310	82031.0
-8.305	81995.1
-8.300	82005.1
-8.295	82045.0
-8.290	82062.0
-8.285	82052.0
-8.280	82066.0
-8.275	82050.0
-8.270	82058.0
-8.265	82049.0
-8.260	82045.0
-8.255	82037.0
-8.250	82039.0
-8.245	82030.1
-8.240	81996.1
-8.235	81988.1
-8.230	82018.1
-8.225	82023.1
-8.220	82025.1
-8.215	82015.1
-8.210	82024.1
-8.205	82013.1
-8.200	82018.1
-8.195	82023.1
-8.190	82018.1
-8.185	82020.1
-8.180	82032.1
-8.175	82018.1
-8.170	81993.1
-8.165	82010.1
-8.160	82039.1
-8.155	82030.1
-8.150	82032.1
-8.145	82034.1
-8.140	82033.1
-8.135	82015.1
-8.130	82009.1
-8.125	82000.1
-8.120	82005.1
-8.115	81994.1
-8.110	81983.1
-8.105	81959.2
-8.100	81947.2
-8.095	81986.1
-8.090	81984.1
-8.085	81973.2
-8.080	81969.2
-8.075	81954.2
-8.070	81964.2
-8.065	81969.2
-8.060	81968.2
-8.055	81967.2
-8.050	81971.2
-8.045	81999.1
-8.040	81981.2
-8.035	81971.2
-8.030	81985.2
-8.025	81997.2
-8.020	81998.1
-8.015	82001.1
-8.010	82012.1
-8.005	82011.1
-8.000	82006.1
-7.995	82000.2
-7.990	82008.2
-7.985	82008.2
-7.980	82022.1
-7.975	81983.2
-7.970	81976.2
-7.965	81999.2
-7.960	82026.1
-7.955	82023.1
-7.950	82021.2
-7.945	82018.2
-7.940	82014.2
-7.935	82006.2
-7.930	82012.2
-7.925	82009.2
-7.920	82008.2
-7.915	82006.2
-7.910	82012.2
-7.905	81987.2
-7.900	81988.2
-7.895	82015.2
-7.890	82028.2
-7.885	82042.2
-7.880	82037.2
-7.875	82028.2
-7.870	82026.2
-7.865	82023.2
-7.860	82029.2
-7.855	82034.2
-7.850	82035.2
-7.845	82023.2
-7.840	81997.2
-7.835	81992.2
-7.830	82023.2
-7.825	82022.2
-7.820	82035.2
-7.815	82029.2
-7.810	82030.2
-7.805	82026.2
-7.800	82032.2
-7.795	82020.2
-7.790	82032.2
-7.785	82033.2
-7.780	82036.2
-7.775	82004.2
-7.770	81986.2
-7.765	81994.2
-7.760	82027.2
-7.755	82027.2
-7.750	82034.2
-7.745	82031.2
-7.740	82030.2
-7.735	82029.2
-7.730	82029.2
-7.725	82028.2
-7.720	82025.2
-7.715	82018.2
-7.710	82008.2
-7.705	81984.2
-7.700	81993.2
-7.695	82026.2
-7.690	82020.2
-7.685	82015.2
-7.680	82028.2
-7.675	82026.2
-7.670	82014.2
-7.665	82013.2
-7.660	82021.2
-7.655	82015.2
-7.650	82023.2
-7.645	82031.2
-7.640	82013.2
-7.635	82007.2
-7.630	82024.2
-7.625	82027.2
-7.620	82037.2
-7.615	82037.2
-7.610	82032.2
-7.605	82030.2
-7.600	82025.2
-7.595	82018.2
-7.590	82022.2
-7.585	82026.2
-7.580	82030.2
-7.575	81999.2
-7.570	81990.2
-7.565	81981.2
-7.560	82019.2
-7.555	82021.2
-7.550	82017.2
-7.545	82016.2
-7.540	82013.2
-7.535	82015.2
-7.530	82014.2
-7.525	82001.2
-7.520	82022.2
-7.515	82020.2
-7.510	82015.2
-7.505	81998.2
-7.500	81993.2
-7.495	82023.2
-7.490	82033.2
-7.485	82032.2
-7.480	82026.2
-7.475	82021.2
-7.470	82025.2
-7.465	82013.2
-7.460	82018.2
-7.455	82023.2
-7.450	82013.2
-7.445	82005.3
-7.440	81987.3
-7.435	81983.3
-7.430	82004.3
-7.425	82007.3
-7.420	82010.3
-7.415	82001.3
-7.410	82008.3
-7.405	82001.3
-7.400	82007.3
-7.395	81999.3
-7.390	81991.3
-7.385	82003.3
-7.380	82010.3
-7.375	81982.3
-7.370	81974.3
-7.365	81973.3
-7.360	81996.3
-7.355	82000.3
-7.350	82002.3
-7.345	81995.3
-7.340	81993.3
-7.335	81997.3
-7.330	81993.3
-7.325	81997.3
-7.320	82010.3
-7.315	81993.3
-7.310	81983.3
-7.305	81963.3
-7.300	81975.3
-7.295	81995.3
-7.290	82001.3
-7.285	81984.3
-7.280	81998.3
-7.275	81996.3
-7.270	82007.3
-7.265	82009.3
-7.260	82020.3
-7.255	82013.3
-7.250	82013.3
-7.245	82004.3
-7.240	81961.3
-7.235	81937.3
-7.230	81952.3
-7.225	81936.3
-7.220	81928.3
-7.215	81878.4
-7.210	81856.4
-7.205	81826.4
-7.200	81829.4
-7.195	81796.4
-7.190	81766.5
-7.185	81721.5
-7.180	81699.5
-7.175	81682.5
-7.170	81693.5
-7.165	81751.5
-7.160	81803.4
-7.155	81855.4
-7.150	81901.4
-7.145	81945.3
-7.140	81989.3
-7.135	82009.3
-7.130	82030.3
-7.125	82049.3
-7.120	82069.2
-7.115	82078.2
-7.110	82084.2
-7.105	82070.2
-7.100	82083.2
-7.095	82109.2
-7.090	82118.2
-7.085	82128.2
-7.080	82136.2
-7.075	82133.2
-7.070	82128.2
-7.065	82134.2
-7.060	82133.2
-7.055	82136.2
-7.050	82130.2
-7.045	82129.2
-7.040	82103.2
-7.035	82109.2
-7.030	82133.2
-7.025	82139.2
-7.020	82138.2
-7.015	82136.2
-7.010	82141.2
-7.005	82137.2
-7.000	82141.2
-6.995	82137.2
-6.990	82141.2
-6.985	82146.2
-6.980	82145.2
-6.975	82123.2
-6.970	82110.2
-6.965	82128.2
-6.960	82144.2
-6.955	82143.2
-6.950	82146.2
-6.945	82151.2
-6.940	82143.2
-6.935	82136.2
-6.930	82142.2
-6.925	82132.2
-6.920	82141.2
-6.915	82138.2
-6.910	82118.2
-6.905	82109.2
-6.900	82112.2
-6.895	82128.2
-6.890	82130.2
-6.885	82136.2
-6.880	82137.2
-6.875	82127.2
-6.870	82124.2
-6.865	82123.2
-6.860	82124.2
-6.855	82125.2
-6.850	82136.2
-6.845	82126.2
-6.840	82097.2
-6.835	82077.3
-6.830	82111.2
-6.825	82120.2
-6.820	82120.2
-6.815	82117.2
-6.810	82115.2
-6.805	82114.2
-6.800	82112.2
-6.795	82109.2
-6.790	82120.2
-6.785	82117.2
-6.780	82112.2
-6.775	82084.3
-6.770	82071.3
-6.765	82091.3
-6.760	82105.2
-6.755	82107.2
-6.750	82102.2
-6.745	82092.3
-6.740	82089.3
-6.735	82091.3
-6.730	82091.3
-6.725	82073.3
-6.720	82090.3
-6.715	82096.3
-6.710	82083.3
-6.705	82056.3
-6.700	82068.3
-6.695	82083.3
-6.690	82093.3
-6.685	82090.3
-6.680	82085.3
-6.675	82073.3
-6.670	82073.3
-6.665	82059.3
-6.660	82058.3
-6.655	82055.3
-6.650	82068.3
-6.645	82052.3
-6.640	82033.3
-6.635	82026.3
-6.630	82051.3
-6.625	82055.3
-6.620	82054.3
-6.615	82045.3
-6.610	82046.3
-6.605	82041.3
-6.600	82045.3
-6.595	82036.3
-6.590	82043.3
-6.585	82037.3
-6.580	82048.3
-6.575	82019.3
-6.570	82005.3
-6.565	82022.3
-6.560	82033.3
-6.555	82035.3
-6.550	82034.3
-6.545	82028.3
-6.540	82026.3
-6.535	82012.3
-6.530	82004.3
-6.525	81995.4
-6.520	81997.3
-6.515	81999.3
-6.510	81984.4
-6.505	81959.4
-6.500	81960.4
-6.495	81977.4
-6.490	81971.4
-6.485	81973.4
-6.480	81965.4
-6.475	81963.4
-6.470	81953.4
-6.465	81963.4
-6.460	81964.4
-6.455	81966.4
-6.450	81978.4
-6.445	81980.4
-6.440	81963.4
-6.435	81939.4
-6.430	81990.4
-6.425	81987.4
-6.420	81981.4
-6.415	81981.4
-6.410	81989.4
-6.405	81970.4
-6.400	81961.4
-6.395	81945.4
-6.390	81941.4
-6.385	81935.4
-6.380	81923.4
-6.375	81885.4
-6.370	81877.5
-6.365	81890.4
-6.360	81886.4
-6.355	81869.5
-6.350	81860.5
-6.345	81855.5
-6.340	81862.5
-6.335	81861.5
-6.330	81854.5
-6.325	81865.5
-6.320	81889.5
-6.315	81891.4
-6.310	81905.4
-6.305	81900.4
-6.300	81935.4
-6.295	81978.4
-6.290	81989.4
-6.285	81991.4
-6.280	82007.4
-6.275	82001.4
-6.270	82019.4
-6.265	82019.4
-6.260	82025.3
-6.255	82017.4
-6.250	82017.4
-6.245	82002.4
-6.240	81991.4
-6.235	81994.4
-6.230	82034.3
-6.225	82025.3
-6.220	82030.3
-6.215	82021.4
-6.210	82016.4
-6.205	82020.4
-6.200	82026.3
-6.195	82013.4
-6.190	82012.4
-6.185	82015.4
-6.180	82018.4
-6.175	82004.4
-6.170	81982.4
-6.165	82015.4
-6.160	82023.4
-6.155	82033.3
-6.150	82027.4
-6.145	82023.4
-6.140	82025.4
-6.135	82024.4
-6.130	82020.4
-6.125	82018.4
-6.120	82033.4
-6.115	82034.4
-6.110	82004.4
-6.105	81991.4
-6.100	82009.4
-6.095	82033.4
-6.090	82031.4
-6.085	82020.4
-6.080	82022.4
-6.075	82024.4
-6.070	82019.4
-6.065	82029.4
-6.060	82021.4
-6.055	82015.4
-6.050	82031.4
-6.045	82022.4
-6.040	82002.4
-6.035	81999.4
-6.030	82024.4
-6.025	82017.4
-6.020	82027.4
-6.015	82028.4
-6.010	82032.4
-6.005	82029.4
-6.000	82023.4
-5.995	82017.4
-5.990	82005.4
-5.985	82008.4
-5.980	82012.4
-5.975	81990.4
-5.970	81986.4
-5.965	82005.4
-5.960	82016.4
-5.955	82002.4
-5.950	82005.4
-5.945	82016.4
-5.940	82014.4
-5.935	82013.4
-5.930	82018.4
-5.925	82023.4
-5.920	82013.4
-5.915	82018.4
-5.910	82005.4
-5.905	81997.4
-5.900	82000.4
-5.895	82029.4
-5.890	82027.4
-5.885	82038.4
-5.880	82029.4
-5.875	82030.4
-5.870	82037.4
-5.865	82022.4
-5.860	82028.4
-5.855	82028.4
-5.850	82034.4
-5.845	82016.4
-5.840	82004.4
-5.835	81994.4
-5.830	82030.4
-5.825	82018.4
-5.820	82023.4
-5.815	82010.4
-5.810	82010.4
-5.805	82005.4
-5.800	82015.4
-5.795	82006.4
-5.790	82005.4
-5.785	82016.4
-5.780	82011.4
-5.775	81987.4
-5.770	81978.4
-5.765	81994.4
-5.760	81999.4
-5.755	81994.4
-5.750	81994.3
-5.745	81992.3
-5.740	81985.3
-5.735	81974.3
-5.730	81976.3
-5.725	81971.3
-5.720	81968.3
-5.715	81977.3
-5.710	81967.3
-5.705	81946.3
-5.700	81961.3
-5.695	81999.3
-5.690	82002.3
-5.685	81992.3
-5.680	81998.3
-5.675	82001.3
-5.670	81994.3
-5.665	81985.3
-5.660	81986.3
-5.655	81986.4
-5.650	82002.4
-5.645	82006.4
-5.640	81983.4
-5.635	81964.4
-5.630	82009.4
-5.625	82001.4
-5.620	81994.4
-5.615	81999.4
-5.610	81992.4
-5.605	81973.4
-5.600	81980.4
-5.595	81979.4
-5.590	81975.5
-5.585	81976.4
-5.580	81982.4
-5.575	81945.5
-5.570	81940.5
-5.565	81963.5
-5.560	81986.4
-5.555	81977.4
-5.550	81976.4
-5.545	81974.4
-5.540	81972.4
-5.535	81978.4
-5.530	81970.4
-5.525	81976.4
-5.520	81980.4
-5.515	81975.4
-5.510	81964.5
-5.505	81945.5
-5.500	81962.5
-5.495	81965.4
-5.490	81966.4
-5.485	81970.4
-5.480	81970.4
-5.475	81961.5
-5.470	81961.5
-5.465	81948.5
-5.460	81946.5
-5.455	81940.5
-5.450	81938.5
-5.445	81897.5
-5.440	81869.6
-5.435	81837.7
-5.430	81845.8
-5.425	81808.0
-5.420	81765.3
-5.415	81669.6
-5.410	81550.1
-5.405	81453.5
-5.400	81372.0
-5.395	81264.6
-5.390	81163.2
-5.385	81088.8
-5.380	80938.5
-5.375	80756.3
-5.370	80667.0
-5.365	80652.5
-5.360	80574.2
-5.355	80465.9
-5.350	80443.4
-5.345	80542.5
-5.340	80756.2
-5.335	80966.7
-5.330	81134.2
-5.325	81269.6
-5.320	81393.1
-5.315	81520.7
-5.310	81583.4
-5.305	81599.1
-5.300	81645.8
-5.295	81693.6
-5.290	81738.4
-5.285	81738.3
-5.280	81759.1
-5.275	81751.0
-5.270	81756.8
-5.265	81754.7
-5.260	81752.6
-5.255	81761.6
-5.250	81774.5
-5.245	81771.4
-5.240	81760.3
-5.235	81760.3
-5.230	81797.2
-5.225	81818.1
-5.220	81831.0
-5.215	81852.9
-5.210	81853.9
-5.205	81842.8
-5.200	81848.8
-5.195	81875.7
-5.190	81901.6
-5.185	81929.6
-5.180	81940.5
-5.175	81918.5
-5.170	81897.4
-5.165	81922.4
-5.160	81937.3
-5.155	81925.3
-5.150	81921.3
-5.145	81942.2
-5.140	81950.2
-5.135	81952.2
-5.130	81963.1
-5.125	81987.1
-5.120	81990.0
-5.115	82006.0
-5.110	81995.0
-5.105	81988.0
-5.100	81992.9
-5.095	82009.9
-5.090	82015.9
-5.085	82019.9
-5.080	82028.8
-5.075	82040.8
-5.070	82047.8
-5.065	82049.8
-5.060	82046.8
-5.055	82029.8
-5.050	82033.7
-5.045	82032.7
-5.040	82022.7
-5.035	82026.7
-5.030	82064.6
-5.025	82060.6
-5.020	82066.6
-5.015	82067.6
-5.010	82071.5
-5.005	82074.5
-5.000	82074.5
-4.995	82056.5
-4.990	82073.5
-4.985	82076.5
-4.980	82061.5
-4.975	82050.4
-4.970	82052.4
-4.965	82076.4
-4.960	82095.4
-4.955	82091.3
-4.950	82089.3
-4.945	82097.3
-4.940	82097.3
-4.935	82094.3
-4.930	82084.3
-4.925	82085.3
-4.920	82091.3
-4.915	82099.2
-4.910	82085.2
-4.905	82083.2
-4.900	82106.2
-4.895	82126.2
-4.890	82115.2
-4.885	82109.2
-4.880	82101.2
-4.875	82085.2
-4.870	82099.2
-4.865	82106.2
-4.860	82105.1
-4.855	82109.1
-4.850	82115.1
-4.845	82100.1
-4.840	82102.1
-4.835	82102.1
-4.830	82125.1
-4.825	82111.1
-4.820	82100.1
-4.815	82093.1
-4.810	82083.1
-4.805	82092.1
-4.800	82085.1
-4.795	82085.0
-4.790	82084.0
-4.785	82087.0
-4.780	82078.0
-4.775	82048.1
-4.770	82047.0
-4.765	82076.0
-4.760	82083.0
-4.755	82045.0
-4.750	82047.0
-4.745	82034.0
-4.740	82031.0
-4.735	82019.0
-4.730	82012.0
-4.725	82018.0
-4.720	82028.0
-4.715	82023.0
-4.710	82004.0
-4.705	81992.0
-4.700	82029.0
-4.695	82051.9
-4.690	82050.9
-4.685	82063.9
-4.680	82069.9
-4.675	82069.9
-4.670	82066.9
-4.665	82048.9
-4.660	82031.9
-4.655	82018.9
-4.650	82016.9
-4.645	81994.9
-4.640	81978.9
-4.635	81991.9
-4.630	82030.8
-4.625	82023.8
-4.620	82039.8
-4.615	82038.8
-4.610	82054.7
-4.605	82057.7
-4.600	82071.7
-4.595	82067.7
-4.590	82073.7
-4.585	82079.7
-4.580	82086.7
-4.575	82045.8
-4.570	82035.8
-4.565	82053.8
-4.560	82060.8
-4.555	82048.8
-4.550	82043.8
-4.545	82041.8
-4.540	82051.7
-4.535	82043.7
-4.530	82050.7
-4.525	82047.7
-4.520	82041.7
-4.515	82038.7
-4.510	82010.7
-4.505	81992.7
-4.500	82027.7
-4.495	82047.7
-4.490	82055.7
-4.485	82045.7
-4.480	82047.7
-4.475	82033.7
-4.470	82041.7
-4.465	82038.7
-4.460	82035.7
-4.455	82038.7
-4.450	82059.6
-4.445	82042.6
-4.440	82025.7
-4.435	82026.6
-4.430	82061.6
-4.425	82066.6
-4.420	82076.6
-4.415	82081.6
-4.410	82105.6
-4.405	82107.6
-4.400	82107.6
-4.395	82106.6
-4.390	82107.6
-4.385	82117.5
-4.380	82099.6
-4.375	82073.6
-4.370	82069.6
-4.365	82117.5
-4.360	82118.5
-4.355	82123.5
-4.350	82125.5
-4.345	82129.5
-4.340	82147.5
-4.335	82137.5
-4.330	82129.5
-4.325	82125.5
-4.320	82149.5
-4.315	82134.5
-4.310	82110.5
-4.305	82090.5
-4.300	82113.5
-4.295	82131.5
-4.290	82138.5
-4.285	82129.5
-4.280	82113.5
-4.275	82114.5
-4.270	82113.5
-4.265	82115.5
-4.260	82128.4
-4.255	82121.5
-4.250	82131.5
-4.245	82103.5
-4.240	82092.5
-4.235	82097.5
-4.230	82133.4
-4.225	82121.4
-4.220	82104.5
-4.215	82102.5
-4.210	82087.5
-4.205	82067.5
-4.200	82073.5
-4.195	82073.5
-4.190	82069.4
-4.185	82090.4
-4.180	82085.4
-4.175	82069.4
-4.170	82054.4
-4.165	82075.4
-4.160	82093.4
-4.155	82095.3
-4.150	82097.3
-4.145	82083.2
-4.140	82084.1
-4.135	82064.0
-4.130	82058.8
-4.125	82043.6
-4.120	82035.3
-4.115	82013.9
-4.110	81964.6
-4.105	81912.1
-4.100	81897.6
-4.095	81871.1
-4.090	81826.5
-4.085	81772.9
-4.080	81728.3
-4.075	81699.7
-4.070	81657.1
-4.065	81596.5
-4.060	81540.0
-4.055	81576.6
-4.050	81664.2
-4.045	81687.1
-4.040	81679.2
-4.035	81717.5
-4.030	81811.8
-4.025	81868.3
-4.020	81934.6
-4.015	82008.0
-4.010	82094.2
-4.005	82103.5
-4.000	82117.8
-3.995	82150.9
-3.990	82175.1
-3.985	82176.3
-3.980	82158.4
-3.975	82103.6
-3.970	82113.7
-3.965	82181.8
-3.960	82195.9
-3.955	82174.0
-3.950	82135.1
-3.945	82152.2
-3.940	82124.3
-3.935	82107.3
-3.930	82074.4
-3.925	82053.5
-3.920	82090.5
-3.915	82058.6
-3.910	82008.7
-3.905	82013.8
-3.900	82023.8
-3.895	82037.8
-3.890	82022.9
-3.885	81999.0
-3.880	82001.0
-3.875	82000.0
-3.870	81997.1
-3.865	81974.1
-3.860	81967.2
-3.855	81957.2
-3.850	81961.3
-3.845	81928.3
-3.840	81906.4
-3.835	81891.4
-3.830	81927.4
-3.825	81933.5
-3.820	81946.5
-3.815	81945.5
-3.810	81937.6
-3.805	81947.6
-3.800	81958.6
-3.795	81963.6
-3.790	81977.6
-3.785	81985.7
-3.780	81981.7
-3.775	81951.7
-3.770	81958.7
-3.765	81992.7
-3.760	81989.8
-3.755	81979.8
-3.750	81979.8
-3.745	81976.8
-3.740	81961.9
-3.735	81932.9
-3.730	81914.0
-3.725	81903.0
-3.720	81886.0
-3.715	81856.1
-3.710	81808.1
-3.705	81775.2
-3.700	81801.1
-3.695	81803.2
-3.690	81797.2
-3.685	81782.2
-3.680	81788.2
-3.675	81784.2
-3.670	81820.2
-3.665	81836.2
-3.660	81842.2
-3.655	81856.2
-3.650	81865.2
-3.645	81840.3
-3.640	81826.3
-3.635	81853.3
-3.630	81887.3
-3.625	81877.3
-3.620	81893.3
-3.615	81892.3
-3.610	81906.3
-3.605	81918.3
-3.600	81938.3
-3.595	81901.4
-3.590	81860.4
-3.585	81847.5
-3.580	81844.5
-3.575	81829.5
-3.570	81811.6
-3.565	81770.7
-3.560	81771.7
-3.555	81800.7
-3.550	81811.8
-3.545	81813.8
-3.540	81871.9
-3.535	81963.9
-3.530	82042.9
-3.525	82051.9
-3.520	82047.0
-3.515	82031.1
-3.510	82003.2
-3.505	82026.3
-3.500	82082.3
-3.495	82117.3
-3.490	82137.4
-3.485	82148.4
-3.480	82140.4
-3.475	82115.5
-3.470	82099.5
-3.465	82074.6
-3.460	82075.6
-3.455	82062.6
-3.450	82062.6
-3.445	82037.6
-3.440	82039.6
-3.435	82051.6
-3.430	82085.6
-3.425	82115.6
-3.420	82145.6
-3.415	82117.6
-3.410	82044.7
-3.405	81988.8
-3.400	82029.8
-3.395	82126.8
-3.390	82184.9
-3.385	82157.0
-3.380	82100.1
-3.375	82062.3
-3.370	82087.4
-3.365	82162.4
-3.360	82180.5
-3.355	82156.6
-3.350	82115.7
-3.345	82109.8
-3.340	82102.8
-3.335	82091.8
-3.330	82095.7
-3.325	82085.7
-3.320	82091.6
-3.315	82072.6
-3.310	82049.6
-3.305	82037.6
-3.300	82070.5
-3.295	82071.5
-3.290	82083.5
-3.285	82078.5
-3.280	82084.5
-3.275	82078.5
-3.270	82084.5
-3.265	82082.5
-3.260	82091.5
-3.255	82102.5
-3.250	82095.5
-3.245	82063.5
-3.240	82032.5
-3.235	82043.5
-3.230	82061.5
-3.225	82064.5
-3.220	82063.5
-3.215	82069.5
-3.210	82075.5
-3.205	82073.5
-3.200	82072.6
-3.195	82055.6
-3.190	82059.6
-3.185	82045.6
-3.180	82030.6
-3.175	82014.7
-3.170	82026.7
-3.165	82055.7
-3.160	82054.7
-3.155	82052.7
-3.150	82049.7
-3.145	82050.7
-3.140	82047.7
-3.135	82055.7
-3.130	82074.7
-3.125	82069.7
-3.120	82075.7
-3.115	82070.7
-3.110	82043.8
-3.105	82025.8
-3.100	82047.8
-3.095	82044.8
-3.090	82053.8
-3.085	82057.8
-3.080	82063.8
-3.075	82058.8
-3.070	82052.8
-3.065	82052.8
-3.060	82058.8
-3.055	82057.8
-3.050	82048.9
-3.045	82026.9
-3.040	82012.9
-3.035	82023.9
-3.030	82047.9
-3.025	82036.9
-3.020	82042.9
-3.015	82050.9
-3.010	82055.9
-3.005	82039.9
-3.000	82037.0
-2.995	82026.0
-2.990	82039.0
-2.985	82029.0
-2.980	82026.0
-2.975	82010.0
-2.970	82013.0
-2.965	82031.0
-2.960	82022.0
-2.955	82039.0
-2.950	82065.0
-2.945	82074.0
-2.940	82077.0
-2.935	82069.0
-2.930	82048.1
-2.925	82007.1
-2.920	82008.1
-2.915	81992.1
-2.910	81970.2
-2.905	81959.2
-2.900	82017.1
-2.895	82021.2
-2.890	82025.2
-2.885	82011.2
-2.880	81996.2
-2.875	81969.3
-2.870	81966.3
-2.865	81961.3
-2.860	81973.3
-2.855	81969.3
-2.850	81979.3
-2.845	81956.3
-2.840	81948.3
-2.835	81974.3
-2.830	82010.3
-2.825	82025.3
-2.820	82030.2
-2.815	82029.3
-2.810	82027.3
-2.805	82017.3
-2.800	82017.3
-2.795	82020.3
-2.790	82036.3
-2.785	82037.3
-2.780	82009.3
-2.775	81974.3
-2.770	81976.4
-2.765	82014.3
-2.760	82012.4
-2.755	82002.4
-2.750	82004.4
-2.745	82009.4
-2.740	82056.3
-2.735	82077.3
-2.730	82069.4
-2.725	82059.4
-2.720	82046.4
-2.715	82014.4
-2.710	81974.4
-2.705	81948.5
-2.700	81981.4
-2.695	81992.4
-2.690	82015.4
-2.685	82025.4
-2.680	82045.4
-2.675	82029.5
-2.670	82012.5
-2.665	82001.5
-2.660	81991.5
-2.655	81999.5
-2.650	82003.6
-2.645	81983.6
-2.640	81957.6
-2.635	81956.6
-2.630	81986.6
-2.625	81980.6
-2.620	81988.6
-2.615	81975.6
-2.610	81987.6
-2.605	81989.6
-2.600	81992.6
-2.595	81994.6
-2.590	81996.5
-2.585	81992.5
-2.580	81982.5
-2.575	81954.6
-2.570	81957.6
-2.565	81977.6
-2.560	81980.6
-2.555	81982.6
-2.550	81991.6
-2.545	81992.6
-2.540	81984.6
-2.535	81977.7
-2.530	81980.6
-2.525	81978.6
-2.520	81988.6
-2.515	81965.7
-2.510	81947.7
-2.505	81933.7
-2.500	81961.7
-2.495	81968.7
-2.490	81970.7
-2.485	81964.7
-2.480	81967.7
-2.475	81934.7
-2.470	81928.7
-2.465	81920.7
-2.460	81932.7
-2.455	81961.6
-2.450	81995.6
-2.445	81971.6
-2.440	81961.7
-2.435	81966.7
-2.430	81978.7
-2.425	81962.7
-2.420	81967.7
-2.415	81957.7
-2.410	81950.7
-2.405	81955.7
-2.400	81963.7
-2.395	81946.8
-2.390	81957.8
-2.385	81967.8
-2.380	81936.8
-2.375	81899.8
-2.370	81875.8
-2.365	81899.8
-2.360	81887.8
-2.355	81890.8
-2.350	81888.8
-2.345	81897.8
-2.340	81884.8
-2.335	81852.8
-2.330	81847.8
-2.325	81840.8
-2.320	81856.8
-2.315	81853.8
-2.310	81830.8
-2.305	81817.9
-2.300	81848.8
-2.295	81857.8
-2.290	81871.8
-2.285	81872.8
-2.280	81875.8
-2.275	81870.8
-2.270	81875.8
-2.265	81865.8
-2.260	81861.8
-2.255	81853.8
-2.250	81863.8
-2.245	81831.9
-2.240	81839.9
-2.235	81885.8
-2.230	81929.8
-2.225	81935.8
-2.220	81940.8
-2.215	81948.8
-2.210	81957.8
-2.205	81966.8
-2.200	81987.8
-2.195	81981.8
-2.190	82008.7
-2.185	82020.7
-2.180	82020.7
-2.175	82014.7
-2.170	82027.7
-2.165	82042.7
-2.160	82065.7
-2.155	82072.7
-2.150	82077.7
-2.145	82088.6
-2.140	82083.7
-2.135	82058.7
-2.130	82066.7
-2.125	82060.7
-2.120	82074.7
-2.115	82071.7
-2.110	82034.7
-2.105	82004.8
-2.100	82011.8
-2.095	81988.8
-2.090	81943.8
-2.085	81915.9
-2.080	81870.9
-2.075	81813.9
-2.070	81769.0
-2.065	81738.0
-2.060	81707.0
-2.055	81686.0
-2.050	81658.0
-2.045	81602.0
-2.040	81576.1
-2.035	81552.1
-2.030	81532.1
-2.025	81495.1
-2.020	81463.1
-2.015	81433.2
-2.010	81386.2
-2.005	81328.2
-2.000	81276.3
-1.995	81247.3
-1.990	81225.3
-1.985	81186.3
-1.980	81130.4
-1.975	81091.4
-1.970	81101.4
-1.965	81100.4
-1.960	81044.4
-1.955	80963.5
-1.950	80925.5
-1.945	80913.5
-1.940	80953.5
-1.935	80999.5
-1.930	81055.4
-1.925	81110.4
-1.920	81136.4
-1.915	81119.4
-1.910	81081.4
-1.905	81083.4
-1.900	81148.4
-1.895	81213.3
-1.890	81286.2
-1.885	81323.2
-1.880	81365.2
-1.875	81411.1
-1.870	81455.1
-1.865	81470.1
-1.860	81497.1
-1.855	81521.0
-1.850	81542.0
-1.845	81558.0
-1.840	81591.0
-1.835	81645.9
-1.830	81694.9
-1.825	81731.8
-1.820	81786.8
-1.815	81839.8
-1.810	81873.7
-1.805	81881.7
-1.800	81885.7
-1.795	81910.7
-1.790	81942.7
-1.785	81947.7
-1.780	81933.7
-1.775	81911.7
-1.770	81899.7
-1.765	81895.7
-1.760	81876.8
-1.755	81878.8
-1.750	81899.7
-1.745	81903.7
-1.740	81917.7
-1.735	81902.7
-1.730	81911.7
-1.725	81918.7
-1.720	81945.6
-1.715	81926.7
-1.710	81916.7
-1.705	81923.7
-1.700	81945.6
-1.695	81954.6
-1.690	81949.6
-1.685	81950.6
-1.680	81935.7
-1.675	81929.7
-1.670	81902.7
-1.665	81866.7
-1.660	81863.7
-1.655	81860.7
-1.650	81859.7
-1.645	81829.7
-1.640	81801.7
-1.635	81799.7
-1.630	81816.7
-1.625	81816.7
-1.620	81826.7
-1.615	81822.7
-1.610	81821.7
-1.605	81795.7
-1.600	81777.7
-1.595	81772.7
-1.590	81773.7
-1.585	81776.7
-1.580	81757.7
-1.575	81765.7
-1.570	81798.7
-1.565	81825.7
-1.560	81833.7
-1.555	81812.7
-1.550	81797.7
-1.545	81791.7
-1.540	81784.7
-1.535	81787.7
-1.530	81817.6
-1.525	81842.6
-1.520	81873.6
-1.515	81887.6
-1.510	81890.6
-1.505	81889.5
-1.500	81933.5
-1.495	81936.5
-1.490	81947.5
-1.485	81947.5
-1.480	81960.5
-1.475	81968.4
-1.470	81977.4
-1.465	81985.4
-1.460	81995.4
-1.455	81996.4
-1.450	82006.3
-1.445	81994.3
-1.440	81994.3
-1.435	82018.3
-1.430	82040.3
-1.425	82043.3
-1.420	82049.3
-1.415	82037.3
-1.410	82034.3
-1.405	82042.3
-1.400	82036.2
-1.395	82025.3
-1.390	82041.2
-1.385	82050.2
-1.380	82050.2
-1.375	82025.3
-1.370	82030.3
-1.365	82047.3
-1.360	82066.3
-1.355	82062.3
-1.350	82081.3
-1.345	82079.3
-1.340	82074.3
-1.335	82057.3
-1.330	82070.3
-1.325	82058.3
-1.320	82064.3
-1.315	82047.3
-1.310	82028.3
-1.305	82025.3
-1.300	82075.2
-1.295	82083.2
-1.290	82091.2
-1.285	82105.2
-1.280	82109.2
-1.275	82100.2
-1.270	82097.2
-1.265	82109.2
-1.260	82121.1
-1.255	82126.1
-1.250	82133.1
-1.245	82107.1
-1.240	82109.1
-1.235	82117.1
-1.230	82131.1
-1.225	82123.1
-1.220	82132.1
-1.215	82125.1
-1.210	82123.1
-1.205	82129.1
-1.200	82130.1
-1.195	82135.0
-1.190	82139.0
-1.185	82125.0
-1.180	82099.0
-1.175	82058.1
-1.170	82061.0
-1.165	82074.0
-1.160	82056.0
-1.155	82034.0
-1.150	82016.0
-1.145	81994.1
-1.140	81996.1
-1.135	82010.1
-1.130	82026.0
-1.125	82054.0
-1.120	82069.0
-1.115	82077.0
-1.110	82054.0
-1.105	82044.0
-1.100	82076.0
-1.095	82065.0
-1.090	82053.0
-1.085	82050.0
-1.080	82034.0
-1.075	82018.0
-1.070	82007.0
-1.065	81996.0
-1.060	81992.0
-1.055	81977.0
-1.050	81972.0
-1.045	81955.1
-1.040	81947.1
-1.035	81966.0
-1.030	81992.0
-1.025	81998.0
-1.020	81995.0
-1.015	81992.0
-1.010	81998.0
-1.005	81982.0
-1.000	81975.0
-0.995	81981.0
-0.990	81990.0
-0.985	81983.0
-0.980	81973.0
-0.975	81963.0
-0.970	81961.9
-0.965	81979.9
-0.960	81978.9
-0.955	81978.9
-0.950	81980.9
-0.945	81968.9
-0.940	81969.9
-0.935	81950.9
-0.930	81958.9
-0.925	81968.9
-0.920	81976.9
-0.915	81947.9
-0.910	81939.9
-0.905	81935.9
-0.900	81967.8
-0.895	81950.8
-0.890	81946.8
-0.885	81926.8
-0.880	81933.8
-0.875	81923.8
-0.870	81924.8
-0.865	81924.8
-0.860	81932.8
-0.855	81937.8
-0.850	81939.7
-0.845	81920.8
-0.840	81907.7
-0.835	81928.7
-0.830	81938.7
-0.825	81919.7
-0.820	81914.7
-0.815	81915.7
-0.810	81922.7
-0.805	81927.7
-0.800	81932.7
-0.795	81924.7
-0.790	81932.6
-0.785	81926.6
-0.780	81913.6
-0.775	81889.7
-0.770	81904.6
-0.765	81922.6
-0.760	81913.6
-0.755	81908.6
-0.750	81905.6
-0.745	81908.6
-0.740	81906.6
-0.735	81893.7
-0.730	81899.6
-0.725	81892.6
-0.720	81900.6
-0.715	81883.6
-0.710	81858.7
-0.705	81847.7
-0.700	81866.7
-0.695	81873.7
-0.690	81872.6
-0.685	81871.6
-0.680	81873.6
-0.675	81875.6
-0.670	81881.6
-0.665	81870.6
-0.660	81889.6
-0.655	81882.6
-0.650	81880.6
-0.645	81853.6
-0.640	81850.6
-0.635	81863.6
-0.630	81874.5
-0.625	81875.5
-0.620	81870.5
-0.615	81864.5
-0.610	81862.5
-0.605	81856.5
-0.600	81844.5
-0.595	81845.5
-0.590	81854.5
-0.585	81859.5
-0.580	81858.5
-0.575	81857.5
-0.570	81877.4
-0.565	81918.4
-0.560	81924.4
-0.555	81922.4
-0.550	81937.4
-0.545	81929.4
-0.540	81936.4
-0.535	81927.4
-0.530	81938.3
-0.525	81933.4
-0.520	81944.3
-0.515	81932.3
-0.510	81903.4
-0.505	81900.4
-0.500	81929.3
-0.495	81937.3
-0.490	81937.3
-0.485	81931.3
-0.480	81947.3
-0.475	81951.3
-0.470	81955.3
-0.465	81960.3
-0.460	81976.2
-0.455	81982.2
-0.450	81992.2
-0.445	81972.2
-0.440	81949.2
-0.435	81956.2
-0.430	81969.2
-0.425	81971.2
-0.420	81962.2
-0.415	81969.2
-0.410	81964.2
-0.405	81964.1
-0.400	81960.1
-0.395	81947.1
-0.390	81956.1
-0.385	81964.1
-0.380	81938.1
-0.375	81898.2
-0.370	81914.1
-0.365	81925.1
-0.360	81938.1
-0.355	81944.1
-0.350	81962.1
-0.345	81978.1
-0.340	81990.0
-0.335	81989.0
-0.330	81980.0
-0.325	81960.1
-0.320	81944.1
-0.315	81925.1
-0.310	81908.1
-0.305	81907.1
-0.300	81972.0
-0.295	81996.0
-0.290	81986.0
-0.285	81977.0
-0.280	81967.0
-0.275	81967.0
-0.270	81975.0
-0.265	81974.0
-0.260	81978.9
-0.255	81994.9
-0.250	81996.9
-0.245	81981.9
-0.240	81969.9
-0.235	81992.9
-0.230	82003.9
-0.225	81981.9
-0.220	81981.9
-0.215	81986.9
-0.210	82022.8
-0.205	82023.8
-0.200	81978.8
-0.195	81944.8
-0.190	81935.8
-0.185	81930.8
-0.180	81923.8
-0.175	81940.8
-0.170	81979.8
-0.165	82016.8
-0.160	82039.8
-0.155	82052.8
-0.150	82067.8
-0.145	82073.8
-0.140	82051.8
-0.135	82020.8
-0.130	82010.8
-0.125	82008.9
-0.120	82027.9
-0.115	82011.9
-0.110	81991.9
-0.105	82000.9
-0.100	82009.8
-0.095	81995.8
-0.090	82007.8
-0.085	82036.7
-0.080	82040.6
-0.075	82001.6
-0.070	81960.5
-0.065	81927.4
-0.060	81909.3
-0.055	81864.3
-0.050	81823.3
-0.045	81842.2
-0.040	81912.2
-0.035	81973.2
-0.030	81983.2
-0.025	81996.4
-0.020	82022.5
-0.015	82007.7
-0.010	81965.9
-0.005	81987.1
0.000	82050.1
0.005	82079.2
0.010	82039.2
0.015	81971.2
0.020	81873.2
0.025	81832.1
0.030	81850.9
0.035	81886.7
0.040	81920.5
0.045	81970.3
0.050	82027.2
0.055	82042.1
0.060	82027.0
0.065	81993.0
0.070	81978.1
0.075	81955.1
0.080	81956.2
0.085	81943.2
0.090	81940.3
0.095	81945.3
0.100	81962.3
0.105	81937.4
0.110	81941.4
0.115	81934.4
0.120	81956.4
0.125	81949.4
0.130	81952.4
0.135	81953.4
0.140	81972.4
0.145	81980.3
0.150	81971.4
0.155	81947.4
0.160	81951.4
0.165	81961.4
0.170	81953.4
0.175	81945.4
0.180	81947.3
0.185	81939.3
0.190	81953.3
0.195	82000.3
0.200	82061.2
0.205	82072.2
0.210	82049.2
0.215	82020.2
0.220	81993.3
0.225	81960.3
0.230	81980.2
0.235	82004.2
0.240	81997.2
0.245	81986.2
0.250	81977.2
0.255	81969.2
0.260	81972.2
0.265	81969.2
0.270	81969.2
0.275	81972.2
0.280	81975.2
0.285	81938.2
0.290	81929.2
0.295	81941.2
0.300	81984.1
0.305	81984.1
0.310	81977.1
0.315	81979.1
0.320	81986.1
0.325	81974.1
0.330	81968.1
0.335	81952.1
0.340	81969.1
0.345	81980.0
0.350	81996.0
0.355	81970.0
0.360	81959.0
0.365	81994.0
0.370	82001.0
0.375	81997.0
0.380	81989.0
0.385	81977.0
0.390	81964.0
0.395	81940.0
0.400	81964.9
0.405	82000.9
0.410	82019.9
0.415	82031.9
0.420	82021.9
0.425	81990.9
0.430	82014.9
0.435	82029.8
0.440	82029.8
0.445	82014.9
0.450	81998.9
0.455	81973.9
0.460	81968.9
0.465	81970.9
0.470	81989.9
0.475	81990.9
0.480	81995.8
0.485	81979.9
0.490	81966.9
0.495	81960.9
0.500	81990.8
0.505	81994.8
0.510	81991.8
0.515	81992.8
0.520	81983.8
0.525	81984.8
0.530	82002.8
0.535	82004.8
0.540	82004.8
0.545	82002.8
0.550	82000.8
0.555	81987.8
0.560	82007.7
0.565	82034.7
0.570	82024.7
0.575	82027.7
0.580	82024.7
0.585	82035.7
0.590	82024.7
0.595	81990.7
0.600	81985.7
0.605	81986.7
0.610	82001.7
0.615	81995.7
0.620	81974.7
0.625	81952.7
0.630	81988.6
0.635	82003.6
0.640	82025.6
0.645	82011.6
0.650	82021.6
0.655	82026.6
0.660	82026.6
0.665	82033.6
0.670	82036.6
0.675	82029.6
0.680	82024.6
0.685	81994.6
0.690	81981.6
0.695	81990.6
0.700	82029.6
0.705	82029.6
0.710	82023.6
0.715	82014.6
0.720	82020.6
0.725	82002.6
0.730	82001.6
0.735	81991.6
0.740	81995.6
0.745	81992.5
0.750	81993.5
0.755	81966.5
0.760	81963.5
0.765	81986.5
0.770	82001.5
0.775	82000.5
0.780	81990.5
0.785	81993.4
0.790	81985.4
0.795	81979.4
0.800	81988.4
0.805	81983.4
0.810	81974.4
0.815	81972.4
0.820	81953.4
0.825	81933.4
0.830	81962.4
0.835	81964.3
0.840	81971.3
0.845	81972.3
0.850	81975.3
0.855	81964.3
0.860	81973.3
0.865	81959.3
0.870	81954.3
0.875	81963.3
0.880	81973.3
0.885	81955.3
0.890	81941.3
0.895	81943.3
0.900	81982.3
0.905	81967.3
0.910	81978.3
0.915	81961.3
0.920	81952.3
0.925	81934.3
0.930	81931.3
0.935	81930.3
0.940	81932.3
0.945	81926.3
0.950	81928.3
0.955	81920.3
0.960	81916.3
0.965	81946.3
0.970	81951.2
0.975	81943.3
0.980	81937.2
0.985	81933.3
0.990	81942.2
0.995	81939.2
1.000	81928.2
1.005	81916.2
1.010	81930.2
1.015	81929.2
1.020	81906.2
1.025	81888.2
1.030	81913.2
1.035	81931.2
1.040	81938.2
1.045	81936.2
1.050	81955.1
1.055	81968.1
1.060	81970.1
1.065	81969.1
1.070	81977.1
1.075	81980.1
1.080	81993.1
1.085	81977.1
1.090	81968.0
1.095	81969.0
1.100	81983.0
1.105	81968.0
1.110	81953.0
1.115	81938.0
1.120	81934.0
1.125	81931.0
1.130	81939.0
1.135	81936.0
1.140	81962.0
1.145	81964.0
1.150	81965.0
1.155	81951.0
1.160	81952.0
1.165	81975.0
1.170	81989.9
1.175	81988.9
1.180	82005.9
1.185	81992.9
1.190	81980.9
1.195	81953.0
1.200	81941.0
1.205	81941.0
1.210	81954.0
1.215	81957.0
1.220	81941.0
1.225	81928.0
1.230	81956.0
1.235	81985.0
1.240	81983.0
1.245	81984.0
1.250	81985.0
1.255	81974.0
1.260	81988.0
1.265	81975.0
1.270	81972.0
1.275	81971.0
1.280	81981.9
1.285	81968.9
1.290	81936.9
1.295	81936.9
1.300	81955.9
1.305	81956.9
1.310	81971.9
1.315	81964.9
1.320	81987.8
1.325	81992.8
1.330	81998.8
1.335	81983.8
1.340	81978.8
1.345	81976.8
1.350	81974.8
1.355	81953.8
1.360	81959.8
1.365	81966.8
1.370	81965.8
1.375	81950.8
1.380	81928.8
1.385	81932.8
1.390	81952.8
1.395	81955.8
1.400	81985.8
1.405	81989.8
1.410	82013.7
1.415	82013.7
1.420	81984.8
1.425	81953.8
1.430	81988.7
1.435	81985.7
1.440	81991.7
1.445	81964.8
1.450	81978.7
1.455	81974.7
1.460	81988.7
1.465	82000.7
1.470	82019.7
1.475	82023.7
1.480	82052.7
1.485	82023.7
1.490	82022.7
1.495	82033.7
1.500	82064.6
1.505	82040.6
1.510	82033.6
1.515	82028.6
1.520	82029.6
1.525	82026.6
1.530	82039.6
1.535	82037.6
1.540	82058.5
1.545	82066.5
1.550	82054.5
1.555	82014.5
1.560	82008.5
1.565	82028.5
1.570	82035.5
1.575	82029.5
1.580	82035.5
1.585	82037.5
1.590	82029.5
1.595	81998.5
1.600	81986.5
1.605	81983.5
1.610	81990.5
1.615	81968.5
1.620	81959.5
1.625	81966.5
1.630	82006.5
1.635	82010.5
1.640	82019.5
1.645	82017.5
1.650	82003.5
1.655	81987.5
1.660	81973.5
1.665	81944.6
1.670	81936.6
1.675	81961.6
1.680	81983.6
1.685	81982.6
1.690	81984.6
1.695	82006.6
1.700	82048.5
1.705	82049.5
1.710	82075.5
1.715	82070.5
1.720	82074.5
1.725	82056.5
1.730	82040.5
1.735	82016.5
1.740	82025.4
1.745	82023.4
1.750	82029.4
1.755	81999.4
1.760	82000.4
1.765	82025.4
1.770	82018.4
1.775	81986.4
1.780	81987.4
1.785	81979.4
1.790	81984.4
1.795	81979.4
1.800	81985.4
1.805	81982.4
1.810	82019.4
1.815	82014.4
1.820	81993.4
1.825	81992.5
1.830	82010.4
1.835	82018.4
1.840	82005.4
1.845	81986.4
1.850	81974.5
1.855	81957.5
1.860	81960.5
1.865	81972.5
1.870	81986.5
1.875	81997.5
1.880	81999.5
1.885	81980.5
1.890	81976.5
1.895	81991.4
1.900	82015.4
1.905	81985.4
1.910	81970.4
1.915	81962.4
1.920	81971.4
1.925	81980.4
1.930	81978.4
1.935	81983.4
1.940	81969.4
1.945	81971.4
1.950	81965.4
1.955	81969.4
1.960	81970.4
1.965	81983.4
1.970	81989.4
1.975	81991.4
1.980	82027.3
1.985	82026.3
1.990	82053.3
1.995	82050.3
2.000	82006.3
2.005	81967.4
2.010	81958.4
2.015	81939.4
2.020	81922.4
2.025	81911.4
2.030	81953.4
2.035	81963.4
2.040	81974.4
2.045	81974.4
2.050	81966.4
2.055	81956.4
2.060	81970.4
2.065	81964.4
2.070	81991.4
2.075	81984.4
2.080	81991.4
2.085	81946.4
2.090	81904.4
2.095	81911.4
2.100	81935.4
2.105	81948.4
2.110	81961.4
2.115	81948.4
2.120	81954.4
2.125	81944.4
2.130	81961.4
2.135	81967.4
2.140	81961.4
2.145	81945.4
2.150	81918.5
2.155	81899.5
2.160	81921.4
2.165	81943.4
2.170	81961.4
2.175	81940.4
2.180	81936.4
2.185	81928.4
2.190	81899.5
2.195	81916.4
2.200	81899.5
2.205	81905.5
2.210	81917.5
2.215	81917.5
2.220	81913.5
2.225	81927.5
2.230	81960.5
2.235	81946.5
2.240	81908.5
2.245	81901.5
2.250	81895.5
2.255	81905.5
2.260	81931.5
2.265	81929.5
2.270	81928.5
2.275	81915.5
2.280	81908.5
2.285	81876.5
2.290	81896.4
2.295	81904.4
2.300	81915.4
2.305	81902.4
2.310	81880.4
2.315	81863.5
2.320	81881.4
2.325	81877.4
2.330	81882.4
2.335	81876.5
2.340	81878.5
2.345	81891.5
2.350	81878.5
2.355	81854.5
2.360	81870.5
2.365	81888.5
2.370	81874.5
2.375	81860.5
2.380	81837.6
2.385	81818.6
2.390	81819.6
2.395	81828.6
2.400	81820.6
2.405	81823.6
2.410	81843.6
2.415	81829.6
2.420	81825.6
2.425	81803.6
2.430	81843.6
2.435	81840.6
2.440	81844.6
2.445	81848.6
2.450	81825.6
2.455	81806.6
2.460	81801.6
2.465	81807.6
2.470	81830.6
2.475	81849.6
2.480	81875.6
2.485	81843.6
2.490	81816.7
2.495	81799.7
2.500	81814.7
2.505	81815.7
2.510	81800.7
2.515	81795.7
2.520	81819.7
2.525	81818.7
2.530	81841.7
2.535	81865.7
2.540	81908.6
2.545	81906.6
2.550	81878.6
2.555	81825.7
2.560	81828.7
2.565	81859.6
2.570	81855.6
2.575	81840.7
2.580	81839.7
2.585	81853.7
2.590	81860.7
2.595	81862.7
2.600	81876.7
2.605	81860.7
2.610	81854.7
2.615	81823.7
2.620	81802.7
2.625	81794.7
2.630	81855.7
2.635	81868.7
2.640	81883.7
2.645	81882.7
2.650	81893.7
2.655	81887.7
2.660	81875.7
2.665	81863.8
2.670	81863.8
2.675	81844.8
2.680	81860.8
2.685	81845.8
2.690	81867.8
2.695	81880.8
2.700	81910.8
2.705	81896.8
2.710	81909.8
2.715	81924.8
2.720	81933.8
2.725	81911.8
2.730	81902.8
2.735	81893.8
2.740	81895.9
2.745	81881.9
2.750	81844.9
2.755	81829.9
2.760	81845.9
2.765	81875.9
2.770	81908.9
2.775	81911.9
2.780	81910.9
2.785	81878.9
2.790	81856.9
2.795	81827.0
2.800	81850.0
2.805	81861.0
2.810	81900.9
2.815	81894.9
2.820	81870.9
2.825	81852.9
2.830	81887.9
2.835	81880.9
2.840	81877.9
2.845	81853.0
2.850	81835.0
2.855	81812.0
2.860	81794.1
2.865	81789.1
2.870	81817.1
2.875	81863.1
2.880	81900.0
2.885	81875.1
2.890	81859.1
2.895	81867.1
2.900	81893.1
2.905	81907.1
2.910	81905.1
2.915	81880.1
2.920	81871.1
2.925	81853.1
2.930	81848.1
2.935	81849.2
2.940	81869.2
2.945	81903.1
2.950	81905.2
2.955	81902.2
2.960	81923.2
2.965	81953.2
2.970	81936.2
2.975	81920.2
2.980	81905.2
2.985	81877.3
2.990	81885.3
2.995	81897.3
3.000	81906.2
3.005	81915.2
3.010	81916.2
3.015	81924.2
3.020	81915.3
3.025	81911.3
3.030	81949.3
3.035	81968.3
3.040	81971.3
3.045	81959.3
3.050	81945.3
3.055	81948.3
3.060	81953.3
3.065	81962.3
3.070	81986.3
3.075	82002.3
3.080	82003.3
3.085	81978.4
3.090	81971.4
3.095	81967.4
3.100	81962.4
3.105	81939.4
3.110	81942.4
3.115	81961.4
3.120	81985.4
3.125	81999.4
3.130	82003.4
3.135	81986.4
3.140	81985.4
3.145	81980.4
3.150	81968.5
3.155	81943.5
3.160	81949.5
3.165	81990.5
3.170	82003.5
3.175	81992.5
3.180	82000.5
3.185	81998.5
3.190	81998.5
3.195	81997.6
3.200	81991.6
3.205	81989.6
3.210	81995.6
3.215	81974.6
3.220	81940.6
3.225	81905.7
3.230	81935.6
3.235	81936.6
3.240	81965.6
3.245	81981.6
3.250	81998.6
3.255	82006.6
3.260	82018.6
3.265	82007.6
3.270	81999.6
3.275	81986.6
3.280	81951.6
3.285	81903.6
3.290	81882.6
3.295	81891.6
3.300	81901.6
3.305	81891.6
3.310	81902.5
3.315	81914.5
3.320	81930.4
3.325	81921.4
3.330	81916.5
3.335	81782.6
3.340	81641.7
3.345	81638.7
3.350	81809.6
3.355	81933.6
3.360	81818.8
3.365	81622.0
3.370	81644.0
3.375	81866.0
3.380	81920.1
3.385	81752.4
3.390	81800.5
3.395	81977.4
3.400	82034.5
3.405	81997.5
3.410	81993.5
3.415	81987.5
3.420	81986.5
3.425	82007.5
3.430	82046.5
3.435	82057.5
3.440	82071.4
3.445	82081.4
3.450	82092.4
3.455	82095.5
3.460	82093.5
3.465	82097.5
3.470	82107.5
3.475	82090.6
3.480	82076.6
3.485	82060.7
3.490	82068.8
3.495	82108.8
3.500	82137.8
3.505	82141.9
3.510	82151.0
3.515	82141.1
3.520	82136.1
3.525	82117.2
3.530	82113.3
3.535	82110.4
3.540	82115.4
3.545	82111.5
3.550	82101.5
3.555	82083.6
3.560	82099.6
3.565	82125.6
3.570	82115.7
3.575	82115.7
3.580	82107.7
3.585	82093.8
3.590	82094.8
3.595	82087.8
3.600	82076.8
3.605	82069.8
3.610	82085.8
3.615	82057.9
3.620	82047.9
3.625	82041.9
3.630	82065.9
3.635	82052.9
3.640	82050.0
3.645	82041.0
3.650	82033.0
3.655	82036.0
3.660	82043.0
3.665	82031.0
3.670	82033.0
3.675	82032.1
3.680	82044.1
3.685	82019.1
3.690	82012.1
3.695	82028.1
3.700	82040.1
3.705	82032.2
3.710	82039.2
3.715	82023.2
3.720	82025.2
3.725	82022.2
3.730	82016.3
3.735	82013.3
3.740	82024.3
3.745	82025.3
3.750	82002.3
3.755	82002.4
3.760	82026.4
3.765	82055.4
3.770	82072.4
3.775	82068.4
3.780	82067.4
3.785	82058.5
3.790	82062.5
3.795	82061.5
3.800	82067.6
3.805	82064.6
3.810	82076.6
3.815	82078.6
3.820	82063.7
3.825	82071.7
3.830	82110.7
3.835	82109.7
3.840	82092.8
3.845	82082.8
3.850	82072.9
3.855	82065.9
3.860	82048.0
3.865	82055.0
3.870	82037.1
3.875	82038.1
3.880	82035.2
3.885	81996.2
3.890	81991.3
3.895	82001.3
3.900	82013.4
3.905	81994.4
3.910	81991.5
3.915	81955.6
3.920	81934.6
3.925	81894.7
3.930	81875.8
3.935	81869.9
3.940	81853.0
3.945	81809.1
3.950	81760.2
3.955	81736.3
3.960	81740.4
3.965	81794.5
3.970	81579.8
3.975	81059.3
3.980	80824.6
3.985	81081.7
3.990	81433.6
3.995	81623.7
4.000	81730.9
4.005	81716.2
4.010	81501.6
4.015	81209.1
4.020	81148.4
4.025	81271.6
4.030	81361.8
4.035	81323.9
4.040	81259.1
4.045	81210.1
4.050	81186.1
4.055	81174.9
4.060	81118.7
4.065	81081.4
4.070	81110.8
4.075	81152.2
4.080	81241.4
4.085	81312.5
4.090	81429.5
4.095	81573.5
4.100	81681.7
4.105	81747.1
4.110	81797.6
4.115	81802.3
4.120	81806.1
4.125	81813.0
4.130	81816.9
4.135	81819.9
4.140	81810.9
4.145	81810.8
4.150	81797.8
4.155	81782.8
4.160	81805.8
4.165	81832.8
4.170	81846.7
4.175	81831.7
4.180	81817.7
4.185	81805.7
4.190	81817.7
4.195	81832.7
4.200	81837.7
4.205	81839.7
4.210	81837.7
4.215	81816.7
4.220	81799.7
4.225	81790.7
4.230	81823.7
4.235	81802.7
4.240	81812.7
4.245	81832.7
4.250	81873.7
4.255	81883.7
4.260	81880.7
4.265	81872.7
4.270	81891.6
4.275	81901.6
4.280	81904.6
4.285	81881.6
4.290	81860.6
4.295	81896.6
4.300	81901.6
4.305	81903.6
4.310	81910.6
4.315	81908.6
4.320	81912.6
4.325	81923.6
4.330	81956.5
4.335	81951.5
4.340	81979.5
4.345	81969.5
4.350	81946.5
4.355	81901.6
4.360	81901.6
4.365	81921.5
4.370	81927.5
4.375	81921.5
4.380	81946.5
4.385	81969.5
4.390	81979.5
4.395	81970.5
4.400	81971.5
4.405	81945.5
4.410	81936.5
4.415	81910.5
4.420	81895.5
4.425	81911.5
4.430	81953.5
4.435	81943.5
4.440	81953.5
4.445	81942.5
4.450	81936.5
4.455	81936.5
4.460	81940.5
4.465	81950.4
4.470	81966.4
4.475	81959.4
4.480	81962.4
4.485	81938.4
4.490	81931.4
4.495	81956.4
4.500	81964.4
4.505	81953.4
4.510	81970.4
4.515	81967.4
4.520	81969.4
4.525	81952.4
4.530	81941.4
4.535	81935.4
4.540	81943.4
4.545	81947.4
4.550	81923.4
4.555	81914.4
4.560	81948.3
4.565	81982.3
4.570	81987.3
4.575	81975.3
4.580	81956.3
4.585	81941.4
4.590	81923.4
4.595	81918.4
4.600	81943.3
4.605	81936.3
4.610	81937.3
4.615	81907.4
4.620	81906.3
4.625	81922.3
4.630	81988.3
4.635	81997.3
4.640	82006.2
4.645	81996.2
4.650	81994.2
4.655	81993.2
4.660	81989.2
4.665	81991.2
4.670	81984.2
4.675	81968.2
4.680	81956.2
4.685	81932.2
4.690	81939.2
4.695	81977.1
4.700	81984.1
4.705	82003.1
4.710	82029.1
4.715	82009.1
4.720	81989.1
4.725	81984.1
4.730	81986.1
4.735	81978.1
4.740	81985.1
4.745	81997.1
4.750	81994.1
4.755	81977.1
4.760	81976.1
4.765	81980.1
4.770	81982.1
4.775	81973.1
4.780	81975.1
4.785	81971.0
4.790	81971.0
4.795	81969.0
4.800	81993.0
4.805	81983.0
4.810	81998.0
4.815	81972.0
4.820	81959.0
4.825	81966.0
4.830	81991.0
4.835	81975.0
4.840	81945.0
4.845	81942.0
4.850	81937.9
4.855	81940.9
4.860	81947.9
4.865	81980.9
4.870	81998.9
4.875	81997.9
4.880	82004.9
4.885	81973.9
4.890	81962.9
4.895	81979.9
4.900	81987.8
4.905	81968.8
4.910	81964.8
4.915	81964.8
4.920	81948.8
4.925	81943.8
4.930	81943.8
4.935	81953.8
4.940	81949.8
4.945	81948.8
4.950	81952.8
4.955	81943.8
4.960	81959.7
4.965	81987.7
4.970	81978.7
4.975	81970.7
4.980	81957.7
4.985	81951.6
4.990	81964.6
4.995	81966.6
5.000	81978.6
5.005	81974.6
5.010	81971.5
5.015	81955.5
5.020	81908.6
5.025	81894.5
5.030	81913.5
5.035	81915.5
5.040	81921.5
5.045	81921.5
5.050	81966.4
5.055	81967.4
5.060	81973.4
5.065	81978.3
5.070	81981.3
5.075	81951.3
5.080	81936.3
5.085	81896.3
5.090	81884.3
5.095	81905.3
5.100	81906.3
5.105	81917.2
5.110	81948.2
5.115	81962.1
5.120	81981.1
5.125	81969.1
5.130	81948.1
5.135	81956.0
5.140	81987.0
5.145	81993.9
5.150	81980.9
5.155	81951.9
5.160	81958.8
5.165	81988.8
5.170	82028.7
5.175	82034.7
5.180	82011.6
5.185	81999.6
5.190	82015.5
5.195	82018.5
5.200	81996.4
5.205	81977.4
5.210	81995.3
5.215	81986.3
5.220	81971.2
5.225	81988.2
5.230	82031.1
5.235	82012.0
5.240	82024.9
5.245	82002.9
5.250	81996.8
5.255	81975.7
5.260	81963.7
5.265	81963.6
5.270	81955.5
5.275	81954.3
5.280	81950.2
5.285	81908.1
5.290	81903.9
5.295	81908.8
5.300	81906.5
5.305	81870.3
5.310	81824.1
5.315	81768.9
5.320	81717.6
5.325	81626.4
5.330	81566.2
5.335	81464.1
5.340	81388.0
5.345	81311.0
5.350	81194.0
5.355	81119.2
5.360	81110.3
5.365	81082.5
5.370	81078.9
5.375	81101.4
5.380	81129.9
5.385	81145.5
5.390	81180.2
5.395	81293.1
5.400	81462.0
5.405	81675.6
5.410	81867.1
5.415	81941.4
5.420	81982.5
5.425	82010.6
5.430	82062.6
5.435	82068.6
5.440	82076.6
5.445	82066.6
5.450	82076.6
5.455	82057.7
5.460	82052.7
5.465	82059.7
5.470	82055.7
5.475	82049.7
5.480	82040.7
5.485	82013.7
5.490	82008.7
5.495	82044.7
5.500	82048.7
5.505	82037.7
5.510	82044.7
5.515	82037.7
5.520	82042.7
5.525	82035.7
5.530	82045.7
5.535	82039.7
5.540	82052.7
5.545	82062.6
5.550	82029.7
5.555	82010.7
5.560	82033.7
5.565	82049.7
5.570	82049.7
5.575	82042.7
5.580	82048.7
5.585	82033.7
5.590	82037.7
5.595	82028.7
5.600	82032.7
5.605	82029.7
5.610	82029.7
5.615	82000.7
5.620	81994.7
5.625	81995.7
5.630	82032.7
5.635	82032.7
5.640	82036.7
5.645	82025.7
5.650	82030.7
5.655	82029.7
5.660	82022.8
5.665	82020.8
5.670	82040.8
5.675	82049.8
5.680	82035.8
5.685	82016.8
5.690	82014.8
5.695	82049.8
5.700	82049.8
5.705	82036.8
5.710	82044.8
5.715	82031.8
5.720	82045.8
5.725	82029.8
5.730	82031.8
5.735	82026.8
5.740	82032.8
5.745	82025.8
5.750	82001.8
5.755	81986.8
5.760	82015.7
5.765	82022.7
5.770	82006.7
5.775	82024.7
5.780	82013.7
5.785	82015.7
5.790	82016.7
5.795	82010.7
5.800	82000.7
5.805	81998.7
5.810	82015.7
5.815	81993.7
5.820	81966.7
5.825	81987.7
5.830	82017.7
5.835	82020.7
5.840	82022.7
5.845	81999.7
5.850	81986.7
5.855	81981.7
5.860	81972.7
5.865	81968.7
5.870	81957.7
5.875	81953.8
5.880	81943.8
5.885	81915.8
5.890	81922.8
5.895	81955.8
5.900	81948.8
5.905	81940.8
5.910	81926.8
5.915	81914.8
5.920	81909.8
5.925	81896.8
5.930	81878.8
5.935	81874.8
5.940	81867.8
5.945	81869.8
5.950	81847.8
5.955	81824.9
5.960	81846.8
5.965	81858.8
5.970	81865.8
5.975	81861.8
5.980	81862.8
5.985	81852.8
5.990	81847.8
5.995	81844.9
6.000	81850.9
6.005	81851.8
6.010	81869.8
6.015	81848.9
6.020	81832.9
6.025	81865.8
6.030	81901.8
6.035	81900.8
6.040	81905.8
6.045	81906.8
6.050	81902.8
6.055	81904.8
6.060	81915.8
6.065	81913.8
6.070	81905.8
6.075	81913.8
6.080	81897.8
6.085	81874.8
6.090	81865.8
6.095	81895.8
6.100	81891.8
6.105	81894.8
6.110	81892.8
6.115	81885.8
6.120	81882.8
6.125	81873.8
6.130	81883.8
6.135	81863.9
6.140	81865.8
6.145	81846.9
6.150	81827.9
6.155	81808.9
6.160	81836.9
6.165	81846.9
6.170	81836.9
6.175	81833.9
6.180	81833.9
6.185	81828.9
6.190	81844.9
6.195	81838.9
6.200	81843.9
6.205	81851.9
6.210	81852.9
6.215	81837.9
6.220	81821.9
6.225	81828.9
6.230	81859.9
6.235	81847.9
6.240	81856.9
6.245	81842.9
6.250	81831.9
6.255	81834.9
6.260	81848.9
6.265	81834.9
6.270	81837.9
6.275	81825.9
6.280	81802.9
6.285	81790.9
6.290	81790.9
6.295	81813.9
6.300	81813.9
6.305	81797.9
6.310	81799.9
6.315	81796.9
6.320	81807.9
6.325	81804.9
6.330	81813.9
6.335	81798.9
6.340	81807.9
6.345	81810.9
6.350	81795.9
6.355	81771.9
6.360	81817.9
6.365	81817.9
6.370	81824.9
6.375	81829.9
6.380	81834.9
6.385	81825.9
6.390	81819.9
6.395	81818.9
6.400	81831.9
6.405	81834.9
6.410	81842.9
6.415	81820.9
6.420	81834.9
6.425	81827.9
6.430	81865.9
6.435	81858.9
6.440	81871.9
6.445	81870.9
6.450	81877.9
6.455	81876.9
6.460	81887.9
6.465	81902.8
6.470	81915.8
6.475	81917.8
6.480	81910.8
6.485	81890.8
6.490	81901.8
6.495	81943.8
6.500	81962.8
6.505	81953.8
6.510	81962.8
6.515	81963.8
6.520	81970.8
6.525	81969.8
6.530	81977.8
6.535	81979.8
6.540	81973.8
6.545	81971.8
6.550	81963.8
6.555	81945.8
6.560	81988.8
6.565	82000.8
6.570	81996.8
6.575	81996.8
6.580	82004.8
6.585	82007.8
6.590	82007.8
6.595	82017.8
6.600	82016.8
6.605	82024.8
6.610	82038.8
6.615	82017.8
6.620	82016.8
6.625	82017.8
6.630	82052.7
6.635	82051.7
6.640	82048.7
6.645	82055.7
6.650	82061.7
6.655	82053.7
6.660	82056.7
6.665	82059.7
6.670	82067.7
6.675	82066.7
6.680	82051.7
6.685	82037.8
6.690	82049.8
6.695	82081.7
6.700	82086.7
6.705	82074.7
6.710	82082.7
6.715	82081.7
6.720	82081.7
6.725	82070.7
6.730	82082.7
6.735	82077.7
6.740	82089.7
6.745	82085.7
6.750	82064.8
6.755	82052.8
6.760	82082.7
6.765	82087.7
6.770	82079.7
6.775	82070.7
6.780	82071.7
6.785	82051.8
6.790	82035.8
6.795	82025.8
6.800	82022.8
6.805	81986.8
6.810	81982.8
6.815	81925.9
6.820	81902.9
6.825	81895.9
6.830	81890.9
6.835	81861.9
6.840	81844.9
6.845	81812.9
6.850	81806.9
6.855	81797.0
6.860	81783.0
6.865	81760.0
6.870	81749.0
6.875	81760.0
6.880	81769.0
6.885	81787.0
6.890	81833.9
6.895	81903.9
6.900	81910.9
6.905	81931.8
6.910	81952.8
6.915	81953.8
6.920	81955.8
6.925	81948.8
6.930	81950.8
6.935	81957.8
6.940	81955.8
6.945	81940.8
6.950	81918.9
6.955	81911.9
6.960	81956.8
6.965	81960.8
6.970	81963.8
6.975	81965.8
6.980	81982.8
6.985	81987.8
6.990	82004.8
6.995	82017.8
7.000	82017.8
7.005	82019.8
7.010	82027.8
7.015	82009.8
7.020	81999.8
7.025	82015.8
7.030	82043.8
7.035	82032.8
7.040	82029.8
7.045	82035.8
7.050	82039.8
7.055	82042.8
7.060	82049.8
7.065	82056.8
7.070	82059.8
7.075	82043.8
7.080	82025.8
7.085	81996.8
7.090	82007.8
7.095	82039.8
7.100	82051.8
7.105	82039.8
7.110	82046.8
7.115	82046.8
7.120	82054.8
7.125	82049.8
7.130	82060.8
7.135	82060.8
7.140	82064.8
7.145	82061.8
7.150	82038.8
7.155	82026.8
7.160	82064.8
7.165	82063.8
7.170	82071.8
7.175	82076.8
7.180	82071.8
7.185	82064.8
7.190	82058.8
7.195	82061.8
7.200	82063.8
7.205	82057.8
7.210	82066.8
7.215	82027.8
7.220	82018.8
7.225	82029.8
7.230	82055.8
7.235	82046.8
7.240	82042.8
7.245	82037.8
7.250	82040.8
7.255	82030.8
7.260	82024.8
7.265	82028.8
7.270	82027.8
7.275	82031.8
7.280	82010.8
7.285	81992.8
7.290	81989.8
7.295	82016.8
7.300	82020.8
7.305	82014.8
7.310	82013.8
7.315	82011.8
7.320	82016.8
7.325	82007.8
7.330	82013.8
7.335	82009.8
7.340	82000.8
7.345	81976.9
7.350	81949.9
7.355	81954.9
7.360	81982.9
7.365	81983.9
7.370	81982.9
7.375	81976.9
7.380	81972.9
7.385	81974.9
7.390	81972.9
7.395	81973.9
7.400	81968.9
7.405	81969.9
7.410	81979.9
7.415	81951.9
7.420	81946.9
7.425	81954.9
7.430	81976.9
7.435	81972.9
7.440	81972.9
7.445	81964.9
7.450	81965.9
7.455	81953.9
7.460	81956.9
7.465	81934.9
7.470	81919.9
7.475	81897.9
7.480	81849.0
7.485	81809.0
7.490	81803.0
7.495	81795.0
7.500	81778.0
7.505	81740.1
7.510	81719.1
7.515	81671.1
7.520	81652.1
7.525	81639.1
7.530	81668.1
7.535	81697.1
7.540	81754.1
7.545	81793.0
7.550	81816.0
7.555	81833.0
7.560	81884.0
7.565	81911.9
7.570	81915.9
7.575	81926.9
7.580	81919.9
7.585	81903.0
7.590	81890.0
7.595	81883.0
7.600	81866.0
7.605	81850.0
7.610	81837.0
7.615	81781.0
7.620	81735.1
7.625	81732.1
7.630	81756.1
7.635	81777.1
7.640	81821.0
7.645	81832.0
7.650	81864.0
7.655	81884.0
7.660	81915.0
7.665	81943.9
7.670	81968.9
7.675	81980.9
7.680	81971.9
7.685	81953.9
7.690	81956.9
7.695	81993.9
7.700	82006.9
7.705	81996.9
7.710	82005.9
7.715	81995.9
7.720	82003.9
7.725	81989.9
7.730	81994.9
7.735	81978.9
7.740	81974.9
7.745	81950.9
7.750	81926.0
7.755	81907.0
7.760	81930.0
7.765	81933.0
7.770	81924.0
7.775	81928.0
7.780	81915.0
7.785	81913.0
7.790	81925.0
7.795	81934.0
7.800	81957.9
7.805	81970.9
7.810	81986.9
7.815	81967.9
7.820	81959.9
7.825	81990.9
7.830	82006.9
7.835	82008.9
7.840	82031.9
7.845	82022.9
7.850	82016.9
7.855	82020.9
7.860	82015.9
7.865	82012.9
7.870	82020.9
7.875	82017.9
7.880	81993.9
7.885	81970.0
7.890	81989.9
7.895	82011.9
7.900	82020.9
7.905	82009.9
7.910	82015.9
7.915	82004.9
7.920	82007.9
7.925	82003.9
7.930	82022.9
7.935	82023.9
7.940	82029.9
7.945	82022.9
7.950	82010.9
7.955	82005.9
7.960	82037.9
7.965	82047.9
7.970	82047.9
7.975	82053.9
7.980	82054.9
7.985	82045.9
7.990	82043.9
7.995	82042.9
8.000	82037.9
8.005	82035.9
8.010	82034.9
8.015	82001.0
8.020	81960.0
8.025	81949.0
8.030	81950.0
8.035	81910.0
8.040	81862.1
8.045	81833.1
8.050	81806.1
8.055	81793.1
8.060	81817.1
8.065	81847.1
8.070	81892.1
8.075	81921.0
8.080	81940.0
8.085	81956.0
8.090	82006.0
8.095	82045.9
8.100	82052.9
8.105	82064.9
8.110	82068.9
8.115	82070.9
8.120	82058.9
8.125	82044.0
8.130	82047.0
8.135	82038.0
8.140	82041.0
8.145	82012.0
8.150	81988.0
8.155	81982.0
8.160	82025.0
8.165	82025.0
8.170	82023.0
8.175	82017.0
8.180	82020.0
8.185	82018.0
8.190	82031.0
8.195	82031.0
8.200	82031.0
8.205	82030.0
8.210	82036.0
8.215	81988.0
8.220	81978.0
8.225	81986.0
8.230	81998.0
8.235	81998.0
8.240	82024.0
8.245	82030.0
8.250	82055.0
8.255	82057.0
8.260	82063.0
8.265	82060.0
8.270	82061.0
8.275	82056.0
8.280	82028.0
8.285	82012.0
8.290	82012.0
8.295	82023.0
8.300	82021.0
8.305	82004.0
8.310	82012.0
8.315	82014.0
8.320	82009.1
8.325	81994.1
8.330	81986.1
8.335	81957.1
8.340	81940.1
8.345	81913.1
8.350	81872.2
8.355	81827.2
8.360	81846.2
8.365	81837.2
8.370	81853.2
8.375	81857.2
8.380	81849.2
8.385	81840.2
8.390	81835.2
8.395	81813.2
8.400	81800.2
8.405	81793.2
8.410	81793.2
8.415	81740.3
8.420	81743.3
8.425	81756.3
8.430	81755.3
8.435	81744.3
8.440	81734.3
8.445	81734.3
8.450	81748.3
8.455	81754.3
8.460	81767.3
8.465	81791.3
8.470	81829.2
8.475	81855.2
8.480	81871.2
8.485	81856.2
8.490	81900.2
8.495	81936.2
8.500	81959.2
8.505	81968.2
8.510	81997.1
8.515	81996.1
8.520	81991.1
8.525	81990.2
8.530	81984.2
8.535	81960.2
8.540	81942.2
8.545	81850.3
8.550	81726.4
8.555	81600.5
8.560	81571.5
8.565	81613.5
8.570	81734.4
8.575	81887.3
8.580	81956.2
8.585	81957.2
8.590	81957.2
8.595	81919.2
8.600	81911.3
8.605	81919.2
8.610	81920.3
8.615	81915.3
8.620	81915.3
8.625	81938.2
8.630	81961.2
8.635	81952.2
8.640	81951.3
8.645	81946.3
8.650	81931.3
8.655	81902.3
8.660	81903.3
8.665	81895.3
8.670	81902.3
8.675	81901.3
8.680	81864.3
8.685	81825.4
8.690	81834.4
8.695	81852.4
8.700	81862.4
8.705	81842.4
8.710	81844.4
8.715	81832.4
8.720	81838.4
8.725	81819.4
8.730	81810.4
8.735	81806.4
8.740	81781.4
8.745	81761.5
8.750	81739.5
8.755	81749.5
8.760	81777.5
8.765	81784.5
8.770	81785.5
8.775	81771.5
8.780	81752.5
8.785	81733.5
8.790	81713.5
8.795	81705.5
8.800	81728.5
8.805	81753.5
8.810	81779.5
8.815	81758.5
8.820	81746.5
8.825	81769.5
8.830	81803.5
8.835	81831.5
8.840	81849.5
8.845	81854.5
8.850	81848.5
8.855	81846.5
8.860	81852.5
8.865	81847.5
8.870	81848.5
8.875	81858.5
8.880	81843.5
8.885	81820.5
8.890	81833.5
8.895	81856.5
8.900	81854.5
8.905	81854.5
8.910	81840.6
8.915	81804.6
8.920	81801.6
8.925	81826.6
8.930	81843.6
8.935	81841.6
8.940	81836.6
8.945	81820.6
8.950	81802.6
8.955	81792.6
8.960	81825.6
8.965	81822.6
8.970	81803.7
8.975	81785.7
8.980	81755.7
8.985	81733.7
8.990	81756.7
8.995	81771.7
9.000	81780.7
9.005	81779.7
9.010	81781.7
9.015	81754.8
9.020	81735.8
9.025	81745.8
9.030	81766.8
9.035	81764.8
9.040	81771.8
9.045	81767.8
9.050	81767.8
9.055	81752.8
9.060	81757.8
9.065	81750.8
9.070	81766.8
9.075	81757.9
9.080	81724.9
9.085	81709.9
9.090	81736.9
9.095	81766.9
9.100	81788.9
9.105	81790.9
9.110	81801.9
9.115	81788.9
9.120	81579.1
9.125	81352.3
9.130	81542.1
9.135	81744.0
9.140	81856.9
9.145	81849.9
9.150	81828.0
9.155	81821.0
9.160	81865.0
9.165	81876.0
9.170	81882.0
9.175	81867.0
9.180	81876.0
9.185	81870.0
9.190	81874.0
9.195	81867.1
9.200	81875.1
9.205	81867.1
9.210	81871.1
9.215	81829.2
9.220	81832.2
9.225	81869.2
9.230	81861.2
9.235	81861.2
9.240	81780.3
9.245	81652.4
9.250	81132.8
9.255	79989.7
9.260	79223.2
9.265	76476.2
9.270	74056.0
9.275	74847.5
9.280	77456.6
9.285	79733.0
9.290	81138.0
9.295	81705.6
9.300	81833.5
9.305	81842.6
9.310	81831.6
9.315	81808.7
9.320	81814.7
9.325	81831.7
9.330	81861.7
9.335	81861.8
9.340	81877.8
9.345	81839.9
9.350	81827.0
9.355	81824.0
9.360	81870.0
9.365	81849.1
9.370	81843.2
9.375	81818.3
9.380	81783.4
9.385	81756.5
9.390	81716.6
9.395	81601.8
9.400	81560.0
9.405	81415.3
9.410	81234.6
9.415	81228.8
9.420	81116.1
9.425	80761.7
9.430	80348.2
9.435	80183.5
9.440	80340.6
9.445	80596.6
9.450	80794.6
9.455	80895.6
9.460	80889.6
9.465	80827.5
9.470	80772.4
9.475	80804.1
9.480	80851.7
9.485	80926.2
9.490	81061.5
9.495	81223.7
9.500	81387.8
9.505	81517.0
9.510	81648.4
9.515	81719.0
9.520	81765.8
9.525	81801.6
9.530	81821.5
9.535	81830.5
9.540	81847.5
9.545	81828.5
9.550	81812.5
9.555	81818.5
9.560	81849.5
9.565	81849.5
9.570	81855.5
9.575	81850.5
9.580	81859.5
9.585	81841.5
9.590	81851.5
9.595	81857.5
9.600	81858.4
9.605	81848.5
9.610	81842.5
9.615	81820.5
9.620	81829.5
9.625	81841.5
9.630	81865.4
9.635	81850.5
9.640	81854.4
9.645	81841.5
9.650	81851.4
9.655	81846.5
9.660	81860.4
9.665	81864.4
9.670	81878.4
9.675	81877.4
9.680	81858.4
9.685	81829.5
9.690	81844.5
9.695	81877.4
9.700	81875.4
9.705	81879.4
9.710	81875.4
9.715	81868.4
9.720	81876.4
9.725	81871.4
9.730	81876.4
9.735	81866.4
9.740	81870.4
9.745	81844.5
9.750	81832.5
9.755	81844.5
9.760	81870.4
9.765	81876.4
9.770	81881.4
9.775	81871.4
9.780	81870.4
9.785	81867.4
9.790	81867.4
9.795	81858.4
9.800	81887.4
9.805	81885.4
9.810	81876.4
9.815	81846.4
9.820	81838.5
9.825	81869.4
9.830	81869.4
9.835	81868.4
9.840	81865.4
9.845	81867.4
9.850	81873.4
9.855	81869.4
9.860	81870.4
9.865	81873.4
9.870	81875.4
9.875	81861.4
9.880	81825.5
9.885	81815.5
9.890	81837.5
9.895	81851.4
9.900	81849.4
9.905	81846.4
9.910	81836.5
9.915	81832.5
9.920	81830.5
9.925	81826.5
9.930	81822.5
9.935	81820.5
9.940	81819.5
9.945	81798.5
9.950	81782.5
9.955	81772.5
9.960	81806.5
9.965	81802.5
9.970	81798.5
9.975	81793.5
9.980	81797.5
9.985	81783.5
9.990	81785.5
9.995	81788.5
10.000	81772.5
10.005	81776.5
10.010	81761.5
10.015	81737.5
10.020	81733.5
10.025	81754.5
10.030	81753.5
10.035	81740.5
10.040	81746.5
10.045	81746.5
10.050	81743.5
10.055	81730.5
10.060	81735.5
10.065	81731.5
10.070	81743.5
10.075	81732.5
10.080	81704.6
10.085	81669.6
10.090	81690.6
10.095	81699.6
10.100	81707.6
10.105	81709.5
10.110	81708.5
10.115	81699.6
10.120	81701.6
10.125	81697.6
10.130	81699.6
10.135	81690.6
10.140	81694.6
10.145	81670.6
10.150	81652.6
10.155	81655.6
10.160	81676.6
10.165	81669.6
10.170	81667.6
10.175	81660.6
10.180	81667.6
10.185	81651.6
10.190	81655.6
10.195	81652.6
10.200	81657.6
10.205	81649.6
10.210	81653.6
10.215	81627.6
10.220	81623.6
10.225	81653.6
10.230	81668.6
10.235	81658.6
10.240	81655.6
10.245	81653.6
10.250	81645.6
10.255	81633.6
10.260	81640.6
10.265	81629.6
10.270	81628.6
10.275	81638.6
10.280	81623.6
10.285	81613.6
10.290	81636.6
10.295	81645.6
10.300	81655.6
10.305	81651.6
10.310	81657.6
10.315	81657.6
10.320	81651.6
10.325	81655.6
10.330	81666.6
10.335	81666.6
10.340	81686.6
10.345	81663.6
10.350	81653.6
10.355	81663.6
10.360	81703.5
10.365	81688.6
10.370	81697.5
10.375	81701.5
10.380	81708.5
10.385	81719.5
10.390	81719.5
10.395	81721.5
10.400	81720.5
10.405	81712.5
10.410	81702.5
10.415	81687.6
10.420	81689.5
10.425	81728.5
10.430	81734.5
10.435	81722.5
10.440	81726.5
10.445	81725.5
10.450	81736.5
10.455	81728.5
10.460	81743.5
10.465	81750.5
10.470	81759.5
10.475	81762.5
10.480	81754.5
10.485	81737.5
10.490	81763.5
10.495	81774.5
10.500	81781.5
10.505	81769.5
10.510	81775.5
10.515	81765.5
10.520	81771.5
10.525	81765.5
10.530	81767.5
10.535	81759.5
10.540	81772.5
10.545	81748.5
10.550	81744.5
10.555	81755.5
10.560	81792.5
10.565	81796.5
10.570	81795.5
10.575	81804.5
10.580	81808.5
10.585	81811.5
10.590	81812.4
10.595	81805.5
10.600	81806.5
10.605	81821.4
10.610	81804.5
10.615	81782.5
10.620	81795.5
10.625	81813.4
10.630	81824.4
10.635	81820.4
10.640	81833.4
10.645	81830.4
10.650	81838.4
10.655	81824.4
10.660	81833.4
10.665	81839.4
10.670	81835.4
10.675	81826.4
10.680	81801.5
10.685	81788.5
10.690	81816.4
10.695	81833.4
10.700	81823.4
10.705	81816.4
10.710	81821.4
10.715	81808.4
10.720	81826.4
10.725	81817.4
10.730	81835.4
10.735	81825.4
10.740	81842.4
10.745	81816.4
10.750	81814.4
10.755	81807.4
10.760	81837.4
10.765	81837.4
10.770	81842.4
10.775	81837.4
10.780	81837.4
10.785	81830.4
10.790	81824.4
10.795	81832.4
10.800	81825.4
10.805	81830.4
10.810	81810.4
10.815	81789.5
10.820	81794.5
10.825	81842.4
10.830	81841.4
10.835	81830.4
10.840	81825.4
10.845	81825.4
10.850	81840.4
10.855	81844.4
10.860	81838.4
10.865	81834.4
10.870	81841.4
10.875	81839.4
10.880	81814.4
10.885	81807.4
10.890	81832.4
10.895	81843.4
10.900	81841.4
10.905	81847.4
10.910	81844.4
10.915	81837.4
10.920	81847.4
10.925	81850.4
10.930	81853.4
10.935	81842.4
10.940	81839.4
10.945	81810.4
10.950	81797.4
10.955	81810.4
10.960	81821.4
10.965	81827.4
10.970	81820.4
10.975	81822.4
10.980	81812.4
10.985	81813.4
10.990	81816.4
10.995	81807.4
11.000	81821.4
11.005	81806.4
11.010	81809.4
11.015	81777.5
11.020	81791.4
11.025	81814.4
11.030	81800.4
11.035	81805.4
11.040	81804.4
11.045	81805.4
11.050	81797.4
11.055	81792.4
11.060	81790.4
11.065	81793.4
11.070	81794.4
11.075	81790.4
11.080	81754.5
11.085	81758.5
11.090	81786.5
11.095	81808.4
11.100	81800.4
11.105	81799.4
11.110	81791.4
11.115	81785.4
11.120	81785.4
11.125	81781.5
11.130	81787.4
11.135	81791.4
11.140	81795.4
11.145	81764.5
11.150	81763.5
11.155	81757.5
11.160	81784.4
11.165	81774.5
11.170	81783.4
11.175	81768.5
11.180	81763.5
11.185	81753.5
11.190	81756.5
11.195	81746.5
11.200	81741.5
11.205	81733.5
11.210	81706.5
11.215	81688.5
11.220	81685.5
11.225	81712.5
11.230	81723.5
11.235	81719.5
11.240	81712.5
11.245	81705.5
11.250	81707.5
11.255	81703.5
11.260	81711.5
11.265	81706.5
11.270	81717.5
11.275	81714.5
11.280	81688.5
11.285	81670.5
11.290	81697.5
11.295	81699.5
11.300	81706.5
11.305	81705.5
11.310	81711.5
11.315	81699.5
11.320	81703.5
11.325	81696.5
11.330	81690.5
11.335	81690.5
11.340	81694.5
11.345	81666.5
11.350	81658.5
11.355	81674.5
11.360	81698.5
11.365	81695.5
11.370	81692.5
11.375	81690.5
11.380	81685.5
11.385	81676.5
11.390	81689.5
11.395	81687.5
11.400	81695.5
11.405	81704.5
11.410	81691.5
11.415	81663.5
11.420	81671.5
11.425	81700.5
11.430	81699.5
11.435	81699.5
11.440	81707.5
11.445	81702.5
11.450	81698.5
11.455	81705.5
11.460	81706.5
11.465	81694.5
11.470	81702.5
11.475	81695.5
11.480	81666.5
11.485	81658.5
11.490	81702.5
11.495	81715.5
11.500	81713.5
11.505	81703.5
11.510	81709.5
11.515	81700.5
11.520	81705.5
11.525	81701.5
11.530	81703.5
11.535	81714.5
11.540	81730.5
11.545	81696.5
11.550	81687.5
11.555	81703.5
11.560	81730.5
11.565	81717.5
11.570	81727.5
11.575	81727.5
11.580	81720.5
11.585	81721.5
11.590	81718.5
11.595	81712.5
11.600	81717.5
11.605	81716.5
11.610	81703.5
11.615	81677.5
11.620	81682.5
11.625	81703.5
11.630	81706.5
11.635	81712.5
11.640	81716.5
11.645	81712.5
11.650	81706.5
11.655	81711.5
11.660	81718.5
11.665	81719.5
11.670	81716.5
11.675	81716.5
11.680	81692.5
11.685	81692.5
11.690	81720.5
11.695	81722.5
11.700	81728.5
11.705	81718.5
11.710	81728.5
11.715	81720.5
11.720	81731.5
11.725	81727.5
11.730	81737.5
11.735	81723.5
11.740	81725.5
11.745	81692.5
11.750	81674.5
11.755	81695.5
11.760	81719.5
11.765	81719.5
11.770	81712.5
11.775	81702.5
11.780	81703.5
11.785	81699.5
11.790	81707.5
11.795	81705.5
11.800	81730.5
11.805	81729.5
11.810	81711.5
11.815	81685.5
11.820	81693.5
11.825	81718.5
11.830	81711.5
11.835	81709.5
11.840	81712.5
11.845	81700.5
11.850	81698.5
11.855	81696.5
11.860	81696.5
11.865	81700.5
11.870	81702.5
11.875	81684.5
11.880	81664.5
11.885	81668.5
11.890	81697.5
11.895	81696.5
11.900	81694.5
11.905	81691.5
11.910	81688.5
11.915	81676.5
11.920	81673.5
11.925	81686.5
11.930	81687.5
11.935	81691.5
11.940	81697.5
11.945	81669.5
11.950	81659.5
11.955	81684.5
11.960	81704.5
11.965	81707.5
11.970	81705.5
11.975	81698.5
11.980	81692.5
11.985	81684.5
11.990	81680.5
11.995	81680.5
12.000	81685.5
12.005	81689.5
12.010	81678.5
12.015	81647.5
12.020	81661.5
12.025	81678.5
12.030	81690.5
12.035	81689.5
12.040	81679.5
12.045	81679.5
12.050	81679.5
12.055	81666.5
12.060	81668.5
12.065	81663.5
12.070	81678.5
12.075	81683.5
12.080	81660.5
12.085	81647.5
12.090	81691.5
12.095	81685.5
12.100	81685.5
12.105	81681.5
12.110	81691.5
12.115	81676.5
12.120	81675.5
12.125	81678.5
12.130	81680.5
12.135	81668.5
12.140	81673.5
12.145	81641.5
12.150	81649.5
12.155	81656.5
12.160	81661.5
12.165	81673.5
12.170	81682.5
12.175	81673.5
12.180	81678.5
12.185	81679.5
12.190	81682.5
12.195	81686.5
12.200	81695.5
12.205	81705.5
12.210	81683.5
12.215	81673.5
12.220	81675.5
12.225	81701.5
12.230	81704.5
12.235	81701.5
12.240	81699.5
12.245	81697.5
12.250	81706.5
12.255	81693.5
12.260	81702.5
12.265	81703.5
12.270	81709.5
12.275	81685.5
12.280	81671.5
12.285	81663.5
12.290	81701.5
12.295	81708.5
12.300	81715.5
12.305	81714.5
12.310	81709.5
12.315	81699.5
12.320	81710.5
12.325	81715.5
12.330	81728.5
12.335	81728.5
12.340	81740.4
12.345	81715.5
12.350	81699.5
12.355	81725.5
12.360	81751.4
12.365	81754.4
12.370	81767.4
12.375	81764.4
12.380	81760.4
12.385	81753.4
12.390	81757.4
12.395	81763.4
12.400	81763.4
12.405	81761.4
12.410	81742.4
12.415	81722.5
12.420	81755.4
12.425	81774.4
12.430	81784.4
12.435	81772.4
12.440	81774.4
12.445	81780.4
12.450	81795.4
12.455	81782.4
12.460	81793.4
12.465	81795.4
12.470	81808.4
12.475	81799.4
12.480	81786.4
12.485	81769.4
12.490	81804.4
12.495	81803.4
12.500	81817.4
12.505	81815.4
12.510	81826.4
12.515	81828.4
12.520	81833.4
12.525	81833.4
12.530	81832.4
12.535	81835.4
12.540	81836.4
12.545	81808.4
12.550	81820.4
12.555	81835.4
12.560	81853.3
12.565	81850.4
12.570	81858.3
12.575	81852.3
12.580	81853.3
12.585	81847.3
12.590	81859.3
12.595	81858.3
12.600	81875.3
12.605	81888.3
12.610	81870.3
12.615	81839.4
12.620	81861.3
12.625	81885.3
12.630	81882.3
12.635	81888.3
12.640	81884.3
12.645	81881.3
12.650	81890.3
12.655	81896.3
12.660	81900.3
12.665	81913.3
12.670	81914.3
12.675	81892.3
12.680	81881.3
12.685	81879.3
12.690	81914.3
12.695	81916.3
12.700	81919.3
12.705	81909.3
12.710	81917.3
12.715	81905.3
12.720	81914.3
12.725	81912.3
12.730	81923.3
12.735	81923.3
12.740	81940.3
12.745	81917.3
12.750	81903.3
12.755	81927.3
12.760	81945.3
12.765	81945.3
12.770	81956.3
12.775	81946.3
12.780	81956.3
12.785	81954.3
12.790	81945.3
12.795	81946.3
12.800	81957.3
12.805	81954.3
12.810	81925.3
12.815	81919.3
12.820	81939.3
12.825	81959.3
12.830	81967.3
12.835	81959.3
12.840	81970.2
12.845	81964.2
12.850	81961.3
12.855	81962.3
12.860	81968.2
12.865	81967.2
12.870	81985.2
12.875	81972.2
12.880	81954.3
12.885	81955.3
12.890	81981.2
12.895	81984.2
12.900	82000.2
12.905	81997.2
12.910	81985.2
12.915	81992.2
12.920	81987.2
12.925	81992.2
12.930	81999.2
12.935	81989.2
12.940	81990.2
12.945	81966.2
12.950	81961.2
12.955	81982.2
12.960	82001.2
12.965	81996.2
12.970	81988.2
12.975	81992.2
12.980	81981.2
12.985	81993.2
12.990	81998.2
12.995	82000.2
13.000	82003.2
13.005	82002.2
13.010	81989.2
13.015	81977.2
13.020	81984.2
13.025	82012.2
13.030	82013.2
13.035	82020.2
13.040	82020.2
13.045	82020.2
13.050	82019.2
13.055	82016.2
13.060	82022.2
13.065	82024.2
13.070	82019.2
13.075	82006.2
13.080	81988.2
13.085	81995.2
13.090	82025.2
13.095	82019.2
13.100	82014.2
13.105	82022.2
13.110	82032.2
13.115	82020.2
13.120	82026.2
13.125	82025.2
13.130	82031.2
13.135	82028.2
13.140	82034.2
13.145	82014.2
13.150	82004.2
13.155	82024.2
13.160	82025.2
13.165	82026.2
13.170	82039.2
13.175	82036.2
13.180	82027.2
13.185	82019.2
13.190	82023.2
13.195	82027.2
13.200	82029.2
13.205	82024.2
13.210	82013.2
13.215	81991.2
13.220	82006.2
13.225	82024.2
13.230	82027.2
13.235	82023.2
13.240	82023.2
13.245	82007.2
13.250	82003.2
13.255	82003.2
13.260	82013.2
13.265	82007.2
13.270	82021.2
13.275	82009.2
13.280	81990.2
13.285	81972.2
13.290	82014.2
13.295	82009.2
13.300	82017.2
13.305	82003.2
13.310	81995.2
13.315	81999.2
13.320	81993.2
13.325	81990.2
13.330	81981.2
13.335	81977.2
13.340	81973.2
13.345	81946.2
13.350	81932.3
13.355	81957.2
13.360	81966.2
13.365	81965.2
13.370	81978.2
13.375	81958.2
13.380	81960.2
13.385	81948.2
13.390	81948.2
13.395	81944.2
13.400	81948.2
13.405	81951.2
13.410	81946.2
13.415	81915.3
13.420	81924.3
13.425	81938.2
13.430	81941.2
13.435	81942.2
13.440	81938.2
13.445	81937.2
13.450	81926.3
13.455	81925.3
13.460	81926.3
13.465	81921.3
13.470	81920.3
13.475	81895.3
13.480	81893.3
13.485	81892.3
13.490	81917.3
13.495	81912.3
13.500	81910.3
13.505	81918.3
13.510	81916.3
13.515	81902.3
13.520	81902.3
13.525	81902.3
13.530	81909.3
13.535	81913.3
13.540	81907.3
13.545	81872.3
13.550	81875.3
13.555	81897.3
13.560	81914.3
13.565	81901.3
13.570	81911.3
13.575	81915.3
13.580	81909.3
13.585	81912.3
13.590	81902.3
13.595	81898.3
13.600	81893.3
13.605	81902.3
13.610	81876.3
13.615	81849.3
13.620	81872.3
13.625	81897.3
13.630	81896.3
13.635	81889.3
13.640	81902.3
13.645	81895.3
13.650	81898.3
13.655	81884.3
13.660	81890.3
13.665	81891.3
13.670	81907.3
13.675	81888.3
13.680	81864.3
13.685	81871.3
13.690	81903.3
13.695	81905.3
13.700	81902.3
13.705	81904.3
13.710	81903.3
13.715	81905.3
13.720	81908.3
13.725	81903.3
13.730	81904.3
13.735	81909.3
13.740	81896.3
13.745	81872.3
13.750	81873.3
13.755	81900.3
13.760	81912.2
13.765	81908.3
13.770	81913.2
13.775	81915.2
13.780	81915.2
13.785	81920.2
13.790	81921.2
13.795	81922.2
13.800	81919.2
13.805	81926.2
13.810	81909.2
13.815	81895.3
13.820	81921.2
13.825	81939.2
13.830	81947.2
13.835	81943.2
13.840	81954.2
13.845	81951.2
13.850	81947.2
13.855	81941.2
13.860	81936.2
13.865	81947.2
13.870	81954.2
13.875	81939.2
13.880	81922.2
13.885	81922.2
13.890	81954.2
13.895	81952.2
13.900	81966.2
13.905	81965.2
13.910	81961.2
13.915	81964.2
13.920	81968.2
13.925	81948.2
13.930	81958.2
13.935	81970.2
13.940	81975.2
13.945	81961.2
13.950	81944.2
13.955	81985.2
13.960	81995.2
13.965	81995.2
13.970	82000.2
13.975	82004.2
13.980	81994.2
13.985	82001.2
13.990	82000.2
13.995	81991.2
14.000	81999.2
14.005	82003.2
14.010	81977.2
14.015	81959.2
14.020	81981.2
14.025	81992.2
14.030	81996.2
14.035	81993.2
14.040	82002.2
14.045	81992.2
14.050	81998.2
14.055	81993.2
14.060	81997.2
14.065	82002.2
14.070	82004.2
14.075	81985.2
14.080	81972.2
14.085	81967.2
14.090	81998.2
14.095	81987.2
14.100	81998.2
14.105	81989.2
14.110	82006.2
14.115	82004.2
14.120	81996.2
14.125	81993.2
14.130	81997.2
14.135	82003.2
14.140	81998.2
14.145	81975.2
14.150	81967.2
14.155	81998.2
14.160	81998.2
14.165	81997.2
14.170	81999.2
14.175	82003.2
14.180	82005.2
14.185	82007.2
14.190	82009.2
14.195	82004.2
14.200	82012.2
14.205	82008.2
14.210	81981.2
14.215	81971.2
14.220	81987.2
14.225	82005.2
14.230	82005.2
14.235	82015.1
14.240	82020.1
14.245	82015.1
14.250	82014.2
14.255	82007.2
14.260	82010.1
14.265	82001.2
14.270	82012.1
14.275	81980.2
14.280	81969.2
14.285	81974.2
14.290	82017.1
14.295	82003.2
14.300	82003.2
14.305	81996.2
14.310	81994.2
14.315	81995.2
14.320	82000.2
14.325	82002.2
14.330	82002.2
14.335	82008.2
14.340	82004.2
14.345	81973.2
14.350	81977.2
14.355	82002.1
14.360	82019.1
14.365	82011.1
14.370	82016.1
14.375	82001.2
14.380	82008.1
14.385	82007.1
14.390	82012.1
14.395	82008.1
14.400	81999.2
14.405	81989.2
14.410	81971.2
14.415	81961.2
14.420	81987.2
14.425	82011.1
14.430	82000.1
14.435	82000.1
14.440	81995.2
14.445	81986.2
14.450	81995.1
14.455	81987.2
14.460	81992.2
14.465	81996.2
14.470	82007.1
14.475	81987.2
14.480	81972.2
14.485	81975.2
14.490	81997.1
14.495	82000.1
14.500	82009.1
14.505	82001.1
14.510	82008.1
14.515	81998.1
14.520	81997.1
14.525	81988.2
14.530	81984.2
14.535	81984.2
14.540	81985.2
14.545	81951.2
14.550	81962.2
14.555	81986.2
14.560	81998.1
14.565	81982.2
14.570	81982.2
14.575	81983.2
14.580	81986.2
14.585	81976.2
14.590	81973.2
14.595	81978.2
14.600	81988.2
14.605	81987.1
14.610	81960.2
14.615	81957.2
14.620	81980.2
14.625	81995.1
14.630	81991.1
14.635	81989.1
14.640	81993.1
14.645	81975.2
14.650	81979.2
14.655	81988.1
14.660	81987.1
14.665	81978.2
14.670	81981.2
14.675	81954.2
14.680	81944.2
14.685	81955.2
14.690	81984.1
14.695	81971.2
14.700	81970.2
14.705	81961.2
14.710	81965.2
14.715	81964.2
14.720	81964.2
14.725	81954.2
14.730	81969.2
14.735	81968.2
14.740	81961.2
14.745	81943.2
14.750	81930.2
14.755	81958.2
14.760	81968.2
14.765	81954.2
14.770	81959.2
14.775	81951.2
14.780	81950.2
14.785	81943.2
14.790	81950.2
14.795	81956.2
14.800	81948.2
14.805	81939.2
14.810	81915.2
14.815	81902.2
14.820	81921.2
14.825	81923.2
14.830	81928.2
14.835	81917.2
14.840	81910.2
14.845	81910.2
14.850	81917.2
14.855	81901.2
14.860	81899.2
14.865	81913.2
14.870	81914.2
14.875	81893.2
14.880	81878.2
14.885	81882.2
14.890	81916.2
14.895	81903.2
14.900	81889.2
14.905	81882.2
14.910	81880.2
14.915	81885.2
14.920	81869.2
14.925	81869.2
14.930	81872.2
14.935	81868.2
14.940	81851.2
14.945	81819.3
14.950	81822.3
14.955	81842.2
14.960	81860.2
14.965	81855.2
14.970	81849.2
14.975	81846.2
14.980	81844.2
14.985	81859.2
14.990	81862.2
14.995	81858.2
15.000	81859.2
15.005	81861.2
15.010	81833.2
15.015	81827.2
15.020	81839.2
15.025	81857.2
15.030	81870.2
15.035	81878.2
15.040	81870.2
15.045	81868.2
15.050	81871.2
15.055	81870.2
15.060	81883.2
15.065	81885.2
15.070	81884.2
15.075	81852.2
15.080	81849.2
15.085	81853.2
15.090	81888.2
15.095	81893.2
15.100	81888.2
15.105	81893.2
15.110	81876.2
15.115	81886.2
15.120	81896.2
15.125	81889.2
15.130	81895.2
15.135	81895.2
15.140	81901.2
15.145	81882.2
15.150	81882.2
15.155	81909.2
15.160	81911.2
15.165	81911.2
15.170	81910.2
15.175	81899.2
15.180	81910.2
15.185	81902.2
15.190	81899.2
15.195	81907.2
15.200	81915.2
15.205	81904.2
15.210	81882.2
15.215	81868.2
15.220	81898.2
15.225	81897.2
15.230	81894.2
15.235	81889.2
15.240	81895.2
15.245	81883.2
15.250	81884.2
15.255	81886.2
15.260	81902.2
15.265	81900.2
15.270	81890.2
15.275	81872.2
15.280	81856.2
15.285	81862.2
15.290	81887.2
15.295	81886.2
15.300	81887.2
15.305	81870.2
15.310	81877.2
15.315	81876.2
15.320	81875.2
15.325	81871.2
15.330	81874.2
15.335	81873.2
15.340	81859.2
15.345	81829.2
15.350	81827.2
15.355	81840.2
15.360	81846.2
15.365	81852.2
15.370	81850.2
15.375	81836.2
15.380	81837.2
15.385	81837.2
15.390	81844.2
15.395	81837.2
15.400	81841.2
15.405	81830.2
15.410	81810.2
15.415	81800.2
15.420	81827.2
15.425	81828.2
15.430	81825.2
15.435	81822.2
15.440	81829.2
15.445	81815.2
15.450	81810.2
15.455	81806.2
15.460	81799.2
15.465	81801.2
15.470	81811.2
15.475	81783.3
15.480	81784.2
15.485	81770.3
15.490	81795.2
15.495	81799.2
15.500	81791.2
15.505	81796.2
15.510	81792.2
15.515	81788.3
15.520	81788.3
15.525	81789.2
15.530	81787.2
15.535	81790.2
15.540	81786.2
15.545	81759.3
15.550	81756.3
15.555	81783.2
15.560	81798.2
15.565	81792.2
15.570	81790.2
15.575	81788.2
15.580	81795.2
15.585	81786.2
15.590	81788.2
15.595	81786.2
15.600	81798.2
15.605	81780.2
15.610	81759.3
15.615	81754.3
15.620	81785.2
15.625	81786.2
15.630	81795.2
15.635	81790.2
15.640	81791.2
15.645	81782.2
15.650	81791.2
15.655	81799.2
15.660	81804.2
15.665	81806.2
15.670	81811.2
15.675	81791.2
15.680	81780.2
15.685	81780.2
15.690	81808.2
15.695	81768.3
15.700	81403.5
15.705	81033.8
15.710	81318.6
15.715	81669.3
15.720	81779.2
15.725	81809.2
15.730	81820.2
15.735	81817.2
15.740	81802.2
15.745	81795.2
15.750	81803.2
15.755	81834.2
15.760	81841.2
15.765	81830.2
15.770	81837.2
15.775	81826.2
15.780	81824.2
15.785	81825.2
15.790	81835.2
15.795	81849.2
15.800	81854.2
15.805	81860.2
15.810	81828.2
15.815	81823.2
15.820	81844.2
15.825	81852.2
15.830	81856.2
15.835	81853.2
15.840	81857.2
15.845	81852.2
15.850	81865.2
15.855	81858.2
15.860	81868.2
15.865	81859.2
15.870	81866.2
15.875	81828.2
15.880	81833.2
15.885	81848.2
15.890	81878.2
15.895	81876.2
15.900	81869.2
15.905	81868.2
15.910	81872.2
15.915	81863.2
15.920	81867.2
15.925	81859.2
15.930	81872.2
15.935	81876.2
15.940	81866.2
15.945	81847.2
15.950	81857.2
15.955	81898.1
15.960	81897.1
15.965	81897.1
15.970	81908.1
15.975	81896.1
15.980	81893.1
15.985	81886.1
15.990	81886.1
15.995	81880.1
16.000	81876.1
16.005	81873.2
16.010	81855.2
16.015	81845.2
16.020	81873.2
16.025	81884.1
16.030	81886.1
16.035	81877.1
16.040	81877.1
16.045	81876.1
16.050	81883.1
16.055	81882.1
16.060	81877.1
16.065	81889.1
16.070	81904.1
16.075	81891.1
16.080	81854.2
16.085	81872.1
16.090	81885.1
16.095	81893.1
16.100	81890.1
16.105	81885.1
16.110	81889.1
16.115	81887.1
16.120	81889.1
16.125	81893.1
16.130	81882.1
16.135	81866.1
16.140	81853.2
16.145	81826.2
16.150	81843.2
16.155	81878.1
16.160	81881.1
16.165	81863.1
16.170	81863.1
16.175	81860.2
16.180	81867.1
16.185	81869.1
16.190	81868.1
16.195	81863.1
16.200	81865.1
16.205	81854.1
16.210	81850.2
16.215	81832.2
16.220	81868.1
16.225	81864.1
16.230	81865.1
16.235	81864.1
16.240	81864.1
16.245	81869.1
16.250	81871.1
16.255	81868.1
16.260	81873.1
16.265	81872.1
16.270	81873.1
16.275	81845.1
16.280	81832.2
16.285	81849.1
16.290	81866.1
16.295	81861.1
16.300	81864.1
16.305	81853.1
16.310	81863.1
16.315	81863.1
16.320	81863.1
16.325	81846.1
16.330	81855.1
16.335	81860.1
16.340	81845.1
16.345	81825.2
16.350	81823.2
16.355	81863.1
16.360	81865.1
16.365	81863.1
16.370	81852.1
16.375	81842.1
16.380	81844.1
16.385	81840.1
16.390	81841.1
16.395	81834.2
16.400	81840.1
16.405	81825.2
16.410	81801.2
16.415	81779.2
16.420	81829.2
16.425	81831.2
16.430	81839.1
16.435	81818.2
16.440	81829.2
16.445	81827.2
16.450	81834.1
16.455	81818.2
16.460	81816.2
16.465	81823.2
16.470	81828.1
16.475	81795.2
16.480	81775.2
16.485	81794.2
16.490	81821.2
16.495	81823.1
16.500	81817.2
16.505	81809.2
16.510	81810.2
16.515	81813.2
16.520	81811.2
16.525	81804.2
16.530	81816.2
16.535	81810.2
16.540	81793.2
16.545	81775.2
16.550	81787.2
16.555	81807.2
16.560	81806.2
16.565	81799.2
16.570	81800.2
16.575	81802.2
16.580	81811.2
16.585	81822.1
16.590	81828.1
16.595	81827.1
16.600	81829.1
16.605	81824.1
16.610	81818.1
16.615	81805.2
16.620	81837.1
16.625	81835.1
16.630	81848.1
16.635	81841.1
16.640	81850.1
16.645	81842.1
16.650	81854.1
16.655	81842.1
16.660	81844.1
16.665	81845.1
16.670	81836.1
16.675	81809.1
16.680	81811.1
16.685	81826.1
16.690	81848.1
16.695	81844.1
16.700	81832.1
16.705	81822.1
16.710	81825.1
16.715	81826.1
16.720	81843.1
16.725	81830.1
16.730	81842.1
16.735	81830.1
16.740	81812.1
16.745	81785.2
16.750	81793.2
16.755	81809.1
16.760	81820.1
16.765	81821.1
16.770	81814.1
16.775	81814.1
16.780	81814.1
16.785	81797.1
16.790	81803.1
16.795	81817.1
16.800	81798.1
16.805	81764.2
16.810	81755.2
16.815	81752.2
16.820	81784.2
16.825	81779.2
16.830	81767.2
16.835	81746.2
16.840	81745.2
16.845	81736.2
16.850	81746.2
16.855	81741.2
16.860	81732.2
16.865	81725.2
16.870	81724.2
16.875	81692.2
16.880	81675.2
16.885	81695.2
16.890	81710.2
16.895	81702.2
16.900	81690.2
16.905	81681.2
16.910	81677.2
16.915	81676.2
16.920	81674.2
16.925	81665.2
16.930	81668.2
16.935	81660.2
16.940	81628.3
16.945	81600.3
16.950	81590.3
16.955	81613.3
16.960	81604.3
16.965	81600.3
16.970	81586.3
16.975	81570.3
16.980	81566.3
16.985	81557.3
16.990	81568.3
16.995	81581.3
17.000	81581.3
17.005	81576.3
17.010	81552.3
17.015	81546.3
17.020	81575.3
17.025	81577.3
17.030	81580.3
17.035	81566.3
17.040	81563.3
17.045	81565.3
17.050	81572.3
17.055	81589.3
17.060	81598.3
17.065	81603.3
17.070	81593.3
17.075	81571.3
17.080	81572.3
17.085	81581.3
17.090	81590.3
17.095	81585.3
17.100	81600.3
17.105	81593.3
17.110	81606.3
17.115	81608.3
17.120	81620.2
17.125	81620.2
17.130	81632.2
17.135	81635.2
17.140	81634.2
17.145	81626.2
17.150	81627.2
17.155	81652.2
17.160	81668.2
17.165	81664.2
17.170	81666.2
17.175	81659.2
17.180	81656.2
17.185	81637.2
17.190	81655.2
17.195	81657.2
17.200	81659.2
17.205	81633.2
17.210	81633.2
17.215	81642.2
17.220	81678.2
17.225	81679.2
17.230	81671.2
17.235	81654.2
17.240	81659.2
17.245	81660.2
17.250	81664.2
17.255	81663.2
17.260	81681.2
17.265	81682.2
17.270	81686.2
17.275	81668.2
17.280	81661.2
17.285	81670.2
17.290	81689.2
17.295	81697.2
17.300	81696.2
17.305	81694.2
17.310	81685.2
17.315	81672.2
17.320	81676.2
17.325	81691.2
17.330	81689.2
17.335	81684.2
17.340	81655.2
17.345	81637.2
17.350	81637.2
17.355	81677.2
17.360	81669.2
17.365	81668.2
17.370	81676.2
17.375	81677.2
17.380	81669.2
17.385	81661.2
17.390	81671.2
17.395	81679.2
17.400	81693.2
17.405	81667.2
17.410	81637.2
17.415	81637.2
17.420	81675.2
17.425	81661.2
17.430	81664.2
17.435	81657.2
17.440	81656.2
17.445	81659.2
17.450	81669.2
17.455	81670.2
17.460	81654.2
17.465	81645.2
17.470	81643.2
17.475	81628.2
17.480	81615.2
17.485	81636.2
17.490	81654.2
17.495	81649.2
17.500	81654.2
17.505	81659.2
17.510	81654.2
17.515	81663.2
17.520	81673.2
17.525	81669.2
17.530	81676.2
17.535	81674.2
17.540	81661.2
17.545	81642.2
17.550	81660.2
17.555	81686.2
17.560	81695.2
17.565	81695.1
17.570	81698.1
17.575	81680.2
17.580	81688.2
17.585	81690.2
17.590	81695.1
17.595	81691.2
17.600	81699.1
17.605	81684.2
17.610	81663.2
17.615	81654.2
17.620	81688.2
17.625	81685.1
17.630	81684.2
17.635	81675.2
17.640	81675.2
17.645	81665.2
17.650	81664.2
17.655	81669.2
17.660	81678.2
17.665	81681.1
17.670	81679.2
17.675	81656.2
17.680	81636.2
17.685	81662.2
17.690	81693.1
17.695	81695.1
17.700	81693.1
17.705	81681.1
17.710	81691.1
17.715	81688.1
17.720	81692.1
17.725	81699.1
17.730	81698.1
17.735	81679.1
17.740	81657.2
17.745	81651.2
17.750	81667.1
17.755	81699.1
17.760	81696.1
17.765	81702.1
17.770	81704.1
17.775	81700.1
17.780	81715.1
17.785	81710.1
17.790	81717.1
17.795	81703.1
17.800	81729.1
17.805	81719.1
17.810	81709.1
17.815	81711.1
17.820	81743.1
17.825	81733.1
17.830	81746.1
17.835	81754.1
17.840	81759.1
17.845	81759.1
17.850	81745.1
17.855	81760.1
17.860	81773.1
17.865	81777.1
17.870	81776.1
17.875	81745.1
17.880	81724.1
17.885	81772.1
17.890	81789.0
17.895	81801.0
17.900	81802.0
17.905	81797.0
17.910	81805.0
17.915	81815.0
17.920	81834.0
17.925	81830.0
17.930	81834.0
17.935	81838.0
17.940	81831.0
17.945	81818.0
17.950	81833.0
17.955	81855.0
17.960	81865.0
17.965	81865.0
17.970	81875.0
17.975	81884.0
17.980	81890.0
17.985	81891.0
17.990	81888.0
17.995	81881.0
18.000	81892.9
18.005	81879.0
18.010	81859.0
18.015	81857.0
18.020	81891.9
18.025	81885.0
18.030	81886.9
18.035	81886.9
18.040	81877.0
18.045	81864.0
18.050	81862.0
18.055	81873.0
18.060	81879.0
18.065	81870.0
18.070	81854.0
18.075	81831.0
18.080	81833.0
18.085	81870.0
18.090	81875.9
18.095	81873.9
18.100	81868.9
18.105	81847.0
18.110	81850.0
18.115	81853.0
18.120	81852.0
18.125	81828.0
18.130	81832.0
18.135	81839.0
18.140	81801.0
18.145	81804.0
18.150	81814.0
18.155	81822.0
18.160	81814.0
18.165	81830.0
18.170	81828.0
18.175	81812.0
18.180	81802.0
18.185	81799.0
18.190	81818.0
18.195	81824.0
18.200	81836.0
18.205	81824.0
18.210	81793.0
18.215	81784.0
18.220	81829.0
18.225	81836.0
18.230	81854.9
18.235	81846.0
18.240	81832.0
18.245	81813.0
18.250	81818.0
18.255	81818.0
18.260	81830.0
18.265	81833.0
18.270	81814.0
18.275	81772.0
18.280	81758.0
18.285	81798.0
18.290	81808.0
18.295	81811.0
18.300	81804.0
18.305	81787.0
18.310	81784.0
18.315	81792.0
18.320	81788.0
18.325	81787.0
18.330	81800.0
18.335	81780.0
18.340	81759.0
18.345	81742.0
18.350	81764.0
18.355	81790.0
18.360	81787.0
18.365	81783.0
18.370	81786.0
18.375	81772.0
18.380	81770.0
18.385	81770.0
18.390	81779.0
18.395	81793.0
18.400	81792.0
18.405	81758.0
18.410	81748.0
18.415	81734.0
18.420	81772.0
18.425	81768.0
18.430	81771.0
18.435	81772.0
18.440	81779.0
18.445	81770.0
18.450	81783.0
18.455	81775.0
18.460	81789.0
18.465	81772.0
18.470	81779.0
18.475	81745.0
18.480	81736.0
18.485	81756.0
18.490	81775.0
18.495	81776.0
18.500	81774.0
18.505	81764.0
18.510	81762.0
18.515	81746.0
18.520	81754.0
18.525	81737.0
18.530	81752.0
18.535	81746.0
18.540	81709.0
18.545	81692.0
18.550	81712.0
18.555	81719.0
18.560	81709.0
18.565	81718.0
18.570	81713.0
18.575	81694.0
18.580	81677.0
18.585	81672.0
18.590	81674.0
18.595	81688.0
18.600	81681.0
18.605	81655.0
18.610	81630.1
18.615	81627.1
18.620	81656.0
18.625	81656.0
18.630	81660.0
18.635	81643.0
18.640	81632.1
18.645	81621.1
18.650	81642.0
18.655	81642.0
18.660	81634.0
18.665	81622.1
18.670	81607.1
18.675	81589.1
18.680	81598.1
18.685	81624.0
18.690	81631.0
18.695	81605.1
18.700	81618.1
18.705	81613.1
18.710	81624.0
18.715	81621.0
18.720	81624.0
18.725	81605.1
18.730	81610.1
18.735	81600.1
18.740	81573.1
18.745	81568.1
18.750	81581.1
18.755	81606.0
18.760	81613.0
18.765	81602.1
18.770	81600.1
18.775	81574.1
18.780	81576.1
18.785	81573.1
18.790	81569.1
18.795	81576.1
18.800	81581.1
18.805	81569.1
18.810	81547.1
18.815	81547.1
18.820	81561.1
18.825	81564.1
18.830	81575.1
18.835	81582.1
18.840	81570.1
18.845	81574.1
18.850	81564.1
18.855	81555.1
18.860	81568.1
18.865	81578.1
18.870	81567.1
18.875	81557.1
18.880	81544.1
18.885	81562.1
18.890	81567.1
18.895	81555.1
18.900	81544.1
18.905	81530.1
18.910	81542.1
18.915	81541.1
18.920	81542.1
18.925	81543.1
18.930	81526.1
18.935	81528.1
18.940	81503.1
18.945	81493.1
18.950	81493.1
18.955	81486.1
18.960	81464.1
18.965	81451.1
18.970	81450.1
18.975	81463.1
18.980	81435.1
18.985	81397.2
18.990	81392.2
18.995	81401.2
19.000	81418.1
19.005	81375.2
19.010	81349.2
19.015	81331.2
19.020	81398.2
19.025	81437.1
19.030	81447.1
19.035	81428.1
19.040	81418.1
19.045	81419.1
19.050	81416.1
19.055	81410.1
19.060	81403.2
19.065	81408.1
19.070	81420.1
19.075	81425.1
19.080	81454.1
19.085	81507.1
19.090	81524.0
19.095	81529.0
19.100	81529.0
19.105	81518.1
19.110	81516.1
19.115	81517.0
19.120	81521.0
19.125	81534.0
19.130	81543.0
19.135	81561.0
19.140	81540.0
19.145	81530.0
19.150	81546.0
19.155	81554.0
19.160	81568.0
19.165	81559.0
19.170	81568.0
19.175	81562.0
19.180	81562.0
19.185	81557.0
19.190	81578.0
19.195	81575.0
19.200	81567.0
19.205	81541.0
19.210	81528.0
19.215	81522.0
19.220	81553.0
19.225	81556.0
19.230	81542.0
19.235	81530.0
19.240	81534.0
19.245	81542.0
19.250	81553.0
19.255	81561.0
19.260	81556.0
19.265	81542.0
19.270	81530.0
19.275	81495.0
19.280	81491.0
19.285	81499.0
19.290	81499.0
19.295	81482.0
19.300	81465.0
19.305	81439.1
19.310	81421.1
19.315	81387.1
19.320	81389.1
19.325	81380.1
19.330	81359.1
19.335	81343.1
19.340	81310.2
19.345	81288.2
19.350	81329.1
19.355	81340.1
19.360	81341.1
19.365	81345.1
19.370	81344.1
19.375	81356.1
19.380	81356.1
19.385	81340.1
19.390	81356.1
19.395	81349.1
19.400	81374.1
19.405	81363.1
19.410	81361.1
19.415	81383.1
19.420	81427.0
19.425	81411.1
19.430	81414.0
19.435	81422.0
19.440	81444.0
19.445	81465.0
19.450	81482.0
19.455	81482.0
19.460	81494.0
19.465	81491.0
19.470	81485.0
19.475	81460.0
19.480	81466.0
19.485	81507.0
19.490	81509.0
19.495	81495.0
19.500	81497.0
19.505	81484.0
19.510	81490.0
19.515	81499.0
19.520	81504.0
19.525	81511.9
19.530	81523.9
19.535	81534.9
19.540	81505.9
19.545	81489.0
19.550	81509.9
19.555	81521.9
19.560	81521.9
19.565	81521.9
19.570	81529.9
19.575	81502.9
19.580	81508.9
19.585	81512.9
19.590	81504.9
19.595	81481.9
19.600	81485.9
19.605	81439.0
19.610	81420.0
19.615	81417.0
19.620	81437.0
19.625	81420.0
19.630	81419.0
19.635	81418.0
19.640	81421.0
19.645	81416.0
19.650	81423.0
19.655	81416.0
19.660	81404.0
19.665	81403.0
19.670	81391.0
19.675	81344.0
19.680	81341.0
19.685	81360.0
19.690	81369.0
19.695	81378.0
19.700	81380.0
19.705	81362.0
19.710	81356.0
19.715	81337.0
19.720	81346.0
19.725	81368.0
19.730	81366.0
19.735	81364.0
19.740	81353.0
19.745	81326.0
19.750	81320.0
19.755	81312.0
19.760	81314.0
19.765	81284.0
19.770	81275.1
19.775	81281.0
19.780	81281.0
19.785	81255.1
19.790	81244.1
19.795	81248.1
19.800	81247.1
19.805	81222.1
19.810	81190.1
19.815	81186.1
19.820	81194.1
19.825	81194.1
19.830	81215.1
19.835	81219.1
19.840	81223.1
19.845	81201.1
19.850	81187.1
19.855	81200.1
19.860	81221.1
19.865	81217.1
19.870	81186.1
19.875	81134.1
19.880	81106.1
19.885	81130.1
19.890	81139.1
19.895	81128.1
19.900	81127.1
19.905	81128.1
19.910	81115.1
19.915	81089.1
19.920	81082.1
19.925	81091.1
19.930	81091.1
19.935	81096.1
19.940	81065.1
19.945	81049.2
19.950	81062.1
19.955	81087.1
19.960	81107.1
19.965	81127.1
19.970	81151.1
19.975	81154.1
19.980	81174.0
19.985	81185.0
19.990	81210.0
19.995	81219.0
20.000	81239.0
20.005	81228.0
20.010	81230.0
20.015	81268.0
20.020	81310.9
20.025	81306.9
20.030	81318.9
20.035	81311.9
20.040	81313.9
20.045	81319.9
20.050	81321.9
20.055	81331.9
20.060	81341.9
20.065	81351.9
20.070	81351.9
20.075	81332.9
20.080	81328.9
20.085	81367.8
20.090	81377.8
20.095	81370.8
20.100	81374.8
20.105	81359.8
20.110	81370.8
20.115	81353.8
20.120	81361.8
20.125	81341.8
20.130	81348.8
20.135	81345.8
20.140	81313.9
20.145	81290.9
20.150	81321.8
20.155	81313.8
20.160	81298.9
20.165	81283.9
20.170	81279.9
20.175	81271.9
20.180	81276.9
20.185	81265.9
20.190	81274.9
20.195	81278.9
20.200	81286.8
20.205	81263.9
20.210	81243.9
20.215	81223.9
20.220	81247.9
20.225	81245.9
20.230	81255.9
20.235	81255.9
20.240	81245.9
20.245	81227.9
20.250	81211.9
20.255	81196.9
20.260	81200.9
20.265	81183.9
20.270	81158.9
20.275	81128.9
20.280	81122.9
20.285	81118.9
20.290	81110.9
20.295	81090.9
20.300	81094.9
20.305	81065.0
20.310	81035.0
20.315	80992.0
20.320	80984.0
20.325	80988.0
20.330	80985.0
20.335	80969.0
20.340	80921.0
20.345	80906.1
20.350	80952.0
20.355	80974.0
20.360	80986.0
20.365	80992.0
20.370	80992.0
20.375	80993.0
20.380	80996.0
20.385	80978.0
20.390	80999.0
20.395	80988.0
20.400	80960.0
20.405	80924.0
20.410	80910.0
20.415	80909.0
20.420	80913.0
20.425	80897.0
20.430	80906.0
20.435	80900.0
20.440	80875.0
20.445	80832.0
20.450	80785.1
20.455	80730.1
20.460	80697.1
20.465	80678.1
20.470	80648.2
20.475	80599.2
20.480	80578.2
20.485	80569.2
20.490	80569.2
20.495	80565.2
20.500	80591.2
20.505	80588.2
20.510	80590.2
20.515	80593.2
20.520	80601.2
20.525	80612.1
20.530	80631.1
20.535	80635.1
20.540	80637.1
20.545	80652.1
20.550	80714.0
20.555	80711.0
20.560	80705.0
20.565	80685.0
20.570	80671.1
20.575	80661.1
20.580	80656.1
20.585	80609.1
20.590	80592.1
20.595	80618.1
20.600	80633.1
20.605	80609.1
20.610	80553.1
20.615	80548.1
20.620	80538.1
20.625	80476.2
20.630	80405.2
20.635	80360.2
20.640	80296.3
20.645	80251.3
20.650	80230.3
20.655	80225.3
20.660	80203.3
20.665	80194.3
20.670	80173.4
20.675	80122.4
20.680	80096.4
20.685	80094.4
20.690	80069.4
20.695	80086.4
20.700	80131.3
20.705	80158.3
20.710	80187.3
20.715	80202.3
20.720	80223.3
20.725	80240.2
20.730	80261.2
20.735	80263.2
20.740	80225.2
20.745	80182.2
20.750	80153.3
20.755	80120.3
20.760	80073.3
20.765	80015.3
20.770	79959.4
20.775	79922.4
20.780	79853.5
20.785	79803.5
20.790	79726.5
20.795	79654.6
20.800	79655.6
20.805	79640.6
20.810	79626.6
20.815	79661.6
20.820	79654.6
20.825	79585.6
20.830	79515.6
20.835	79404.7
20.840	79358.8
20.845	79391.7
20.850	79428.7
20.855	79450.7
20.860	79510.6
20.865	79544.6
20.870	79541.6
20.875	79550.5
20.880	79571.5
20.885	79615.5
20.890	79629.4
20.895	79650.4
20.900	79637.4
20.905	79640.4
20.910	79652.4
20.915	79672.4
20.920	79705.3
20.925	79704.3
20.930	79671.3
20.935	79631.4
20.940	79614.4
20.945	79592.4
20.950	79598.3
20.955	79574.4
20.960	79488.4
20.965	79391.5
20.970	79300.5
20.975	79177.6
20.980	79039.7
20.985	78933.8
20.990	78863.8
20.995	78791.9
21.000	78754.9
21.005	78737.9
21.010	78753.9
21.015	78814.8
21.020	78945.7
21.025	79104.6
21.030	79237.4
21.035	79314.4
21.040	79298.4
21.045	79264.4
21.050	79167.4
21.055	79021.5
21.060	78803.7
21.065	78621.8
21.070	78469.9
21.075	78416.0
21.080	78493.9
21.085	78754.7
21.090	78957.5
21.095	79039.4
21.100	79125.3
21.105	79303.2
21.110	79580.9
21.115	79740.8
21.120	79790.7
21.125	79787.7
21.130	79683.8
21.135	79529.9
21.140	79361.0
21.145	79355.0
21.150	79469.8
21.155	79582.7
21.160	79702.6
21.165	79738.5
21.170	79622.6
21.175	79403.8
21.180	79306.8
21.185	79289.8
21.190	79297.8
21.195	79251.8
21.200	79039.9
21.205	78601.2
21.210	78242.5
21.215	77747.8
21.220	76875.5
21.225	76313.9
21.230	76474.7
21.235	76616.6
21.240	76594.6
21.245	77083.2
21.250	78306.1
21.255	78876.6
21.260	78514.9
21.265	78306.0
21.270	78352.9
21.275	78256.9
21.280	78078.0
21.285	78180.8
21.290	78354.6
21.295	77860.0
21.300	76149.3
21.305	74203.7
21.310	73880.9
21.315	74497.3
21.320	74242.4
21.325	73292.2
21.330	73767.7
21.335	76298.4
21.340	77604.4
21.345	77187.6
21.350	76580.0
21.355	76199.2
21.360	75857.3
21.365	75468.6
21.370	74992.0
21.375	74605.3
21.380	74596.4
21.385	74907.2
21.390	75146.1
21.395	75235.3
21.400	75315.5
21.405	75592.6
21.410	76174.6
21.415	76998.3
21.420	77861.0
21.425	78666.8
21.430	79479.7
21.435	80346.5
21.440	81176.3
21.445	81848.2
21.450	82367.0
21.455	82699.9
21.460	82895.8
21.465	82994.8
21.470	83032.7
21.475	83033.8
21.480	83054.8
21.485	83088.7
21.490	83094.7
21.495	83089.7
21.500	83096.7
21.505	83097.7
21.510	83098.7
21.515	83098.7
21.520	83104.7
21.525	83101.7
21.530	83117.7
21.535	83104.7
21.540	83088.7
21.545	83082.7
21.550	83110.7
21.555	83107.7
21.560	83114.7
21.565	83116.7
21.570	83117.7
21.575	83114.7
21.580	83108.7
21.585	83112.7
21.590	83109.7
21.595	83110.7
21.600	83122.7
21.605	83074.7
21.610	83069.8
21.615	83099.7
21.620	83119.7
21.625	83108.7
21.630	83112.7
21.635	83109.7
21.640	83112.7
21.645	83106.7
21.650	83114.7
21.655	83112.7
21.660	83129.7
21.665	83121.7
21.670	83107.7
21.675	83082.7
21.680	83096.7
21.685	83125.7
21.690	83121.7
21.695	83124.7
21.700	83133.7
21.705	83128.7
21.710	83120.7
21.715	83117.7
21.720	83130.7
21.725	83118.7
21.730	83124.7
21.735	83114.7
21.740	83091.7
21.745	83077.7
21.750	83123.7
21.755	83125.7
21.760	83123.7
21.765	83116.7
21.770	83123.7
21.775	83111.7
21.780	83113.7
21.785	83114.7
21.790	83129.7
21.795	83128.7
21.800	83128.7
21.805	83103.7
21.810	83084.7
21.815	83110.7
21.820	83137.7
21.825	83123.7
21.830	83127.7
21.835	83132.7
21.840	83133.7
21.845	83128.7
21.850	83131.7
21.855	83128.7
21.860	83133.7
21.865	83130.7
21.870	83102.7
21.875	83088.7
21.880	83105.7
21.885	83128.7
21.890	83121.7
21.895	83126.7
21.900	83120.7
21.905	83118.7
21.910	83129.7
21.915	83120.7
21.920	83126.7
21.925	83124.7
21.930	83128.7
21.935	83124.7
21.940	83100.7
21.945	83094.7
21.950	83132.7
21.955	83135.7
21.960	83128.7
21.965	83135.7
21.970	83132.7
21.975	83132.7
21.980	83126.7
21.985	83130.7
21.990	83131.7
21.995	83133.7
22.000	83133.7
22.005	83100.7
22.010	83093.7
22.015	83117.7
22.020	83137.7
22.025	83129.7
22.030	83126.7
22.035	83129.7
22.040	83128.7
22.045	83115.7
22.050	83124.7
22.055	83130.7
22.060	83143.7
22.065	83134.7
22.070	83110.7
22.075	83092.7
22.080	83107.7
22.085	83136.7
22.090	83140.7
22.095	83137.7
22.100	83136.7
22.105	83130.7
22.110	83128.7
22.115	83136.7
22.120	83143.7
22.125	83137.7
22.130	83143.7
22.135	83119.7
22.140	83090.7
22.145	83098.7
22.150	83141.7
22.155	83134.7
22.160	83138.7
22.165	83124.7
22.170	83124.7
22.175	83122.7
22.180	83133.7
22.185	83129.7
22.190	83137.7
22.195	83136.7
22.200	83145.7
22.205	83116.7
22.210	83099.7
22.215	83118.7
22.220	83136.7
22.225	83133.7
22.230	83137.7
22.235	83138.7
22.240	83135.7
22.245	83129.7
22.250	83141.7
22.255	83129.7
22.260	83136.7
22.265	83137.7
22.270	83115.7
22.275	83093.7
22.280	83117.7
22.285	83132.7
22.290	83127.7
22.295	83132.7
22.300	83125.7
22.305	83124.7
22.310	83133.7
22.315	83122.7
22.320	83127.7
22.325	83138.7
22.330	83148.7
22.335	83128.7
22.340	83109.7
22.345	83108.7
22.350	83141.7
22.355	83138.7
22.360	83147.7
22.365	83158.7
22.370	83146.7
22.375	83141.7
22.380	83141.7
22.385	83136.7
22.390	83137.7
22.395	83133.7
22.400	83134.7
22.405	83105.7
22.410	83097.7
22.415	83127.7
22.420	83143.7
22.425	83135.7
22.430	83141.7
22.435	83130.7
22.440	83133.7
22.445	83122.7
22.450	83130.7
22.455	83133.7
22.460	83139.7
22.465	83143.7
22.470	83132.7
22.475	83103.7
22.480	83120.7
22.485	83141.7
22.490	83144.7
22.495	83148.7
22.500	83144.7
22.505	83144.7
22.510	83143.7
22.515	83136.7
22.520	83143.7
22.525	83139.7
22.530	83143.7
22.535	83125.7
22.540	83113.7
22.545	83104.7
22.550	83140.7
22.555	83132.7
22.560	83136.7
22.565	83131.7
22.570	83137.7
22.575	83132.7
22.580	83135.7
22.585	83136.7
22.590	83145.7
22.595	83142.7
22.600	83145.7
22.605	83119.7
22.610	83103.7
22.615	83136.7
22.620	83149.7
22.625	83137.7
22.630	83147.7
22.635	83151.7
22.640	83150.7
22.645	83138.7
22.650	83143.7
22.655	83139.7
22.660	83144.7
22.665	83138.7
22.670	83121.7
22.675	83108.7
22.680	83127.7
22.685	83139.7
22.690	83138.7
22.695	83139.7
22.700	83147.7
22.705	83137.7
22.710	83139.7
22.715	83130.7
22.720	83132.7
22.725	83132.7
22.730	83153.7
22.735	83133.7
22.740	83118.7
22.745	83113.7
22.750	83149.7
22.755	83146.7
22.760	83150.7
22.765	83154.7
22.770	83143.7
22.775	83146.7
22.780	83145.7
22.785	83141.7
22.790	83156.7
22.795	83141.7
22.800	83140.7
22.805	83111.7
22.810	83105.7
22.815	83136.7
22.820	83150.7
22.825	83149.7
22.830	83143.7
22.835	83130.7
22.840	83145.7
22.845	83136.7
22.850	83141.7
22.855	83141.7
22.860	83153.7
22.865	83154.7
22.870	83129.7
22.875	83110.7
22.880	83130.7
22.885	83144.7
22.890	83156.7
22.895	83158.7
22.900	83155.7
22.905	83147.7
22.910	83146.7
22.915	83139.7
22.920	83143.7
22.925	83144.7
22.930	83148.7
22.935	83131.7
22.940	83108.7
22.945	83116.7
22.950	83149.7
22.955	83146.7
22.960	83141.7
22.965	83140.7
22.970	83137.7
22.975	83140.7
22.980	83133.7
22.985	83135.7
22.990	83142.7
22.995	83152.7
23.000	83155.7
23.005	83128.7
23.010	83112.7
23.015	83140.7
23.020	83149.7
23.025	83150.7
23.030	83154.7
23.035	83151.7
23.040	83136.7
23.045	83143.7
23.050	83146.7
23.055	83140.7
23.060	83138.7
23.065	83149.7
23.070	83126.7
23.075	83102.7
23.080	83122.7
23.085	83144.7
23.090	83143.7
23.095	83135.7
23.100	83141.7
23.105	83133.7
23.110	83134.7
23.115	83131.7
23.120	83141.7
23.125	83148.7
23.130	83155.7
23.135	83131.7
23.140	83108.7
23.145	83108.7
23.150	83148.7
23.155	83148.7
23.160	83152.7
23.165	83143.7
23.170	83144.7
23.175	83138.7
23.180	83134.7
23.185	83140.7
23.190	83144.7
23.195	83140.7
23.200	83139.7
23.205	83109.7
23.210	83108.7
23.215	83124.7
23.220	83141.7
23.225	83136.7
23.230	83145.7
23.235	83132.7
23.240	83138.7
23.245	83131.7
23.250	83132.7
23.255	83136.7
23.260	83141.7
23.265	83154.7
23.270	83134.7
23.275	83100.7
23.280	83116.7
23.285	83138.7
23.290	83148.7
23.295	83139.7
23.300	83143.7
23.305	83141.7
23.310	83138.7
23.315	83138.7
23.320	83143.7
23.325	83140.7
23.330	83147.7
23.335	83120.7
23.340	83109.7
23.345	83110.7
23.350	83142.7
23.355	83137.7
23.360	83136.7
23.365	83134.7
23.370	83131.7
23.375	83124.7
23.380	83140.7
23.385	83133.7
23.390	83134.7
23.395	83149.7
23.400	83144.7
23.405	83103.7
23.410	83112.7
23.415	83124.7
23.420	83145.7
23.425	83138.7
23.430	83142.7
23.435	83149.7
23.440	83141.7
23.445	83138.7
23.450	83138.7
23.455	83135.7
23.460	83145.7
23.465	83136.7
23.470	83113.7
23.475	83097.7
23.480	83122.7
23.485	83142.7
23.490	83139.7
23.495	83135.7
23.500	83138.7
23.505	83126.7
23.510	83132.7
23.515	83136.7
23.520	83141.7
23.525	83142.7
23.530	83150.7
23.535	83140.7
23.540	83109.7
23.545	83112.7
23.550	83140.7
23.555	83146.7
23.560	83146.7
23.565	83149.7
23.570	83143.7
23.575	83144.7
23.580	83142.7
23.585	83137.7
23.590	83150.7
23.595	83140.7
23.600	83132.7
23.605	83097.7
23.610	83103.7
23.615	83139.7
23.620	83139.7
23.625	83139.7
23.630	83141.7
23.635	83132.7
23.640	83135.7
23.645	83126.7
23.650	83138.7
23.655	83134.7
23.660	83146.7
23.665	83142.7
23.670	83135.7
23.675	83098.7
23.680	83129.7
23.685	83144.7
23.690	83152.7
23.695	83151.7
23.700	83156.7
23.705	83143.7
23.710	83147.7
23.715	83139.7
23.720	83137.7
23.725	83139.7
23.730	83143.7
23.735	83110.7
23.740	83103.7
23.745	83107.7
23.750	83144.7
23.755	83141.7
23.760	83139.7
23.765	83137.7
23.770	83131.7
23.775	83124.7
23.780	83128.7
23.785	83131.7
23.790	83142.7
23.795	83143.7
23.800	83144.7
23.805	83118.7
23.810	83111.7
23.815	83138.7
23.820	83143.7
23.825	83146.7
23.830	83136.7
23.835	83147.7
23.840	83143.7
23.845	83140.7
23.850	83139.7
23.855	83142.7
23.860	83139.7
23.865	83133.7
23.870	83103.7
23.875	83103.7
23.880	83118.7
23.885	83130.7
23.890	83143.7
23.895	83136.7
23.900	83134.7
23.905	83130.7
23.910	83132.7
23.915	83123.7
23.920	83127.7
23.925	83137.7
23.930	83145.7
23.935	83122.7
23.940	83108.7
23.945	83109.7
23.950	83133.7
23.955	83135.7
23.960	83139.7
23.965	83133.7
23.970	83143.7
23.975	83135.7
23.980	83133.7
23.985	83134.7
23.990	83134.7
23.995	83140.7
24.000	83126.7
24.005	83096.7
24.010	83094.7
24.015	83122.7
24.020	83132.7
24.025	83129.7
24.030	83125.7
24.035	83133.7
24.040	83134.7
24.045	83127.7
24.050	83136.7
24.055	83126.7
24.060	83137.7
24.065	83135.7
24.070	83125.7
24.075	83109.7
24.080	83126.7
24.085	83134.7
24.090	83141.7
24.095	83145.7
24.100	83137.7
24.105	83141.7
24.110	83130.7
24.115	83117.7
24.120	83134.7
24.125	83135.7
24.130	83139.7
24.135	83105.7
24.140	83096.7
24.145	83102.7
24.150	83126.7
24.155	83127.7
24.160	83125.7
24.165	83134.7
24.170	83137.7
24.175	83127.7
24.180	83134.7
24.185	83125.7
24.190	83119.7
24.195	83131.7
24.200	83130.7
24.205	83104.7
24.210	83103.7
24.215	83125.7
24.220	83130.7
24.225	83135.7
24.230	83135.7
24.235	83132.7
24.240	83134.7
24.245	83129.7
24.250	83124.7
24.255	83129.7
24.260	83127.7
24.265	83132.7
24.270	83101.7
24.275	83082.7
24.280	83114.7
24.285	83120.7
24.290	83128.7
24.295	83126.7
24.300	83126.7
24.305	83125.7
24.310	83124.7
24.315	83119.7
24.320	83129.7
24.325	83128.7
24.330	83139.7
24.335	83118.7
24.340	83096.7
24.345	83098.7
24.350	83138.7
24.355	83128.7
24.360	83142.7
24.365	83128.7
24.370	83134.7
24.375	83127.7
24.380	83126.7
24.385	83127.7
24.390	83132.7
24.395	83128.7
24.400	83113.7
24.405	83094.7
24.410	83087.7
24.415	83117.7
24.420	83122.7
24.425	83122.7
24.430	83125.7
24.435	83120.7
24.440	83124.7
24.445	83118.7
24.450	83123.7
24.455	83122.7
24.460	83126.7
24.465	83123.7
24.470	83111.7
24.475	83085.7
24.480	83118.7
24.485	83128.7
24.490	83133.7
24.495	83134.7
24.500	83139.7
24.505	83128.7
24.510	83125.7
24.515	83128.7
24.520	83130.7
24.525	83129.7
24.530	83131.7
24.535	83105.7
24.540	83088.7
24.545	83097.7
24.550	83125.7
24.555	83116.7
24.560	83123.7
24.565	83117.7
24.570	83128.7
24.575	83125.7
24.580	83124.7
24.585	83118.7
24.590	83124.7
24.595	83124.7
24.600	83124.7
24.605	83100.7
24.610	83095.7
24.615	83123.7
24.620	83134.7
24.625	83127.7
24.630	83128.7
24.635	83131.7
24.640	83125.7
24.645	83127.7
24.650	83129.7
24.655	83121.7
24.660	83124.7
24.665	83120.7
24.670	83099.7
24.675	83085.7
24.680	83120.7
24.685	83120.7
24.690	83116.7
24.695	83118.7
24.700	83115.7
24.705	83119.7
24.710	83117.7
24.715	83124.7
24.720	83131.7
24.725	83120.7
24.730	83128.7
24.735	83108.7
24.740	83092.7
24.745	83103.7
24.750	83131.7
24.755	83130.7
24.760	83145.7
24.765	83130.7
24.770	83128.7
24.775	83127.7
24.780	83118.7
24.785	83126.7
24.790	83136.7
24.795	83132.7
24.800	83113.7
24.805	83095.7
24.810	83096.7
24.815	83130.7
24.820	83132.7
24.825	83122.7
24.830	83128.7
24.835	83117.7
24.840	83121.7
24.845	83126.7
24.850	83131.7
24.855	83127.7
24.860	83137.7
24.865	83138.7
24.870	83106.7
24.875	83094.7
24.880	83115.7
24.885	83132.7
24.890	83143.7
24.895	83142.7
24.900	83140.7
24.905	83139.7
24.910	83127.7
24.915	83124.7
24.920	83126.7
24.925	83131.7
24.930	83132.7
24.935	83098.7
24.940	83093.7
24.945	83108.7
24.950	83130.7
24.955	83134.7
24.960	83126.7
24.965	83126.7
24.970	83118.7
24.975	83121.7
24.980	83125.7
24.985	83125.7
24.990	83128.7
24.995	83130.7
25.000	83121.7
25.005	83100.7
25.010	83103.7
25.015	83130.7
25.020	83133.7
25.025	83137.7
25.030	83143.7
25.035	83142.7
25.040	83137.7
25.045	83137.7
25.050	83133.7
25.055	83137.7
25.060	83127.7
25.065	83111.7
25.070	83100.7
25.075	83090.7
25.080	83120.7
25.085	83130.7
25.090	83128.7
25.095	83123.7
25.100	83122.7
25.105	83123.7
25.110	83121.7
25.115	83122.7
25.120	83131.7
25.125	83133.7
25.130	83141.7
25.135	83114.7
25.140	83098.7
25.145	83105.7
25.150	83131.7
25.155	83129.7
25.160	83138.7
25.165	83137.7
25.170	83146.7
25.175	83133.7
25.180	83132.7
25.185	83123.7
25.190	83128.7
25.195	83127.7
25.200	83110.7
25.205	83091.7
25.210	83102.7
25.215	83131.7
25.220	83134.7
25.225	83131.7
25.230	83135.7
25.235	83124.7
25.240	83127.7
25.245	83124.7
25.250	83132.7
25.255	83127.7
25.260	83138.7
25.265	83131.7
25.270	83111.7
25.275	83097.7
25.280	83125.7
25.285	83123.7
25.290	83142.7
25.295	83138.7
25.300	83133.7
25.305	83132.7
25.310	83130.7
25.315	83135.7
25.320	83134.7
25.325	83124.7
25.330	83121.7
25.335	83102.7
25.340	83080.7
25.345	83121.7
25.350	83139.7
25.355	83139.7
25.360	83127.7
25.365	83127.7
25.370	83120.7
25.375	83120.7
25.380	83129.7
25.385	83125.7
25.390	83133.7
25.395	83130.7
25.400	83122.7
25.405	83099.7
25.410	83112.7
25.415	83130.7
25.420	83138.7
25.425	83137.7
25.430	83144.7
25.435	83140.7
25.440	83139.7
25.445	83134.7
25.450	83133.7
25.455	83124.7
25.460	83131.7
25.465	83121.7
25.470	83097.7
25.475	83095.7
25.480	83128.7
25.485	83137.7
25.490	83136.7
25.495	83128.7
25.500	83130.7
25.505	83127.7
25.510	83126.7
25.515	83128.7
25.520	83133.7
25.525	83127.7
25.530	83142.7
25.535	83119.7
25.540	83108.7
25.545	83118.7
25.550	83138.7
25.555	83133.7
25.560	83143.7
25.565	83136.7
25.570	83138.7
25.575	83130.7
25.580	83135.7
25.585	83130.7
25.590	83139.7
25.595	83128.7
25.600	83111.7
25.605	83092.7
25.610	83101.7
25.615	83130.7
25.620	83135.7
25.625	83132.7
25.630	83130.7
25.635	83131.7
25.640	83128.7
25.645	83126.7
25.650	83123.7
25.655	83128.7
25.660	83147.7
25.665	83129.7
25.670	83114.7
25.675	83099.7
25.680	83131.7
25.685	83137.7
25.690	83149.7
25.695	83140.7
25.700	83134.7
25.705	83137.7
25.710	83136.7
25.715	83140.7
25.720	83143.7
25.725	83138.7
25.730	83133.7
25.735	83109.7
25.740	83099.7
25.745	83111.7
25.750	83137.7
25.755	83138.7
25.760	83130.7
25.765	83139.7
25.770	83132.7
25.775	83131.7
25.780	83126.7
25.785	83127.7
25.790	83131.7
25.795	83144.7
25.800	83135.7
25.805	83110.7
25.810	83109.7
25.815	83143.7
25.820	83143.7
25.825	83151.7
25.830	83148.7
25.835	83147.7
25.840	83137.7
25.845	83146.7
25.850	83144.7
25.855	83143.7
25.860	83141.7
25.865	83138.7
25.870	83108.7
25.875	83096.7
25.880	83131.7
25.885	83142.7
25.890	83132.7
25.895	83139.7
25.900	83134.7
25.905	83131.7
25.910	83137.7
25.915	83137.7
25.920	83135.7
25.925	83136.7
25.930	83141.7
25.935	83117.7
25.940	83111.7
25.945	83123.7
25.950	83146.7
25.955	83144.7
25.960	83143.7
25.965	83142.7
25.970	83137.7
25.975	83138.7
25.980	83133.7
25.985	83138.7
25.990	83139.7
25.995	83140.7
26.000	83119.7
26.005	83100.7
26.010	83109.7
26.015	83130.7
26.020	83131.7
26.025	83124.7
26.030	83126.7
26.035	83137.7
26.040	83135.7
26.045	83130.7
26.050	83127.7
26.055	83131.7
26.060	83140.7
26.065	83129.7
26.070	83120.7
26.075	83109.7
26.080	83135.7
26.085	83138.7
26.090	83140.7
26.095	83133.7
26.100	83139.7
26.105	83130.7
26.110	83131.7
26.115	83135.7
26.120	83142.7
26.125	83137.7
26.130	83139.7
26.135	83115.7
26.140	83100.7
26.145	83114.7
26.150	83140.7
26.155	83120.7
26.160	83124.7
26.165	83125.7
26.170	83134.7
26.175	83134.7
26.180	83130.7
26.185	83131.7
26.190	83135.7
26.195	83131.7
26.200	83124.7
26.205	83098.7
26.210	83115.7
26.215	83136.7
26.220	83151.7
26.225	83145.7
26.230	83143.7
26.235	83134.7
26.240	83129.7
26.245	83134.7
26.250	83132.7
26.255	83139.7
26.260	83145.7
26.265	83122.7
26.270	83103.7
26.275	83101.7
26.280	83134.7
26.285	83129.7
26.290	83124.7
26.295	83127.7
26.300	83136.7
26.305	83128.7
26.310	83132.7
26.315	83127.7
26.320	83137.7
26.325	83132.7
26.330	83132.7
26.335	83109.7
26.340	83101.7
26.345	83110.7
26.350	83140.7
26.355	83131.7
26.360	83143.7
26.365	83142.7
26.370	83147.7
26.375	83126.7
26.380	83129.7
26.385	83122.7
26.390	83128.7
26.395	83132.7
26.400	83116.7
26.405	83100.7
26.410	83114.7
26.415	83133.7
