PK2650 Power Data
Z Position (mm)	110.000	W Position (deg)	216.00
Preform ID	Diameter (mm)	Time Stamp	Start Time	Operator	Serial Number
Test 1	25	03-Nov-22 18:05:01	03-Nov-22 18:08:05	[no user]	266007708
Radius (mm)	Power
-26.220	82841.4
-26.215	82836.4
-26.210	82816.4
-26.205	82806.4
-26.200	82833.4
-26.195	82846.4
-26.190	82856.4
-26.185	82843.4
-26.180	82852.4
-26.175	82844.4
-26.170	82856.4
-26.165	82857.4
-26.160	82864.4
-26.155	82865.4
-26.150	82865.4
-26.145	82835.4
-26.140	82834.4
-26.135	82845.4
-26.130	82869.4
-26.125	82859.4
-26.120	82856.4
-26.115	82853.4
-26.110	82857.4
-26.105	82853.4
-26.100	82875.4
-26.095	82859.4
-26.090	82875.4
-26.085	82868.4
-26.080	82858.4
-26.075	82841.4
-26.070	82854.4
-26.065	82872.4
-26.060	82874.4
-26.055	82878.4
-26.050	82879.4
-26.045	82879.4
-26.040	82886.4
-26.035	82892.4
-26.030	82881.4
-26.025	82895.4
-26.020	82894.4
-26.015	82887.4
-26.010	82857.4
-26.005	82865.4
-26.000	82878.4
-25.995	82875.4
-25.990	82876.4
-25.985	82870.4
-25.980	82878.4
-25.975	82870.4
-25.970	82886.4
-25.965	82892.4
-25.960	82897.4
-25.955	82891.4
-25.950	82903.4
-25.945	82872.4
-25.940	82867.4
-25.935	82873.4
-25.930	82893.4
-25.925	82889.4
-25.920	82899.4
-25.915	82883.4
-25.910	82895.4
-25.905	82898.4
-25.900	82906.4
-25.895	82909.4
-25.890	82912.4
-25.885	82906.4
-25.880	82898.4
-25.875	82872.4
-25.870	82888.4
-25.865	82912.4
-25.860	82910.4
-25.855	82897.4
-25.850	82895.4
-25.845	82895.4
-25.840	82894.4
-25.835	82896.4
-25.830	82898.4
-25.825	82908.4
-25.820	82912.4
-25.815	82904.4
-25.810	82877.4
-25.805	82872.4
-25.800	82895.4
-25.795	82901.4
-25.790	82905.4
-25.785	82899.4
-25.780	82902.4
-25.775	82907.4
-25.770	82916.4
-25.765	82918.4
-25.760	82914.4
-25.755	82908.4
-25.750	82915.4
-25.745	82882.4
-25.740	82881.4
-25.735	82896.4
-25.730	82911.4
-25.725	82906.4
-25.720	82896.4
-25.715	82901.4
-25.710	82892.4
-25.705	82896.4
-25.700	82906.4
-25.695	82908.4
-25.690	82912.4
-25.685	82908.4
-25.680	82902.4
-25.675	82875.4
-25.670	82878.4
-25.665	82906.4
-25.660	82904.4
-25.655	82909.4
-25.650	82902.4
-25.645	82908.4
-25.640	82912.4
-25.635	82922.4
-25.630	82916.4
-25.625	82916.4
-25.620	82907.4
-25.615	82911.4
-25.610	82881.4
-25.605	82888.4
-25.600	82909.4
-25.595	82909.4
-25.590	82911.4
-25.585	82902.4
-25.580	82906.4
-25.575	82905.4
-25.570	82907.4
-25.565	82905.4
-25.560	82908.4
-25.555	82907.4
-25.550	82915.4
-25.545	82883.4
-25.540	82876.4
-25.535	82886.4
-25.530	82916.4
-25.525	82910.4
-25.520	82905.4
-25.515	82904.4
-25.510	82909.4
-25.505	82906.4
-25.500	82918.4
-25.495	82915.4
-25.490	82920.4
-25.485	82927.4
-25.480	82889.4
-25.475	82873.4
-25.470	82894.4
-25.465	82910.4
-25.460	82906.4
-25.455	82899.4
-25.450	82892.4
-25.445	82898.4
-25.440	82906.4
-25.435	82902.4
-25.430	82912.4
-25.425	82904.4
-25.420	82918.4
-25.415	82903.4
-25.410	82874.4
-25.405	82872.4
-25.400	82901.4
-25.395	82897.4
-25.390	82913.4
-25.385	82901.4
-25.380	82911.4
-25.375	82912.4
-25.370	82919.4
-25.365	82917.4
-25.360	82923.4
-25.355	82918.4
-25.350	82914.4
-25.345	82883.4
-25.340	82875.4
-25.335	82890.4
-25.330	82907.4
-25.325	82902.4
-25.320	82898.4
-25.315	82898.4
-25.310	82895.4
-25.305	82902.4
-25.300	82908.4
-25.295	82899.4
-25.290	82913.4
-25.285	82914.4
-25.280	82898.4
-25.275	82877.4
-25.270	82882.4
-25.265	82899.4
-25.260	82911.4
-25.255	82898.4
-25.250	82901.4
-25.245	82904.4
-25.240	82910.4
-25.235	82918.4
-25.230	82930.4
-25.225	82912.4
-25.220	82915.4
-25.215	82907.4
-25.210	82879.4
-25.205	82878.4
-25.200	82903.4
-25.195	82904.4
-25.190	82893.4
-25.185	82891.4
-25.180	82906.4
-25.175	82894.4
-25.170	82902.4
-25.165	82908.4
-25.160	82911.4
-25.155	82895.4
-25.150	82916.4
-25.145	82877.4
-25.140	82871.4
-25.135	82876.4
-25.130	82903.4
-25.125	82902.4
-25.120	82900.4
-25.115	82898.4
-25.110	82905.4
-25.105	82907.4
-25.100	82909.4
-25.095	82903.4
-25.090	82912.4
-25.085	82908.4
-25.080	82884.4
-25.075	82866.4
-25.070	82886.4
-25.065	82909.4
-25.060	82908.4
-25.055	82895.4
-25.050	82890.4
-25.045	82891.4
-25.040	82898.4
-25.035	82887.4
-25.030	82901.4
-25.025	82895.4
-25.020	82904.4
-25.015	82890.4
-25.010	82866.4
-25.005	82868.4
-25.000	82896.4
-24.995	82896.4
-24.990	82898.4
-24.985	82887.4
-24.980	82891.4
-24.975	82892.4
-24.970	82896.4
-24.965	82907.4
-24.960	82908.4
-24.955	82900.4
-24.950	82906.4
-24.945	82876.4
-24.940	82868.4
-24.935	82892.4
-24.930	82901.4
-24.925	82889.4
-24.920	82878.4
-24.915	82879.4
-24.910	82881.4
-24.905	82893.4
-24.900	82882.4
-24.895	82894.4
-24.890	82896.4
-24.885	82896.4
-24.880	82878.4
-24.875	82848.4
-24.870	82864.4
-24.865	82887.4
-24.860	82884.4
-24.855	82889.4
-24.850	82888.4
-24.845	82880.4
-24.840	82883.4
-24.835	82888.4
-24.830	82883.4
-24.825	82897.4
-24.820	82892.4
-24.815	82880.4
-24.810	82856.4
-24.805	82862.4
-24.800	82890.4
-24.795	82882.4
-24.790	82870.4
-24.785	82870.4
-24.780	82880.4
-24.775	82868.4
-24.770	82877.4
-24.765	82878.4
-24.760	82881.4
-24.755	82878.4
-24.750	82879.4
-24.745	82840.4
-24.740	82845.4
-24.735	82850.4
-24.730	82873.4
-24.725	82867.4
-24.720	82873.4
-24.715	82862.4
-24.710	82876.4
-24.705	82867.4
-24.700	82878.4
-24.695	82879.4
-24.690	82885.4
-24.685	82875.4
-24.680	82842.4
-24.675	82829.4
-24.670	82856.4
-24.665	82869.4
-24.660	82856.4
-24.655	82856.4
-24.650	82854.4
-24.645	82847.4
-24.640	82859.4
-24.635	82856.4
-24.630	82864.4
-24.625	82861.4
-24.620	82864.4
-24.615	82844.4
-24.610	82821.4
-24.605	82824.4
-24.600	82854.4
-24.595	82851.4
-24.590	82854.4
-24.585	82845.4
-24.580	82846.4
-24.575	82851.4
-24.570	82860.4
-24.565	82857.4
-24.560	82858.4
-24.555	82858.4
-24.550	82856.4
-24.545	82819.4
-24.540	82824.4
-24.535	82835.4
-24.530	82853.4
-24.525	82854.4
-24.520	82848.4
-24.515	82836.4
-24.510	82846.4
-24.505	82838.4
-24.500	82845.4
-24.495	82844.4
-24.490	82839.4
-24.485	82846.4
-24.480	82821.4
-24.475	82808.4
-24.470	82817.4
-24.465	82846.4
-24.460	82841.4
-24.455	82840.4
-24.450	82842.4
-24.445	82836.4
-24.440	82851.4
-24.435	82841.4
-24.430	82854.4
-24.425	82851.4
-24.420	82861.4
-24.415	82841.4
-24.410	82808.4
-24.405	82820.4
-24.400	82844.4
-24.395	82841.4
-24.390	82832.4
-24.385	82815.4
-24.380	82820.4
-24.375	82825.4
-24.370	82829.4
-24.365	82828.4
-24.360	82842.4
-24.355	82834.4
-24.350	82839.4
-24.345	82803.5
-24.340	82801.5
-24.335	82820.4
-24.330	82833.4
-24.325	82825.4
-24.320	82835.4
-24.315	82821.4
-24.310	82826.4
-24.305	82829.4
-24.300	82837.4
-24.295	82836.4
-24.290	82837.4
-24.285	82840.4
-24.280	82811.4
-24.275	82796.5
-24.270	82818.4
-24.265	82838.4
-24.260	82831.4
-24.255	82819.4
-24.250	82817.4
-24.245	82813.4
-24.240	82831.4
-24.235	82825.4
-24.230	82838.4
-24.225	82827.4
-24.220	82838.4
-24.215	82815.4
-24.210	82790.5
-24.205	82800.5
-24.200	82821.4
-24.195	82827.4
-24.190	82828.4
-24.185	82829.4
-24.180	82834.4
-24.175	82825.4
-24.170	82836.4
-24.165	82833.4
-24.160	82837.4
-24.155	82838.4
-24.150	82844.4
-24.145	82801.5
-24.140	82806.4
-24.135	82822.4
-24.130	82832.4
-24.125	82819.4
-24.120	82819.4
-24.115	82811.4
-24.110	82812.4
-24.105	82816.4
-24.100	82820.4
-24.095	82819.4
-24.090	82832.4
-24.085	82828.4
-24.080	82805.4
-24.075	82782.5
-24.070	82809.4
-24.065	82825.4
-24.060	82824.4
-24.055	82823.4
-24.050	82824.4
-24.045	82818.4
-24.040	82836.4
-24.035	82832.4
-24.030	82838.4
-24.025	82842.4
-24.020	82845.4
-24.015	82822.4
-24.010	82797.5
-24.005	82809.4
-24.000	82828.4
-23.995	82820.4
-23.990	82822.4
-23.985	82814.4
-23.980	82817.4
-23.975	82810.4
-23.970	82808.4
-23.965	82814.4
-23.960	82829.4
-23.955	82826.4
-23.950	82829.4
-23.945	82793.5
-23.940	82790.5
-23.935	82808.4
-23.930	82823.4
-23.925	82819.4
-23.920	82824.4
-23.915	82822.4
-23.910	82816.4
-23.905	82824.4
-23.900	82827.4
-23.895	82831.4
-23.890	82831.4
-23.885	82830.4
-23.880	82813.4
-23.875	82790.5
-23.870	82812.4
-23.865	82830.4
-23.860	82835.4
-23.855	82820.4
-23.850	82822.4
-23.845	82817.4
-23.840	82818.4
-23.835	82823.4
-23.830	82832.4
-23.825	82833.4
-23.820	82836.4
-23.815	82819.4
-23.810	82794.5
-23.805	82809.4
-23.800	82823.4
-23.795	82836.4
-23.790	82825.4
-23.785	82837.4
-23.780	82836.4
-23.775	82833.4
-23.770	82844.4
-23.765	82856.4
-23.760	82851.4
-23.755	82856.4
-23.750	82849.4
-23.745	82809.4
-23.740	82817.4
-23.735	82841.4
-23.730	82848.4
-23.725	82838.4
-23.720	82840.4
-23.715	82829.4
-23.710	82828.4
-23.705	82839.4
-23.700	82839.4
-23.695	82839.4
-23.690	82846.4
-23.685	82853.4
-23.680	82817.4
-23.675	82804.4
-23.670	82825.4
-23.665	82843.4
-23.660	82847.4
-23.655	82836.4
-23.650	82851.4
-23.645	82848.4
-23.640	82847.4
-23.635	82852.4
-23.630	82861.4
-23.625	82861.4
-23.620	82861.4
-23.615	82828.4
-23.610	82811.4
-23.605	82826.4
-23.600	82862.4
-23.595	82843.4
-23.590	82837.4
-23.585	82843.4
-23.580	82846.4
-23.575	82844.4
-23.570	82846.4
-23.565	82849.4
-23.560	82851.4
-23.555	82850.4
-23.550	82859.4
-23.545	82814.4
-23.540	82817.4
-23.535	82837.4
-23.530	82852.4
-23.525	82847.4
-23.520	82856.4
-23.515	82851.4
-23.510	82857.4
-23.505	82843.4
-23.500	82864.4
-23.495	82858.4
-23.490	82870.4
-23.485	82858.4
-23.480	82834.4
-23.475	82821.4
-23.470	82840.4
-23.465	82852.4
-23.460	82852.4
-23.455	82844.4
-23.450	82848.4
-23.445	82840.4
-23.440	82850.4
-23.435	82854.4
-23.430	82861.4
-23.425	82858.4
-23.420	82868.4
-23.415	82838.4
-23.410	82827.4
-23.405	82838.4
-23.400	82864.4
-23.395	82854.4
-23.390	82860.4
-23.385	82861.4
-23.380	82863.4
-23.375	82864.4
-23.370	82873.4
-23.365	82875.4
-23.360	82876.4
-23.355	82869.4
-23.350	82870.4
-23.345	82844.4
-23.340	82842.4
-23.335	82865.4
-23.330	82876.4
-23.325	82866.4
-23.320	82857.4
-23.315	82856.4
-23.310	82860.4
-23.305	82865.4
-23.300	82872.4
-23.295	82874.4
-23.290	82881.4
-23.285	82883.4
-23.280	82850.4
-23.275	82838.4
-23.270	82855.4
-23.265	82883.4
-23.260	82876.4
-23.255	82879.4
-23.250	82880.4
-23.245	82885.4
-23.240	82887.4
-23.235	82880.4
-23.230	82893.4
-23.225	82887.4
-23.220	82895.4
-23.215	82863.4
-23.210	82853.4
-23.205	82875.4
-23.200	82894.4
-23.195	82881.4
-23.190	82875.4
-23.185	82870.4
-23.180	82880.4
-23.175	82868.4
-23.170	82883.4
-23.165	82883.4
-23.160	82894.4
-23.155	82892.4
-23.150	82888.4
-23.145	82855.4
-23.140	82849.4
-23.135	82875.4
-23.130	82891.4
-23.125	82887.4
-23.120	82893.4
-23.115	82894.4
-23.110	82903.4
-23.105	82896.4
-23.100	82906.4
-23.095	82904.4
-23.090	82908.4
-23.085	82906.4
-23.080	82869.4
-23.075	82859.4
-23.070	82886.4
-23.065	82901.4
-23.060	82895.4
-23.055	82883.4
-23.050	82884.4
-23.045	82878.4
-23.040	82890.4
-23.035	82879.4
-23.030	82896.4
-23.025	82902.4
-23.020	82896.4
-23.015	82886.4
-23.010	82868.4
-23.005	82867.4
-23.000	82892.4
-22.995	82894.4
-22.990	82897.4
-22.985	82893.4
-22.980	82893.4
-22.975	82900.4
-22.970	82895.4
-22.965	82908.4
-22.960	82908.4
-22.955	82899.4
-22.950	82895.4
-22.945	82870.4
-22.940	82888.4
-22.935	82898.4
-22.930	82905.4
-22.925	82895.4
-22.920	82889.4
-22.915	82876.4
-22.910	82880.4
-22.905	82884.4
-22.900	82892.4
-22.895	82891.4
-22.890	82895.4
-22.885	82898.4
-22.880	82862.4
-22.875	82858.4
-22.870	82875.4
-22.865	82896.4
-22.860	82901.4
-22.855	82894.4
-22.850	82894.4
-22.845	82897.4
-22.840	82898.4
-22.835	82906.4
-22.830	82907.4
-22.825	82911.4
-22.820	82912.4
-22.815	82882.4
-22.810	82869.4
-22.805	82877.4
-22.800	82904.4
-22.795	82890.4
-22.790	82891.4
-22.785	82879.4
-22.780	82879.4
-22.775	82880.4
-22.770	82892.4
-22.765	82886.4
-22.760	82904.4
-22.755	82898.4
-22.750	82895.4
-22.745	82854.4
-22.740	82869.4
-22.735	82882.4
-22.730	82903.4
-22.725	82896.4
-22.720	82890.4
-22.715	82894.4
-22.710	82896.4
-22.705	82901.4
-22.700	82909.4
-22.695	82903.4
-22.690	82904.4
-22.685	82906.4
-22.680	82866.4
-22.675	82869.4
-22.670	82890.4
-22.665	82895.4
-22.660	82888.4
-22.655	82882.4
-22.650	82893.4
-22.645	82886.4
-22.640	82890.4
-22.635	82886.4
-22.630	82897.4
-22.625	82902.4
-22.620	82906.4
-22.615	82876.4
-22.610	82856.4
-22.605	82867.4
-22.600	82895.4
-22.595	82892.4
-22.590	82895.4
-22.585	82891.4
-22.580	82903.4
-22.575	82898.4
-22.570	82897.4
-22.565	82902.4
-22.560	82904.4
-22.555	82912.4
-22.550	82893.4
-22.545	82860.4
-22.540	82877.4
-22.535	82900.4
-22.530	82908.4
-22.525	82896.4
-22.520	82896.4
-22.515	82891.4
-22.510	82898.4
-22.505	82892.4
-22.500	82899.4
-22.495	82899.4
-22.490	82910.4
-22.485	82904.4
-22.480	82864.4
-22.475	82865.4
-22.470	82886.4
-22.465	82897.4
-22.460	82893.4
-22.455	82895.4
-22.450	82901.4
-22.445	82899.4
-22.440	82900.4
-22.435	82903.4
-22.430	82909.4
-22.425	82913.4
-22.420	82903.4
-22.415	82884.4
-22.410	82872.4
-22.405	82887.4
-22.400	82905.4
-22.395	82896.4
-22.390	82895.4
-22.385	82890.4
-22.380	82903.4
-22.375	82883.4
-22.370	82893.4
-22.365	82898.4
-22.360	82905.4
-22.355	82897.4
-22.350	82902.4
-22.345	82862.4
-22.340	82870.4
-22.335	82895.4
-22.330	82901.4
-22.325	82902.4
-22.320	82898.4
-22.315	82895.4
-22.310	82906.4
-22.305	82907.4
-22.300	82904.4
-22.295	82912.4
-22.290	82918.4
-22.285	82907.4
-22.280	82872.4
-22.275	82875.4
-22.270	82899.4
-22.265	82899.4
-22.260	82900.4
-22.255	82892.4
-22.250	82897.4
-22.245	82894.4
-22.240	82904.4
-22.235	82891.4
-22.230	82902.4
-22.225	82900.4
-22.220	82907.4
-22.215	82874.4
-22.210	82866.4
-22.205	82880.4
-22.200	82898.4
-22.195	82889.4
-22.190	82901.4
-22.185	82894.4
-22.180	82893.4
-22.175	82891.4
-22.170	82900.4
-22.165	82909.4
-22.160	82908.4
-22.155	82901.4
-22.150	82885.4
-22.145	82867.4
-22.140	82877.4
-22.135	82899.4
-22.130	82897.4
-22.125	82892.4
-22.120	82885.4
-22.115	82886.4
-22.110	82890.4
-22.105	82881.4
-22.100	82902.4
-22.095	82883.4
-22.090	82901.4
-22.085	82893.4
-22.080	82862.4
-22.075	82854.4
-22.070	82883.4
-22.065	82893.4
-22.060	82889.4
-22.055	82885.4
-22.050	82884.4
-22.045	82890.4
-22.040	82894.4
-22.035	82898.4
-22.030	82897.4
-22.025	82896.4
-22.020	82902.4
-22.015	82867.4
-22.010	82864.4
-22.005	82874.4
-22.000	82896.4
-21.995	82880.4
-21.990	82886.4
-21.985	82873.4
-21.980	82882.4
-21.975	82874.4
-21.970	82881.4
-21.965	82883.4
-21.960	82889.4
-21.955	82897.4
-21.950	82875.4
-21.945	82844.4
-21.940	82853.4
-21.935	82879.4
-21.930	82886.4
-21.925	82885.4
-21.920	82885.4
-21.915	82886.4
-21.910	82889.4
-21.905	82888.4
-21.900	82889.4
-21.895	82896.4
-21.890	82897.4
-21.885	82890.4
-21.880	82854.4
-21.875	82854.4
-21.870	82880.4
-21.865	82880.4
-21.860	82872.4
-21.855	82868.4
-21.850	82876.4
-21.845	82869.4
-21.840	82872.4
-21.835	82876.4
-21.830	82888.4
-21.825	82878.4
-21.820	82876.4
-21.815	82851.4
-21.810	82851.4
-21.805	82862.4
-21.800	82880.4
-21.795	82873.4
-21.790	82878.4
-21.785	82870.4
-21.780	82873.4
-21.775	82877.4
-21.770	82888.4
-21.765	82884.4
-21.760	82892.4
-21.755	82887.4
-21.750	82858.4
-21.745	82840.4
-21.740	82861.4
-21.735	82881.4
-21.730	82877.4
-21.725	82868.4
-21.720	82866.4
-21.715	82866.4
-21.710	82867.4
-21.705	82862.4
-21.700	82869.4
-21.695	82874.4
-21.690	82879.4
-21.685	82868.4
-21.680	82838.4
-21.675	82836.4
-21.670	82860.4
-21.665	82863.4
-21.660	82876.4
-21.655	82859.4
-21.650	82874.4
-21.645	82870.4
-21.640	82872.4
-21.635	82870.4
-21.630	82878.4
-21.625	82877.4
-21.620	82877.4
-21.615	82837.4
-21.610	82839.4
-21.605	82860.4
-21.600	82868.4
-21.595	82858.4
-21.590	82852.4
-21.585	82851.4
-21.580	82860.4
-21.575	82851.4
-21.570	82859.4
-21.565	82854.4
-21.560	82863.4
-21.555	82861.4
-21.550	82847.4
-21.545	82821.4
-21.540	82835.4
-21.535	82857.4
-21.530	82860.4
-21.525	82855.4
-21.520	82860.4
-21.515	82860.4
-21.510	82865.4
-21.505	82862.4
-21.500	82869.4
-21.495	82861.4
-21.490	82869.4
-21.485	82865.4
-21.480	82829.4
-21.475	82828.4
-21.470	82866.4
-21.465	82862.4
-21.460	82854.4
-21.455	82848.4
-21.450	82850.4
-21.445	82849.4
-21.440	82857.4
-21.435	82844.4
-21.430	82857.4
-21.425	82846.4
-21.420	82846.4
-21.415	82821.4
-21.410	82827.4
-21.405	82825.4
-21.400	82853.4
-21.395	82845.4
-21.390	82844.4
-21.385	82850.4
-21.380	82852.4
-21.375	82852.4
-21.370	82856.4
-21.365	82853.4
-21.360	82857.4
-21.355	82845.4
-21.350	82834.4
-21.345	82808.4
-21.340	82832.4
-21.335	82840.4
-21.330	82827.4
-21.325	82807.5
-21.320	82790.5
-21.315	82761.5
-21.310	82723.6
-21.305	82668.6
-21.300	82583.7
-21.295	82453.9
-21.290	82298.0
-21.285	82068.3
-21.280	81741.6
-21.275	81352.1
-21.270	80910.6
-21.265	80434.1
-21.260	79999.6
-21.255	79541.2
-21.250	79106.8
-21.245	78602.5
-21.240	78004.3
-21.235	77368.1
-21.230	76759.9
-21.225	76143.7
-21.220	75403.7
-21.215	74439.7
-21.210	73494.7
-21.205	73062.4
-21.200	72871.8
-21.195	72370.3
-21.190	72467.1
-21.185	73344.4
-21.180	73464.2
-21.175	73488.0
-21.170	74376.3
-21.165	75482.4
-21.160	76388.7
-21.155	76675.4
-21.150	75860.0
-21.145	74174.0
-21.140	73905.1
-21.135	75095.1
-21.130	75553.7
-21.125	75159.9
-21.120	75905.3
-21.115	75523.5
-21.110	73526.9
-21.105	74645.0
-21.100	76803.5
-21.095	77540.9
-21.090	77903.6
-21.085	77838.6
-21.080	77379.8
-21.075	76525.4
-21.070	75962.8
-21.065	76381.5
-21.060	76922.1
-21.055	77219.8
-21.050	77801.3
-21.045	78334.9
-21.040	78243.9
-21.035	77280.6
-21.030	75837.5
-21.025	75671.6
-21.020	77200.5
-21.015	77656.2
-21.010	75696.6
-21.005	73737.0
-21.000	74607.3
-20.995	77090.4
-20.990	78248.6
-20.985	78179.6
-20.980	77680.0
-20.975	77592.0
-20.970	77773.9
-20.965	77579.0
-20.960	77468.0
-20.955	77975.6
-20.950	78525.2
-20.945	78728.0
-20.940	78604.1
-20.935	78435.2
-20.930	78354.2
-20.925	78323.2
-20.920	78336.2
-20.915	78319.2
-20.910	78442.1
-20.905	78796.8
-20.900	79145.6
-20.895	79244.5
-20.890	79174.5
-20.885	78899.7
-20.880	78437.0
-20.875	78119.3
-20.870	78168.2
-20.865	78364.1
-20.860	78609.9
-20.855	78734.7
-20.850	78727.7
-20.845	78735.7
-20.840	78865.6
-20.835	79018.5
-20.830	79090.4
-20.825	79035.4
-20.820	78945.5
-20.815	78866.5
-20.810	78826.6
-20.805	78881.5
-20.800	78976.4
-20.795	79029.4
-20.790	79102.3
-20.785	79116.3
-20.780	79085.3
-20.775	79034.3
-20.770	78952.4
-20.765	78880.4
-20.760	78832.4
-20.755	78744.5
-20.750	78592.6
-20.745	78519.6
-20.740	78597.6
-20.735	78689.5
-20.730	78753.4
-20.725	78825.4
-20.720	78900.3
-20.715	78968.3
-20.710	78983.2
-20.705	78954.2
-20.700	78920.3
-20.695	78918.2
-20.690	78964.2
-20.685	79028.1
-20.680	79054.1
-20.675	79086.1
-20.670	79145.0
-20.665	79231.0
-20.660	79283.9
-20.655	79360.9
-20.650	79437.8
-20.645	79467.8
-20.640	79536.7
-20.635	79570.7
-20.630	79598.6
-20.625	79621.6
-20.620	79638.6
-20.615	79628.6
-20.610	79664.6
-20.605	79704.5
-20.600	79742.5
-20.595	79743.5
-20.590	79728.5
-20.585	79697.5
-20.580	79684.5
-20.575	79646.5
-20.570	79636.5
-20.565	79625.5
-20.560	79620.5
-20.555	79594.5
-20.550	79592.5
-20.545	79635.5
-20.540	79667.5
-20.535	79714.4
-20.530	79746.4
-20.525	79731.4
-20.520	79706.4
-20.515	79731.4
-20.510	79764.4
-20.505	79755.4
-20.500	79728.4
-20.495	79696.4
-20.490	79686.4
-20.485	79679.4
-20.480	79694.4
-20.475	79737.3
-20.470	79838.3
-20.465	79912.2
-20.460	79965.2
-20.455	80011.1
-20.450	80035.1
-20.445	80064.1
-20.440	80119.0
-20.435	80151.0
-20.430	80171.0
-20.425	80191.0
-20.420	80191.0
-20.415	80153.0
-20.410	80181.0
-20.405	80199.9
-20.400	80209.9
-20.395	80206.9
-20.390	80225.9
-20.385	80210.9
-20.380	80199.9
-20.375	80201.9
-20.370	80214.9
-20.365	80220.9
-20.360	80229.9
-20.355	80219.9
-20.350	80170.9
-20.345	80136.9
-20.340	80146.9
-20.335	80163.9
-20.330	80177.9
-20.325	80183.9
-20.320	80190.9
-20.315	80148.9
-20.310	80130.9
-20.305	80107.9
-20.300	80133.9
-20.295	80142.9
-20.290	80139.9
-20.285	80096.9
-20.280	80068.9
-20.275	80059.9
-20.270	80086.9
-20.265	80060.9
-20.260	80039.9
-20.255	80006.0
-20.250	80002.0
-20.245	80014.9
-20.240	80029.9
-20.235	80048.9
-20.230	80100.9
-20.225	80127.8
-20.220	80141.8
-20.215	80133.8
-20.210	80193.8
-20.205	80242.7
-20.200	80294.7
-20.195	80313.7
-20.190	80347.7
-20.185	80364.6
-20.180	80384.6
-20.175	80405.6
-20.170	80427.6
-20.165	80451.6
-20.160	80465.5
-20.155	80467.5
-20.150	80445.5
-20.145	80436.6
-20.140	80455.5
-20.135	80453.5
-20.130	80433.5
-20.125	80397.6
-20.120	80400.6
-20.115	80395.6
-20.110	80389.6
-20.105	80374.6
-20.100	80375.6
-20.095	80374.6
-20.090	80401.5
-20.085	80380.6
-20.080	80354.6
-20.075	80359.6
-20.070	80415.5
-20.065	80427.5
-20.060	80447.5
-20.055	80453.5
-20.050	80470.5
-20.045	80469.5
-20.040	80485.5
-20.035	80479.5
-20.030	80488.5
-20.025	80487.5
-20.020	80505.4
-20.015	80472.5
-20.010	80494.4
-20.005	80533.4
-20.000	80562.4
-19.995	80574.4
-19.990	80593.4
-19.985	80602.3
-19.980	80627.3
-19.975	80651.3
-19.970	80672.3
-19.965	80690.3
-19.960	80710.2
-19.955	80720.2
-19.950	80703.2
-19.945	80699.2
-19.940	80713.2
-19.935	80742.2
-19.930	80727.2
-19.925	80717.2
-19.920	80717.2
-19.915	80723.2
-19.910	80736.2
-19.905	80737.2
-19.900	80747.2
-19.895	80738.2
-19.890	80742.2
-19.885	80704.2
-19.880	80693.2
-19.875	80703.2
-19.870	80742.2
-19.865	80731.2
-19.860	80755.2
-19.855	80743.2
-19.850	80762.2
-19.845	80766.2
-19.840	80765.2
-19.835	80756.2
-19.830	80751.2
-19.825	80743.2
-19.820	80722.2
-19.815	80705.2
-19.810	80704.2
-19.805	80721.2
-19.800	80729.2
-19.795	80721.2
-19.790	80709.2
-19.785	80688.2
-19.780	80668.2
-19.775	80648.2
-19.770	80639.2
-19.765	80637.2
-19.760	80628.2
-19.755	80609.2
-19.750	80569.3
-19.745	80551.3
-19.740	80553.3
-19.735	80548.3
-19.730	80545.3
-19.725	80520.3
-19.720	80505.3
-19.715	80470.3
-19.710	80462.3
-19.705	80474.3
-19.700	80490.3
-19.695	80497.3
-19.690	80495.3
-19.685	80461.3
-19.680	80441.3
-19.675	80460.3
-19.670	80501.3
-19.665	80504.3
-19.660	80514.3
-19.655	80520.3
-19.650	80517.3
-19.645	80514.3
-19.640	80532.2
-19.635	80530.2
-19.630	80529.2
-19.625	80519.2
-19.620	80517.2
-19.615	80478.3
-19.610	80495.3
-19.605	80525.2
-19.600	80526.2
-19.595	80519.2
-19.590	80513.2
-19.585	80510.2
-19.580	80520.2
-19.575	80515.2
-19.570	80516.2
-19.565	80512.2
-19.560	80512.2
-19.555	80501.2
-19.550	80462.2
-19.545	80457.2
-19.540	80490.2
-19.535	80524.2
-19.530	80525.2
-19.525	80513.2
-19.520	80504.2
-19.515	80492.2
-19.510	80495.2
-19.505	80506.2
-19.500	80502.2
-19.495	80482.2
-19.490	80477.2
-19.485	80457.2
-19.480	80467.2
-19.475	80501.2
-19.470	80546.2
-19.465	80544.2
-19.460	80545.2
-19.455	80556.1
-19.450	80600.1
-19.445	80622.1
-19.440	80675.1
-19.435	80682.1
-19.430	80684.0
-19.425	80684.0
-19.420	80676.0
-19.415	80666.1
-19.410	80705.0
-19.405	80732.0
-19.400	80755.0
-19.395	80756.0
-19.390	80768.0
-19.385	80778.0
-19.380	80805.9
-19.375	80833.9
-19.370	80850.9
-19.365	80857.9
-19.360	80880.9
-19.355	80879.9
-19.350	80838.9
-19.345	80825.9
-19.340	80846.9
-19.335	80846.9
-19.330	80846.9
-19.325	80825.9
-19.320	80822.9
-19.315	80809.9
-19.310	80814.9
-19.305	80789.9
-19.300	80805.9
-19.295	80777.9
-19.290	80770.9
-19.285	80730.0
-19.280	80709.0
-19.275	80702.0
-19.270	80740.0
-19.265	80736.0
-19.260	80735.0
-19.255	80727.0
-19.250	80718.0
-19.245	80714.0
-19.240	80691.0
-19.235	80687.0
-19.230	80691.0
-19.225	80697.0
-19.220	80710.0
-19.215	80693.0
-19.210	80702.0
-19.205	80712.0
-19.200	80731.9
-19.195	80731.9
-19.190	80768.9
-19.185	80774.9
-19.180	80789.9
-19.175	80799.9
-19.170	80815.9
-19.165	80843.9
-19.160	80886.8
-19.155	80922.8
-19.150	80915.8
-19.145	80941.8
-19.140	80983.7
-19.135	81002.7
-19.130	81023.7
-19.125	81033.7
-19.120	81051.7
-19.115	81058.7
-19.110	81079.7
-19.105	81108.6
-19.100	81116.6
-19.095	81119.6
-19.090	81116.6
-19.085	81100.6
-19.080	81095.6
-19.075	81098.6
-19.070	81120.6
-19.065	81099.6
-19.060	81094.6
-19.055	81085.7
-19.050	81080.7
-19.045	81071.7
-19.040	81064.7
-19.035	81056.7
-19.030	81052.7
-19.025	81048.7
-19.020	81027.7
-19.015	80981.7
-19.010	80972.7
-19.005	80995.7
-19.000	80995.7
-18.995	80983.7
-18.990	80958.7
-18.985	80956.7
-18.980	80946.7
-18.975	80941.7
-18.970	80948.7
-18.965	80960.7
-18.960	80980.7
-18.955	80989.7
-18.950	80955.7
-18.945	80948.7
-18.940	80958.7
-18.935	80966.7
-18.930	80966.7
-18.925	80966.7
-18.920	80978.7
-18.915	80954.7
-18.910	80971.7
-18.905	80970.7
-18.900	80981.7
-18.895	80984.7
-18.890	80992.7
-18.885	80977.7
-18.880	80963.7
-18.875	80952.7
-18.870	80973.7
-18.865	80960.7
-18.860	80956.7
-18.855	80945.7
-18.850	80949.7
-18.845	80951.7
-18.840	80959.7
-18.835	80964.7
-18.830	80957.7
-18.825	80954.7
-18.820	80957.7
-18.815	80937.7
-18.810	80954.7
-18.805	80962.7
-18.800	80960.7
-18.795	80942.7
-18.790	80944.7
-18.785	80931.7
-18.780	80938.7
-18.775	80934.7
-18.770	80939.7
-18.765	80941.7
-18.760	80937.7
-18.755	80909.7
-18.750	80867.7
-18.745	80877.7
-18.740	80899.7
-18.735	80906.7
-18.730	80924.7
-18.725	80945.7
-18.720	80948.7
-18.715	80942.7
-18.710	80941.7
-18.705	80936.7
-18.700	80947.7
-18.695	80953.7
-18.690	80954.7
-18.685	80912.7
-18.680	80913.7
-18.675	80948.7
-18.670	80991.6
-18.665	80998.6
-18.660	81003.6
-18.655	81018.6
-18.650	81050.6
-18.645	81079.6
-18.640	81107.5
-18.635	81118.5
-18.630	81131.5
-18.625	81133.5
-18.620	81133.5
-18.615	81123.5
-18.610	81145.5
-18.605	81172.5
-18.600	81164.5
-18.595	81170.5
-18.590	81173.5
-18.585	81175.5
-18.580	81210.5
-18.575	81217.4
-18.570	81227.4
-18.565	81229.4
-18.560	81236.4
-18.555	81234.4
-18.550	81206.5
-18.545	81211.4
-18.540	81234.4
-18.535	81240.4
-18.530	81249.4
-18.525	81252.4
-18.520	81264.4
-18.515	81270.4
-18.510	81272.4
-18.505	81282.4
-18.500	81291.4
-18.495	81294.4
-18.490	81302.4
-18.485	81275.4
-18.480	81274.4
-18.475	81289.4
-18.470	81323.4
-18.465	81330.3
-18.460	81328.3
-18.455	81316.4
-18.450	81315.4
-18.445	81326.3
-18.440	81326.3
-18.435	81329.3
-18.430	81335.3
-18.425	81328.3
-18.420	81316.3
-18.415	81289.4
-18.410	81316.3
-18.405	81334.3
-18.400	81339.3
-18.395	81320.3
-18.390	81312.3
-18.385	81311.3
-18.380	81317.3
-18.375	81306.3
-18.370	81325.3
-18.365	81320.3
-18.360	81326.3
-18.355	81313.3
-18.350	81285.4
-18.345	81293.4
-18.340	81308.3
-18.335	81315.3
-18.330	81313.3
-18.325	81317.3
-18.320	81318.3
-18.315	81333.3
-18.310	81343.3
-18.305	81334.3
-18.300	81345.3
-18.295	81348.3
-18.290	81346.3
-18.285	81305.3
-18.280	81302.3
-18.275	81312.3
-18.270	81345.3
-18.265	81343.3
-18.260	81339.3
-18.255	81326.3
-18.250	81329.3
-18.245	81325.3
-18.240	81338.3
-18.235	81342.3
-18.230	81349.3
-18.225	81341.3
-18.220	81328.3
-18.215	81311.3
-18.210	81309.3
-18.205	81338.3
-18.200	81352.3
-18.195	81346.3
-18.190	81360.3
-18.185	81369.3
-18.180	81373.3
-18.175	81371.3
-18.170	81373.3
-18.165	81366.3
-18.160	81376.3
-18.155	81357.3
-18.150	81329.3
-18.145	81332.3
-18.140	81371.3
-18.135	81369.3
-18.130	81372.3
-18.125	81364.3
-18.120	81361.3
-18.115	81354.3
-18.110	81348.3
-18.105	81348.3
-18.100	81342.3
-18.095	81330.3
-18.090	81326.3
-18.085	81296.3
-18.080	81278.3
-18.075	81268.3
-18.070	81294.3
-18.065	81278.3
-18.060	81281.3
-18.055	81266.3
-18.050	81257.3
-18.045	81240.3
-18.040	81248.3
-18.035	81246.3
-18.030	81235.3
-18.025	81221.4
-18.020	81199.4
-18.015	81175.4
-18.010	81195.4
-18.005	81211.4
-18.000	81215.4
-17.995	81190.4
-17.990	81173.4
-17.985	81154.4
-17.980	81134.4
-17.975	81135.4
-17.970	81140.4
-17.965	81123.4
-17.960	81128.4
-17.955	81121.4
-17.950	81087.4
-17.945	81091.4
-17.940	81112.4
-17.935	81114.4
-17.930	81118.4
-17.925	81122.4
-17.920	81134.4
-17.915	81144.4
-17.910	81166.4
-17.905	81173.4
-17.900	81176.4
-17.895	81175.4
-17.890	81184.4
-17.885	81152.4
-17.880	81163.4
-17.875	81187.4
-17.870	81223.3
-17.865	81224.3
-17.860	81226.3
-17.855	81220.3
-17.850	81226.3
-17.845	81233.3
-17.840	81248.3
-17.835	81240.3
-17.830	81256.3
-17.825	81260.3
-17.820	81249.3
-17.815	81234.3
-17.810	81260.3
-17.805	81276.3
-17.800	81287.3
-17.795	81276.3
-17.790	81277.3
-17.785	81279.3
-17.780	81287.3
-17.775	81289.3
-17.770	81300.3
-17.765	81301.3
-17.760	81299.3
-17.755	81288.3
-17.750	81259.3
-17.745	81268.3
-17.740	81280.3
-17.735	81284.3
-17.730	81287.3
-17.725	81285.3
-17.720	81292.3
-17.715	81290.3
-17.710	81302.3
-17.705	81301.3
-17.700	81318.2
-17.695	81311.3
-17.690	81312.3
-17.685	81278.3
-17.680	81276.3
-17.675	81291.3
-17.670	81312.2
-17.665	81316.2
-17.660	81327.2
-17.655	81329.2
-17.650	81335.2
-17.645	81355.2
-17.640	81356.2
-17.635	81352.2
-17.630	81372.2
-17.625	81378.2
-17.620	81350.2
-17.615	81336.2
-17.610	81371.2
-17.605	81395.2
-17.600	81380.2
-17.595	81377.2
-17.590	81381.2
-17.585	81377.2
-17.580	81380.2
-17.575	81397.2
-17.570	81396.2
-17.565	81396.2
-17.560	81410.2
-17.555	81405.2
-17.550	81376.2
-17.545	81377.2
-17.540	81398.2
-17.535	81407.2
-17.530	81398.2
-17.525	81394.2
-17.520	81406.2
-17.515	81403.2
-17.510	81399.2
-17.505	81402.2
-17.500	81395.2
-17.495	81386.2
-17.490	81381.2
-17.485	81344.2
-17.480	81346.2
-17.475	81359.2
-17.470	81372.2
-17.465	81355.2
-17.460	81354.2
-17.455	81347.2
-17.450	81364.2
-17.445	81364.2
-17.440	81369.2
-17.435	81364.2
-17.430	81381.2
-17.425	81379.2
-17.420	81363.2
-17.415	81337.2
-17.410	81356.2
-17.405	81386.2
-17.400	81386.2
-17.395	81393.2
-17.390	81391.2
-17.385	81390.2
-17.380	81390.2
-17.375	81396.1
-17.370	81404.1
-17.365	81417.1
-17.360	81410.1
-17.355	81390.1
-17.350	81377.2
-17.345	81403.1
-17.340	81436.1
-17.335	81445.1
-17.330	81453.1
-17.325	81424.1
-17.320	81428.1
-17.315	81435.1
-17.310	81436.1
-17.305	81454.1
-17.300	81450.1
-17.295	81442.1
-17.290	81441.1
-17.285	81403.1
-17.280	81411.1
-17.275	81427.1
-17.270	81458.1
-17.265	81449.1
-17.260	81457.1
-17.255	81448.1
-17.250	81463.1
-17.245	81467.1
-17.240	81476.1
-17.235	81484.1
-17.230	81485.1
-17.225	81493.1
-17.220	81468.1
-17.215	81458.1
-17.210	81489.1
-17.205	81507.0
-17.200	81501.1
-17.195	81494.1
-17.190	81503.0
-17.185	81500.1
-17.180	81504.0
-17.175	81502.0
-17.170	81514.0
-17.165	81528.0
-17.160	81538.0
-17.155	81528.0
-17.150	81504.0
-17.145	81513.0
-17.140	81528.0
-17.135	81532.0
-17.130	81528.0
-17.125	81529.0
-17.120	81531.0
-17.115	81530.0
-17.110	81538.0
-17.105	81531.0
-17.100	81542.0
-17.095	81536.0
-17.090	81547.0
-17.085	81506.0
-17.080	81515.0
-17.075	81532.0
-17.070	81530.0
-17.065	81506.0
-17.060	81500.0
-17.055	81490.0
-17.050	81492.0
-17.045	81488.0
-17.040	81495.0
-17.035	81494.0
-17.030	81514.0
-17.025	81499.0
-17.020	81484.0
-17.015	81473.1
-17.010	81488.0
-17.005	81502.0
-17.000	81506.0
-16.995	81500.0
-16.990	81512.0
-16.985	81522.0
-16.980	81522.0
-16.975	81523.0
-16.970	81537.0
-16.965	81533.0
-16.960	81536.0
-16.955	81531.0
-16.950	81515.0
-16.945	81525.0
-16.940	81533.0
-16.935	81534.0
-16.930	81521.0
-16.925	81529.0
-16.920	81534.0
-16.915	81542.0
-16.910	81553.0
-16.905	81550.0
-16.900	81561.0
-16.895	81562.0
-16.890	81569.0
-16.885	81519.0
-16.880	81521.0
-16.875	81535.0
-16.870	81548.0
-16.865	81546.0
-16.860	81543.0
-16.855	81545.0
-16.850	81556.0
-16.845	81551.0
-16.840	81553.0
-16.835	81545.0
-16.830	81560.0
-16.825	81550.0
-16.820	81511.0
-16.815	81501.0
-16.810	81531.0
-16.805	81552.0
-16.800	81530.0
-16.795	81536.0
-16.790	81528.0
-16.785	81531.0
-16.780	81525.0
-16.775	81526.0
-16.770	81522.0
-16.765	81523.0
-16.760	81533.0
-16.755	81517.0
-16.750	81493.0
-16.745	81497.0
-16.740	81512.0
-16.735	81497.0
-16.730	81497.0
-16.725	81479.0
-16.720	81484.0
-16.715	81484.0
-16.710	81472.0
-16.705	81469.0
-16.700	81463.0
-16.695	81455.0
-16.690	81450.0
-16.685	81411.1
-16.680	81417.1
-16.675	81443.0
-16.670	81462.0
-16.665	81453.0
-16.660	81433.1
-16.655	81427.1
-16.650	81438.0
-16.645	81450.0
-16.640	81437.0
-16.635	81434.0
-16.630	81453.0
-16.625	81451.0
-16.620	81431.1
-16.615	81422.1
-16.610	81443.0
-16.605	81451.0
-16.600	81448.0
-16.595	81439.0
-16.590	81443.0
-16.585	81439.0
-16.580	81440.0
-16.575	81445.0
-16.570	81441.0
-16.565	81453.0
-16.560	81458.0
-16.555	81436.0
-16.550	81424.0
-16.545	81437.0
-16.540	81461.0
-16.535	81450.0
-16.530	81444.0
-16.525	81425.0
-16.520	81419.0
-16.515	81423.0
-16.510	81433.0
-16.505	81427.0
-16.500	81418.0
-16.495	81418.1
-16.490	81418.0
-16.485	81376.1
-16.480	81391.1
-16.475	81402.1
-16.470	81411.1
-16.465	81401.1
-16.460	81407.1
-16.455	81397.1
-16.450	81406.1
-16.445	81405.1
-16.440	81430.0
-16.435	81421.0
-16.430	81421.0
-16.425	81417.0
-16.420	81397.1
-16.415	81377.1
-16.410	81398.1
-16.405	81409.0
-16.400	81416.0
-16.395	81391.1
-16.390	81385.1
-16.385	81390.1
-16.380	81397.1
-16.375	81397.1
-16.370	81393.1
-16.365	81401.0
-16.360	81415.0
-16.355	81394.1
-16.350	81385.1
-16.345	81397.1
-16.340	81450.0
-16.335	81436.0
-16.330	81440.0
-16.325	81427.0
-16.320	81441.0
-16.315	81439.0
-16.310	81441.0
-16.305	81444.0
-16.300	81456.0
-16.295	81459.0
-16.290	81455.0
-16.285	81429.0
-16.280	81439.0
-16.275	81459.0
-16.270	81470.0
-16.265	81459.0
-16.260	81455.0
-16.255	81455.0
-16.250	81450.0
-16.245	81458.0
-16.240	81471.0
-16.235	81470.0
-16.230	81480.0
-16.225	81478.0
-16.220	81464.0
-16.215	81449.0
-16.210	81477.0
-16.205	81507.0
-16.200	81505.0
-16.195	81499.0
-16.190	81508.0
-16.185	81491.0
-16.180	81500.0
-16.175	81491.0
-16.170	81501.0
-16.165	81496.0
-16.160	81503.0
-16.155	81470.0
-16.150	81462.0
-16.145	81483.0
-16.140	81502.0
-16.135	81487.0
-16.130	81485.0
-16.125	81475.0
-16.120	81477.0
-16.115	81467.0
-16.110	81471.0
-16.105	81467.0
-16.100	81456.0
-16.095	81455.0
-16.090	81441.0
-16.085	81419.0
-16.080	81425.0
-16.075	81435.0
-16.070	81454.0
-16.065	81442.0
-16.060	81447.0
-16.055	81426.0
-16.050	81430.0
-16.045	81427.0
-16.040	81416.0
-16.035	81403.0
-16.030	81412.0
-16.025	81399.0
-16.020	81370.0
-16.015	81364.1
-16.010	81372.0
-16.005	81360.1
-16.000	81349.1
-15.995	81337.1
-15.990	81339.1
-15.985	81329.1
-15.980	81319.1
-15.975	81314.1
-15.970	81304.1
-15.965	81302.1
-15.960	81313.1
-15.955	81300.1
-15.950	81276.1
-15.945	81283.1
-15.940	81315.1
-15.935	81301.1
-15.930	81304.1
-15.925	81311.1
-15.920	81324.1
-15.915	81321.1
-15.910	81336.1
-15.905	81335.1
-15.900	81339.1
-15.895	81326.1
-15.890	81321.1
-15.885	81284.1
-15.880	81302.1
-15.875	81328.1
-15.870	81335.1
-15.865	81322.1
-15.860	81313.1
-15.855	81317.1
-15.850	81340.1
-15.845	81333.1
-15.840	81355.0
-15.835	81338.1
-15.830	81354.0
-15.825	81351.0
-15.820	81334.1
-15.815	81332.1
-15.810	81355.0
-15.805	81374.0
-15.800	81382.0
-15.795	81395.0
-15.790	81393.0
-15.785	81399.0
-15.780	81415.0
-15.775	81406.0
-15.770	81429.0
-15.765	81433.0
-15.760	81439.0
-15.755	81415.0
-15.750	81416.0
-15.745	81440.0
-15.740	81479.9
-15.735	81478.0
-15.730	81465.0
-15.725	81472.0
-15.720	81477.9
-15.715	81487.9
-15.710	81499.9
-15.705	81517.9
-15.700	81513.9
-15.695	81516.9
-15.690	81514.9
-15.685	81488.9
-15.680	81493.9
-15.675	81521.9
-15.670	81545.9
-15.665	81541.9
-15.660	81543.9
-15.655	81534.9
-15.650	81537.9
-15.645	81545.9
-15.640	81554.9
-15.635	81547.9
-15.630	81554.9
-15.625	81543.9
-15.620	81515.9
-15.615	81518.9
-15.610	81536.9
-15.605	81558.9
-15.600	81544.9
-15.595	81534.9
-15.590	81529.9
-15.585	81530.9
-15.580	81521.9
-15.575	81515.9
-15.570	81524.9
-15.565	81530.9
-15.560	81533.9
-15.555	81496.9
-15.550	81486.9
-15.545	81486.9
-15.540	81517.9
-15.535	81517.9
-15.530	81521.9
-15.525	81508.9
-15.520	81512.9
-15.515	81511.9
-15.510	81511.9
-15.505	81513.9
-15.500	81506.9
-15.495	81502.9
-15.490	81491.9
-15.485	81457.9
-15.480	81464.9
-15.475	81483.9
-15.470	81484.9
-15.465	81478.9
-15.460	81477.9
-15.455	81473.9
-15.450	81478.9
-15.445	81461.9
-15.440	81473.9
-15.435	81481.9
-15.430	81482.9
-15.425	81476.9
-15.420	81448.9
-15.415	81441.0
-15.410	81463.9
-15.405	81483.9
-15.400	81488.9
-15.395	81475.9
-15.390	81488.9
-15.385	81467.9
-15.380	81478.9
-15.375	81481.9
-15.370	81495.9
-15.365	81489.9
-15.360	81474.9
-15.355	81439.0
-15.350	81440.0
-15.345	81448.9
-15.340	81472.9
-15.335	81462.9
-15.330	81474.9
-15.325	81467.9
-15.320	81470.9
-15.315	81467.9
-15.310	81486.9
-15.305	81486.9
-15.300	81485.9
-15.295	81479.9
-15.290	81483.9
-15.285	81441.9
-15.280	81456.9
-15.275	81477.9
-15.270	81496.9
-15.265	81490.9
-15.260	81480.9
-15.255	81480.9
-15.250	81497.9
-15.245	81495.9
-15.240	81518.9
-15.235	81521.9
-15.230	81514.9
-15.225	81507.9
-15.220	81475.9
-15.215	81477.9
-15.210	81496.9
-15.205	81503.9
-15.200	81499.9
-15.195	81490.9
-15.190	81498.9
-15.185	81483.9
-15.180	81488.9
-15.175	81500.9
-15.170	81489.9
-15.165	81498.9
-15.160	81506.9
-15.155	81460.9
-15.150	81445.9
-15.145	81454.9
-15.140	81480.9
-15.135	81470.9
-15.130	81471.9
-15.125	81446.9
-15.120	81449.9
-15.115	81434.9
-15.110	81436.9
-15.105	81438.9
-15.100	81454.9
-15.095	81435.9
-15.090	81423.9
-15.085	81385.0
-15.080	81387.0
-15.075	81391.0
-15.070	81388.0
-15.065	81363.0
-15.060	81342.0
-15.055	81331.0
-15.050	81324.0
-15.045	81310.0
-15.040	81296.0
-15.035	81288.0
-15.030	81265.1
-15.025	81253.1
-15.020	81205.1
-15.015	81172.1
-15.010	81184.1
-15.005	81187.1
-15.000	81184.1
-14.995	81174.1
-14.990	81168.1
-14.985	81158.1
-14.980	81163.1
-14.975	81170.1
-14.970	81179.1
-14.965	81173.1
-14.960	81182.1
-14.955	81137.2
-14.950	81156.1
-14.945	81163.1
-14.940	81181.1
-14.935	81179.1
-14.930	81169.1
-14.925	81153.1
-14.920	81161.1
-14.915	81160.1
-14.910	81163.1
-14.905	81177.1
-14.900	81187.1
-14.895	81182.1
-14.890	81157.1
-14.885	81139.2
-14.880	81152.1
-14.875	81181.1
-14.870	81199.1
-14.865	81219.1
-14.860	81226.1
-14.855	81236.1
-14.850	81256.1
-14.845	81268.1
-14.840	81279.0
-14.835	81284.0
-14.830	81313.0
-14.825	81311.0
-14.820	81296.0
-14.815	81309.0
-14.810	81338.0
-14.805	81342.0
-14.800	81347.0
-14.795	81347.0
-14.790	81362.0
-14.785	81370.0
-14.780	81382.0
-14.775	81385.0
-14.770	81390.0
-14.765	81408.9
-14.760	81417.9
-14.755	81393.0
-14.750	81402.9
-14.745	81404.9
-14.740	81437.9
-14.735	81439.9
-14.730	81451.9
-14.725	81458.9
-14.720	81466.9
-14.715	81469.9
-14.710	81482.9
-14.705	81481.9
-14.700	81483.9
-14.695	81484.9
-14.690	81478.9
-14.685	81448.9
-14.680	81470.9
-14.675	81487.9
-14.670	81483.9
-14.665	81475.9
-14.660	81474.9
-14.655	81469.9
-14.650	81475.9
-14.645	81481.9
-14.640	81485.9
-14.635	81486.9
-14.630	81485.9
-14.625	81476.9
-14.620	81446.9
-14.615	81445.9
-14.610	81460.9
-14.605	81457.9
-14.600	81455.9
-14.595	81450.9
-14.590	81463.9
-14.585	81469.9
-14.580	81455.9
-14.575	81459.9
-14.570	81470.9
-14.565	81469.9
-14.560	81474.9
-14.555	81426.9
-14.550	81427.9
-14.545	81439.9
-14.540	81448.9
-14.535	81454.9
-14.530	81450.9
-14.525	81440.9
-14.520	81450.9
-14.515	81430.9
-14.510	81432.9
-14.505	81437.9
-14.500	81445.9
-14.495	81448.9
-14.490	81438.9
-14.485	81422.9
-14.480	81431.9
-14.475	81461.9
-14.470	81452.9
-14.465	81457.9
-14.460	81462.9
-14.455	81461.9
-14.450	81481.9
-14.445	81485.9
-14.440	81492.9
-14.435	81481.9
-14.430	81498.9
-14.425	81484.9
-14.420	81467.9
-14.415	81462.9
-14.410	81494.9
-14.405	81504.9
-14.400	81505.8
-14.395	81485.9
-14.390	81490.9
-14.385	81496.9
-14.380	81496.9
-14.375	81503.9
-14.370	81511.8
-14.365	81519.8
-14.360	81525.8
-14.355	81499.9
-14.350	81495.9
-14.345	81510.8
-14.340	81531.8
-14.335	81535.8
-14.330	81539.8
-14.325	81537.8
-14.320	81536.8
-14.315	81545.8
-14.310	81557.8
-14.305	81560.8
-14.300	81570.8
-14.295	81572.8
-14.290	81563.8
-14.285	81542.8
-14.280	81564.8
-14.275	81578.8
-14.270	81589.8
-14.265	81566.8
-14.260	81571.8
-14.255	81572.8
-14.250	81585.8
-14.245	81584.8
-14.240	81583.8
-14.235	81584.8
-14.230	81581.8
-14.225	81583.8
-14.220	81552.8
-14.215	81554.8
-14.210	81584.8
-14.205	81579.8
-14.200	81579.8
-14.195	81600.8
-14.190	81592.8
-14.185	81589.8
-14.180	81609.8
-14.175	81600.8
-14.170	81609.8
-14.165	81603.8
-14.160	81608.8
-14.155	81567.8
-14.150	81575.8
-14.145	81580.8
-14.140	81604.8
-14.135	81594.8
-14.130	81593.8
-14.125	81588.8
-14.120	81591.8
-14.115	81596.8
-14.110	81597.8
-14.105	81597.8
-14.100	81581.8
-14.095	81589.8
-14.090	81573.8
-14.085	81545.8
-14.080	81563.8
-14.075	81585.8
-14.070	81594.8
-14.065	81596.8
-14.060	81590.8
-14.055	81589.8
-14.050	81606.8
-14.045	81607.8
-14.040	81607.8
-14.035	81612.7
-14.030	81609.7
-14.025	81599.8
-14.020	81569.8
-14.015	81578.8
-14.010	81598.8
-14.005	81596.8
-14.000	81593.8
-13.995	81583.8
-13.990	81589.8
-13.985	81590.8
-13.980	81603.8
-13.975	81611.7
-13.970	81602.8
-13.965	81610.7
-13.960	81615.7
-13.955	81583.8
-13.950	81577.8
-13.945	81583.8
-13.940	81607.7
-13.935	81602.8
-13.930	81607.7
-13.925	81601.8
-13.920	81598.8
-13.915	81615.7
-13.910	81626.7
-13.905	81622.7
-13.900	81622.7
-13.895	81624.7
-13.890	81612.7
-13.885	81584.8
-13.880	81605.7
-13.875	81623.7
-13.870	81623.7
-13.865	81608.7
-13.860	81611.7
-13.855	81601.7
-13.850	81609.7
-13.845	81599.8
-13.840	81606.7
-13.835	81622.7
-13.830	81624.7
-13.825	81613.7
-13.820	81589.8
-13.815	81582.8
-13.810	81616.7
-13.805	81620.7
-13.800	81612.7
-13.795	81614.7
-13.790	81618.7
-13.785	81617.7
-13.780	81623.7
-13.775	81626.7
-13.770	81626.7
-13.765	81620.7
-13.760	81615.7
-13.755	81580.8
-13.750	81587.8
-13.745	81598.7
-13.740	81609.7
-13.735	81606.7
-13.730	81603.7
-13.725	81607.7
-13.720	81607.7
-13.715	81607.7
-13.710	81624.7
-13.705	81622.7
-13.700	81631.7
-13.695	81629.7
-13.690	81604.7
-13.685	81593.7
-13.680	81605.7
-13.675	81626.7
-13.670	81633.7
-13.665	81643.7
-13.660	81644.7
-13.655	81640.7
-13.650	81642.7
-13.645	81653.7
-13.640	81662.7
-13.635	81651.7
-13.630	81666.7
-13.625	81640.7
-13.620	81617.7
-13.615	81615.7
-13.610	81664.7
-13.605	81665.7
-13.600	81656.7
-13.595	81653.7
-13.590	81658.7
-13.585	81663.7
-13.580	81656.7
-13.575	81655.7
-13.570	81663.7
-13.565	81669.7
-13.560	81673.7
-13.555	81638.7
-13.550	81643.7
-13.545	81665.7
-13.540	81691.7
-13.535	81671.7
-13.530	81680.7
-13.525	81675.7
-13.520	81680.7
-13.515	81677.7
-13.510	81681.7
-13.505	81691.7
-13.500	81688.7
-13.495	81683.7
-13.490	81656.7
-13.485	81635.7
-13.480	81650.7
-13.475	81660.7
-13.470	81656.7
-13.465	81647.7
-13.460	81646.7
-13.455	81637.7
-13.450	81638.7
-13.445	81648.7
-13.440	81634.7
-13.435	81631.7
-13.430	81648.7
-13.425	81633.7
-13.420	81599.7
-13.415	81595.7
-13.410	81622.7
-13.405	81612.7
-13.400	81612.7
-13.395	81607.7
-13.390	81596.7
-13.385	81598.7
-13.380	81602.7
-13.375	81588.7
-13.370	81593.7
-13.365	81588.7
-13.360	81593.7
-13.355	81544.8
-13.350	81544.8
-13.345	81543.8
-13.340	81556.8
-13.335	81534.8
-13.330	81536.8
-13.325	81510.8
-13.320	81518.8
-13.315	81506.8
-13.310	81497.8
-13.305	81500.8
-13.300	81496.8
-13.295	81488.8
-13.290	81464.8
-13.285	81441.8
-13.280	81455.8
-13.275	81470.8
-13.270	81480.8
-13.265	81472.8
-13.260	81470.8
-13.255	81473.8
-13.250	81486.8
-13.245	81487.8
-13.240	81488.8
-13.235	81495.8
-13.230	81489.8
-13.225	81473.8
-13.220	81457.8
-13.215	81471.8
-13.210	81492.8
-13.205	81490.8
-13.200	81474.8
-13.195	81468.8
-13.190	81475.8
-13.185	81479.8
-13.180	81491.8
-13.175	81493.8
-13.170	81508.8
-13.165	81499.8
-13.160	81506.8
-13.155	81470.8
-13.150	81474.8
-13.145	81503.8
-13.140	81523.8
-13.135	81510.8
-13.130	81518.8
-13.125	81517.8
-13.120	81520.8
-13.115	81525.8
-13.110	81526.8
-13.105	81539.8
-13.100	81539.8
-13.095	81536.8
-13.090	81522.8
-13.085	81507.8
-13.080	81539.8
-13.075	81545.8
-13.070	81548.8
-13.065	81541.8
-13.060	81538.8
-13.055	81544.8
-13.050	81555.7
-13.045	81551.7
-13.040	81565.7
-13.035	81559.7
-13.030	81570.7
-13.025	81555.7
-13.020	81527.8
-13.015	81543.8
-13.010	81581.7
-13.005	81588.7
-13.000	81576.7
-12.995	81571.7
-12.990	81570.7
-12.985	81583.7
-12.980	81583.7
-12.975	81581.7
-12.970	81582.7
-12.965	81579.7
-12.960	81591.7
-12.955	81542.8
-12.950	81548.7
-12.945	81567.7
-12.940	81568.7
-12.935	81560.7
-12.930	81563.7
-12.925	81572.7
-12.920	81553.7
-12.915	81558.7
-12.910	81564.7
-12.905	81565.7
-12.900	81561.7
-12.895	81559.7
-12.890	81533.8
-12.885	81516.8
-12.880	81529.8
-12.875	81552.7
-12.870	81549.7
-12.865	81540.8
-12.860	81553.7
-12.855	81546.7
-12.850	81545.7
-12.845	81548.7
-12.840	81549.7
-12.835	81544.7
-12.830	81548.7
-12.825	81534.7
-12.820	81514.8
-12.815	81526.8
-12.810	81549.7
-12.805	81533.8
-12.800	81535.7
-12.795	81527.8
-12.790	81548.7
-12.785	81532.8
-12.780	81538.7
-12.775	81531.8
-12.770	81541.7
-12.765	81535.7
-12.760	81542.7
-12.755	81501.8
-12.750	81503.8
-12.745	81524.8
-12.740	81528.8
-12.735	81534.8
-12.730	81537.7
-12.725	81543.7
-12.720	81552.7
-12.715	81554.7
-12.710	81564.7
-12.705	81559.7
-12.700	81560.7
-12.695	81568.7
-12.690	81545.7
-12.685	81528.7
-12.680	81564.7
-12.675	81573.7
-12.670	81570.7
-12.665	81558.7
-12.660	81566.7
-12.655	81573.7
-12.650	81571.7
-12.645	81564.7
-12.640	81571.7
-12.635	81580.7
-12.630	81589.7
-12.625	81579.7
-12.620	81555.7
-12.615	81566.7
-12.610	81588.7
-12.605	81581.7
-12.600	81576.7
-12.595	81584.7
-12.590	81581.7
-12.585	81588.7
-12.580	81590.7
-12.575	81591.7
-12.570	81597.7
-12.565	81593.7
-12.560	81594.7
-12.555	81554.7
-12.550	81566.7
-12.545	81597.7
-12.540	81612.7
-12.535	81593.7
-12.530	81602.7
-12.525	81592.7
-12.520	81603.7
-12.515	81614.7
-12.510	81616.7
-12.505	81613.7
-12.500	81617.7
-12.495	81616.7
-12.490	81587.7
-12.485	81578.7
-12.480	81598.7
-12.475	81601.7
-12.470	81608.7
-12.465	81608.7
-12.460	81607.7
-12.455	81610.7
-12.450	81634.7
-12.445	81632.7
-12.440	81627.7
-12.435	81624.7
-12.430	81621.7
-12.425	81588.7
-12.420	81583.7
-12.415	81594.7
-12.410	81623.7
-12.405	81632.7
-12.400	81623.7
-12.395	81621.7
-12.390	81628.7
-12.385	81620.7
-12.380	81626.7
-12.375	81616.7
-12.370	81626.7
-12.365	81615.7
-12.360	81627.7
-12.355	81584.7
-12.350	81598.7
-12.345	81606.7
-12.340	81616.7
-12.335	81613.7
-12.330	81620.7
-12.325	81623.7
-12.320	81618.7
-12.315	81629.7
-12.310	81634.7
-12.305	81638.7
-12.300	81635.7
-12.295	81639.7
-12.290	81612.7
-12.285	81609.7
-12.280	81631.7
-12.275	81641.7
-12.270	81644.6
-12.265	81625.7
-12.260	81628.7
-12.255	81620.7
-12.250	81631.7
-12.245	81636.7
-12.240	81633.7
-12.235	81641.7
-12.230	81645.6
-12.225	81621.7
-12.220	81613.7
-12.215	81623.7
-12.210	81644.6
-12.205	81652.6
-12.200	81653.6
-12.195	81640.7
-12.190	81653.6
-12.185	81645.6
-12.180	81662.6
-12.175	81665.6
-12.170	81665.6
-12.165	81667.6
-12.160	81670.6
-12.155	81628.7
-12.150	81639.6
-12.145	81669.6
-12.140	81669.6
-12.135	81670.6
-12.130	81662.6
-12.125	81658.6
-12.120	81661.6
-12.115	81666.6
-12.110	81667.6
-12.105	81675.6
-12.100	81680.6
-12.095	81674.6
-12.090	81654.6
-12.085	81637.6
-12.080	81663.6
-12.075	81677.6
-12.070	81686.6
-12.065	81687.6
-12.060	81694.6
-12.055	81689.6
-12.050	81695.6
-12.045	81699.6
-12.040	81702.6
-12.035	81702.6
-12.030	81698.6
-12.025	81687.6
-12.020	81672.6
-12.015	81691.6
-12.010	81711.6
-12.005	81704.6
-12.000	81711.6
-11.995	81703.6
-11.990	81695.6
-11.985	81698.6
-11.980	81706.6
-11.975	81708.6
-11.970	81718.6
-11.965	81718.6
-11.960	81714.6
-11.955	81675.6
-11.950	81692.6
-11.945	81717.6
-11.940	81719.6
-11.935	81723.6
-11.930	81717.6
-11.925	81721.6
-11.920	81727.6
-11.915	81726.6
-11.910	81738.6
-11.905	81733.6
-11.900	81736.6
-11.895	81728.6
-11.890	81689.6
-11.885	81689.6
-11.880	81714.6
-11.875	81712.6
-11.870	81721.6
-11.865	81703.6
-11.860	81703.6
-11.855	81704.6
-11.850	81704.6
-11.845	81701.6
-11.840	81712.6
-11.835	81709.6
-11.830	81712.6
-11.825	81684.6
-11.820	81667.6
-11.815	81671.6
-11.810	81698.6
-11.805	81698.6
-11.800	81709.6
-11.795	81692.6
-11.790	81694.6
-11.785	81697.6
-11.780	81693.6
-11.775	81695.6
-11.770	81699.6
-11.765	81698.6
-11.760	81687.6
-11.755	81667.6
-11.750	81680.6
-11.745	81702.6
-11.740	81696.6
-11.735	81697.6
-11.730	81683.6
-11.725	81676.6
-11.720	81673.6
-11.715	81670.6
-11.710	81672.6
-11.705	81681.6
-11.700	81688.6
-11.695	81685.6
-11.690	81650.6
-11.685	81630.6
-11.680	81642.6
-11.675	81657.6
-11.670	81671.6
-11.665	81655.6
-11.660	81660.6
-11.655	81652.6
-11.650	81651.6
-11.645	81662.6
-11.640	81671.6
-11.635	81672.6
-11.630	81677.6
-11.625	81646.6
-11.620	81625.6
-11.615	81640.6
-11.610	81662.6
-11.605	81654.6
-11.600	81651.6
-11.595	81653.6
-11.590	81653.6
-11.585	81653.6
-11.580	81644.6
-11.575	81643.6
-11.570	81659.6
-11.565	81662.6
-11.560	81665.6
-11.555	81641.6
-11.550	81664.6
-11.545	81675.6
-11.540	81679.6
-11.535	81678.6
-11.530	81680.6
-11.525	81676.6
-11.520	81685.6
-11.515	81680.6
-11.510	81682.6
-11.505	81682.6
-11.500	81688.6
-11.495	81683.6
-11.490	81658.6
-11.485	81670.6
-11.480	81694.6
-11.475	81699.6
-11.470	81708.6
-11.465	81709.6
-11.460	81719.6
-11.455	81709.6
-11.450	81714.6
-11.445	81711.6
-11.440	81724.6
-11.435	81721.6
-11.430	81728.6
-11.425	81695.6
-11.420	81674.6
-11.415	81686.6
-11.410	81708.6
-11.405	81707.6
-11.400	81710.6
-11.395	81709.6
-11.390	81720.6
-11.385	81711.6
-11.380	81703.6
-11.375	81704.6
-11.370	81710.6
-11.365	81706.6
-11.360	81698.6
-11.355	81666.6
-11.350	81685.6
-11.345	81707.6
-11.340	81704.6
-11.335	81698.6
-11.330	81693.6
-11.325	81685.6
-11.320	81690.6
-11.315	81683.6
-11.310	81688.6
-11.305	81693.6
-11.300	81701.6
-11.295	81697.6
-11.290	81675.6
-11.285	81663.6
-11.280	81685.6
-11.275	81703.6
-11.270	81706.6
-11.265	81692.6
-11.260	81706.6
-11.255	81703.6
-11.250	81709.6
-11.245	81706.6
-11.240	81716.6
-11.235	81698.6
-11.230	81704.6
-11.225	81680.6
-11.220	81667.6
-11.215	81671.6
-11.210	81682.6
-11.205	81673.6
-11.200	81654.6
-11.195	81655.6
-11.190	81646.6
-11.185	81637.6
-11.180	81644.6
-11.175	81643.6
-11.170	81649.6
-11.165	81644.6
-11.160	81637.6
-11.155	81587.7
-11.150	81602.6
-11.145	81625.6
-11.140	81627.6
-11.135	81619.6
-11.130	81615.6
-11.125	81611.6
-11.120	81600.6
-11.115	81589.6
-11.110	81598.6
-11.105	81595.6
-11.100	81599.6
-11.095	81594.6
-11.090	81576.7
-11.085	81560.7
-11.080	81578.7
-11.075	81577.7
-11.070	81563.7
-11.065	81545.7
-11.060	81553.7
-11.055	81555.7
-11.050	81550.7
-11.045	81552.7
-11.040	81549.7
-11.035	81543.7
-11.030	81537.7
-11.025	81516.7
-11.020	81516.7
-11.015	81521.7
-11.010	81553.7
-11.005	81536.7
-11.000	81532.7
-10.995	81515.7
-10.990	81529.7
-10.985	81545.7
-10.980	81557.7
-10.975	81559.7
-10.970	81573.7
-10.965	81578.7
-10.960	81562.7
-10.955	81542.7
-10.950	81558.7
-10.945	81580.6
-10.940	81585.6
-10.935	81584.6
-10.930	81602.6
-10.925	81597.6
-10.920	81608.6
-10.915	81611.6
-10.910	81624.6
-10.905	81632.6
-10.900	81634.6
-10.895	81635.6
-10.890	81609.6
-10.885	81606.6
-10.880	81642.6
-10.875	81654.6
-10.870	81655.6
-10.865	81649.6
-10.860	81653.6
-10.855	81668.6
-10.850	81674.6
-10.845	81673.6
-10.840	81678.6
-10.835	81679.6
-10.830	81686.6
-10.825	81664.6
-10.820	81663.6
-10.815	81686.6
-10.810	81711.5
-10.805	81705.6
-10.800	81719.5
-10.795	81718.5
-10.790	81718.5
-10.785	81718.5
-10.780	81726.5
-10.775	81719.5
-10.770	81724.5
-10.765	81730.5
-10.760	81721.5
-10.755	81702.6
-10.750	81720.5
-10.745	81737.5
-10.740	81750.5
-10.735	81743.5
-10.730	81750.5
-10.725	81744.5
-10.720	81759.5
-10.715	81751.5
-10.710	81768.5
-10.705	81760.5
-10.700	81767.5
-10.695	81765.5
-10.690	81734.5
-10.685	81741.5
-10.680	81763.5
-10.675	81761.5
-10.670	81762.5
-10.665	81758.5
-10.660	81758.5
-10.655	81765.5
-10.650	81771.5
-10.645	81771.5
-10.640	81769.5
-10.635	81774.5
-10.630	81777.5
-10.625	81748.5
-10.620	81739.5
-10.615	81743.5
-10.610	81780.5
-10.605	81772.5
-10.600	81773.5
-10.595	81766.5
-10.590	81775.5
-10.585	81778.5
-10.580	81787.5
-10.575	81783.5
-10.570	81789.5
-10.565	81786.5
-10.560	81771.5
-10.555	81744.5
-10.550	81762.5
-10.545	81780.5
-10.540	81770.5
-10.535	81764.5
-10.530	81754.5
-10.525	81755.5
-10.520	81746.5
-10.515	81757.5
-10.510	81768.5
-10.505	81767.5
-10.500	81775.5
-10.495	81756.5
-10.490	81729.5
-10.485	81722.5
-10.480	81748.5
-10.475	81749.5
-10.470	81758.5
-10.465	81742.5
-10.460	81755.5
-10.455	81753.5
-10.450	81756.5
-10.445	81742.5
-10.440	81751.5
-10.435	81732.5
-10.430	81736.5
-10.425	81701.5
-10.420	81697.5
-10.415	81706.5
-10.410	81721.5
-10.405	81729.5
-10.400	81733.5
-10.395	81717.5
-10.390	81716.5
-10.385	81706.5
-10.380	81712.5
-10.375	81698.5
-10.370	81715.5
-10.365	81706.5
-10.360	81695.5
-10.355	81680.6
-10.350	81690.5
-10.345	81717.5
-10.340	81718.5
-10.335	81721.5
-10.330	81722.5
-10.325	81720.5
-10.320	81732.5
-10.315	81727.5
-10.310	81739.5
-10.305	81732.5
-10.300	81729.5
-10.295	81714.5
-10.290	81691.5
-10.285	81705.5
-10.280	81724.5
-10.275	81732.5
-10.270	81728.5
-10.265	81719.5
-10.260	81721.5
-10.255	81717.5
-10.250	81713.5
-10.245	81720.5
-10.240	81724.5
-10.235	81710.5
-10.230	81721.5
-10.225	81689.5
-10.220	81689.5
-10.215	81702.5
-10.210	81727.5
-10.205	81720.5
-10.200	81725.5
-10.195	81719.5
-10.190	81730.5
-10.185	81724.5
-10.180	81744.5
-10.175	81743.5
-10.170	81756.5
-10.165	81740.5
-10.160	81729.5
-10.155	81711.5
-10.150	81721.5
-10.145	81746.5
-10.140	81743.5
-10.135	81734.5
-10.130	81734.5
-10.125	81734.5
-10.120	81735.5
-10.115	81737.5
-10.110	81742.5
-10.105	81742.5
-10.100	81740.5
-10.095	81732.5
-10.090	81706.5
-10.085	81713.5
-10.080	81736.5
-10.075	81742.5
-10.070	81749.5
-10.065	81733.5
-10.060	81730.5
-10.055	81730.5
-10.050	81739.5
-10.045	81746.5
-10.040	81760.5
-10.035	81756.5
-10.030	81749.5
-10.025	81712.5
-10.020	81718.5
-10.015	81730.5
-10.010	81748.5
-10.005	81740.5
-10.000	81737.5
-9.995	81733.5
-9.990	81747.5
-9.985	81735.5
-9.980	81746.5
-9.975	81746.5
-9.970	81734.5
-9.965	81743.5
-9.960	81733.5
-9.955	81703.5
-9.950	81725.5
-9.945	81747.5
-9.940	81739.5
-9.935	81734.5
-9.930	81741.5
-9.925	81727.5
-9.920	81748.5
-9.915	81746.5
-9.910	81757.5
-9.905	81750.5
-9.900	81768.5
-9.895	81755.5
-9.890	81731.5
-9.885	81732.5
-9.880	81752.5
-9.875	81750.5
-9.870	81740.5
-9.865	81737.5
-9.860	81734.5
-9.855	81734.5
-9.850	81732.5
-9.845	81741.5
-9.840	81738.5
-9.835	81745.5
-9.830	81740.5
-9.825	81716.5
-9.820	81706.5
-9.815	81716.5
-9.810	81735.5
-9.805	81743.5
-9.800	81747.5
-9.795	81732.5
-9.790	81737.5
-9.785	81735.5
-9.780	81747.5
-9.775	81746.5
-9.770	81744.5
-9.765	81750.5
-9.760	81716.5
-9.755	81704.5
-9.750	81727.5
-9.745	81739.5
-9.740	81731.5
-9.735	81733.5
-9.730	81722.5
-9.725	81716.5
-9.720	81722.5
-9.715	81719.5
-9.710	81726.5
-9.705	81732.5
-9.700	81728.5
-9.695	81715.5
-9.690	81695.5
-9.685	81699.5
-9.680	81727.5
-9.675	81728.5
-9.670	81726.5
-9.665	81731.5
-9.660	81726.5
-9.655	81733.5
-9.650	81745.5
-9.645	81746.5
-9.640	81747.5
-9.635	81739.5
-9.630	81746.5
-9.625	81705.5
-9.620	81709.5
-9.615	81730.5
-9.610	81736.5
-9.605	81733.5
-9.600	81731.5
-9.595	81719.5
-9.590	81720.5
-9.585	81721.5
-9.580	81726.5
-9.575	81722.5
-9.570	81740.5
-9.565	81747.5
-9.560	81724.5
-9.555	81699.5
-9.550	81715.5
-9.545	81738.5
-9.540	81731.5
-9.535	81732.5
-9.530	81742.5
-9.525	81734.5
-9.520	81742.5
-9.515	81732.5
-9.510	81759.5
-9.505	81737.5
-9.500	81738.5
-9.495	81731.5
-9.490	81698.5
-9.485	81716.5
-9.480	81741.4
-9.475	81742.3
-9.470	81717.3
-9.465	81714.2
-9.460	81696.0
-9.455	81654.8
-9.450	81645.6
-9.445	81620.3
-9.440	81602.0
-9.435	81568.6
-9.430	81521.3
-9.425	81424.9
-9.420	81345.5
-9.415	81280.1
-9.410	81274.6
-9.405	81253.2
-9.400	81258.7
-9.395	81268.3
-9.390	81286.0
-9.385	81294.8
-9.380	81339.8
-9.375	81397.0
-9.370	81451.4
-9.365	81429.9
-9.360	81408.3
-9.355	81460.6
-9.350	81595.8
-9.345	81640.0
-9.340	81640.1
-9.335	81622.3
-9.330	81592.4
-9.325	81622.5
-9.320	81622.6
-9.315	81571.7
-9.310	81466.9
-9.305	81395.0
-9.300	81412.1
-9.295	81393.1
-9.290	81364.2
-9.285	81365.3
-9.280	81378.3
-9.275	81340.4
-9.270	81333.4
-9.265	81305.5
-9.260	81216.6
-9.255	81116.7
-9.250	80984.8
-9.245	80802.0
-9.240	80691.1
-9.235	80709.1
-9.230	80873.1
-9.225	81047.0
-9.220	81197.9
-9.215	81276.8
-9.210	81296.8
-9.205	81286.9
-9.200	81298.9
-9.195	81344.9
-9.190	81419.9
-9.185	81486.9
-9.180	81501.9
-9.175	81503.9
-9.170	81462.0
-9.165	81414.0
-9.160	81405.0
-9.155	81446.0
-9.150	81510.0
-9.145	81555.0
-9.140	81538.0
-9.135	81517.1
-9.130	81450.1
-9.125	81373.2
-9.120	81426.2
-9.115	81505.1
-9.110	81540.1
-9.105	81557.1
-9.100	81569.1
-9.095	81557.1
-9.090	81568.1
-9.085	81596.1
-9.080	81628.1
-9.075	81618.1
-9.070	81618.2
-9.065	81608.2
-9.060	81621.2
-9.055	81623.2
-9.050	81638.2
-9.045	81631.2
-9.040	81631.2
-9.035	81633.2
-9.030	81645.2
-9.025	81613.3
-9.020	81617.3
-9.015	81643.3
-9.010	81661.2
-9.005	81666.3
-9.000	81669.3
-8.995	81679.3
-8.990	81681.3
-8.985	81666.3
-8.980	81676.3
-8.975	81671.3
-8.970	81654.3
-8.965	81653.3
-8.960	81655.3
-8.955	81661.3
-8.950	81671.3
-8.945	81682.3
-8.940	81689.3
-8.935	81693.4
-8.930	81692.4
-8.925	81671.4
-8.920	81677.4
-8.915	81687.4
-8.910	81703.4
-8.905	81707.4
-8.900	81694.4
-8.895	81678.4
-8.890	81663.4
-8.885	81670.4
-8.880	81702.4
-8.875	81689.4
-8.870	81694.4
-8.865	81705.4
-8.860	81708.4
-8.855	81696.5
-8.850	81706.4
-8.845	81708.5
-8.840	81709.5
-8.835	81716.5
-8.830	81730.4
-8.825	81687.5
-8.820	81698.5
-8.815	81703.5
-8.810	81709.5
-8.805	81702.5
-8.800	81715.5
-8.795	81723.5
-8.790	81728.5
-8.785	81720.5
-8.780	81721.5
-8.775	81711.5
-8.770	81700.5
-8.765	81698.5
-8.760	81677.6
-8.755	81685.6
-8.750	81703.5
-8.745	81736.5
-8.740	81733.5
-8.735	81719.5
-8.730	81714.6
-8.725	81713.6
-8.720	81702.6
-8.715	81710.6
-8.710	81739.5
-8.705	81748.5
-8.700	81754.5
-8.695	81726.6
-8.690	81703.6
-8.685	81718.6
-8.680	81753.6
-8.675	81737.6
-8.670	81735.6
-8.665	81740.6
-8.660	81732.6
-8.655	81734.6
-8.650	81743.6
-8.645	81764.6
-8.640	81762.6
-8.635	81759.6
-8.630	81751.6
-8.625	81719.6
-8.620	81723.6
-8.615	81749.6
-8.610	81765.6
-8.605	81749.6
-8.600	81758.6
-8.595	81760.6
-8.590	81760.6
-8.585	81750.6
-8.580	81753.6
-8.575	81766.6
-8.570	81764.6
-8.565	81737.6
-8.560	81708.7
-8.555	81704.7
-8.550	81701.7
-8.545	81699.7
-8.540	81665.7
-8.535	81584.8
-8.530	81510.8
-8.525	81390.9
-8.520	81265.0
-8.515	81150.1
-8.510	81029.2
-8.505	80876.3
-8.500	80758.4
-8.495	80652.5
-8.490	80598.6
-8.485	80606.6
-8.480	80547.6
-8.475	80368.8
-8.470	80200.9
-8.465	80281.8
-8.460	80600.6
-8.455	80996.3
-8.450	81342.0
-8.445	81480.9
-8.440	81534.9
-8.435	81558.9
-8.430	81574.8
-8.425	81547.9
-8.420	81556.9
-8.415	81568.9
-8.410	81574.8
-8.405	81573.8
-8.400	81581.8
-8.395	81593.8
-8.390	81621.8
-8.385	81632.8
-8.380	81648.8
-8.375	81664.8
-8.370	81706.8
-8.365	81723.8
-8.360	81717.8
-8.355	81711.8
-8.350	81746.7
-8.345	81771.7
-8.340	81779.7
-8.335	81779.7
-8.330	81790.7
-8.325	81808.7
-8.320	81818.7
-8.315	81814.7
-8.310	81810.7
-8.305	81822.7
-8.300	81828.7
-8.295	81810.7
-8.290	81797.7
-8.285	81811.7
-8.280	81828.7
-8.275	81823.7
-8.270	81823.7
-8.265	81822.7
-8.260	81826.7
-8.255	81817.7
-8.250	81827.7
-8.245	81835.7
-8.240	81834.7
-8.235	81825.7
-8.230	81818.7
-8.225	81790.8
-8.220	81807.7
-8.215	81817.7
-8.210	81833.7
-8.205	81828.7
-8.200	81822.7
-8.195	81816.7
-8.190	81838.7
-8.185	81840.7
-8.180	81839.7
-8.175	81835.7
-8.170	81834.7
-8.165	81834.7
-8.160	81807.8
-8.155	81792.8
-8.150	81817.8
-8.145	81837.7
-8.140	81827.8
-8.135	81815.8
-8.130	81826.8
-8.125	81817.8
-8.120	81825.8
-8.115	81814.8
-8.110	81817.8
-8.105	81822.8
-8.100	81829.8
-8.095	81798.8
-8.090	81783.8
-8.085	81787.8
-8.080	81830.8
-8.075	81818.8
-8.070	81817.8
-8.065	81818.8
-8.060	81822.8
-8.055	81824.8
-8.050	81829.8
-8.045	81816.8
-8.040	81812.8
-8.035	81808.8
-8.030	81799.8
-8.025	81752.8
-8.020	81744.9
-8.015	81751.9
-8.010	81750.9
-8.005	81729.9
-8.000	81723.9
-7.995	81711.9
-7.990	81713.9
-7.985	81697.9
-7.980	81707.9
-7.975	81721.9
-7.970	81736.9
-7.965	81751.9
-7.960	81724.9
-7.955	81732.9
-7.950	81756.9
-7.945	81778.8
-7.940	81793.8
-7.935	81798.8
-7.930	81800.8
-7.925	81792.8
-7.920	81806.8
-7.915	81799.8
-7.910	81807.8
-7.905	81805.8
-7.900	81802.8
-7.895	81778.9
-7.890	81770.9
-7.885	81769.9
-7.880	81793.8
-7.875	81788.9
-7.870	81797.8
-7.865	81780.9
-7.860	81787.9
-7.855	81788.9
-7.850	81794.9
-7.845	81789.9
-7.840	81796.9
-7.835	81790.9
-7.830	81788.9
-7.825	81753.9
-7.820	81766.9
-7.815	81778.9
-7.810	81800.9
-7.805	81807.9
-7.800	81806.9
-7.795	81788.9
-7.790	81797.9
-7.785	81799.9
-7.780	81794.9
-7.775	81796.9
-7.770	81803.9
-7.765	81798.9
-7.760	81763.9
-7.755	81767.9
-7.750	81798.9
-7.745	81800.9
-7.740	81790.9
-7.735	81778.9
-7.730	81789.9
-7.725	81784.9
-7.720	81793.9
-7.715	81782.9
-7.710	81794.9
-7.705	81795.9
-7.700	81793.9
-7.695	81775.9
-7.690	81759.9
-7.685	81763.9
-7.680	81798.9
-7.675	81797.9
-7.670	81783.9
-7.665	81778.9
-7.660	81778.9
-7.655	81771.9
-7.650	81763.9
-7.645	81748.9
-7.640	81748.9
-7.635	81725.9
-7.630	81702.0
-7.625	81671.0
-7.620	81674.0
-7.615	81686.0
-7.610	81691.0
-7.605	81700.0
-7.600	81714.0
-7.595	81721.0
-7.590	81721.0
-7.585	81733.0
-7.580	81734.0
-7.575	81738.9
-7.570	81746.9
-7.565	81740.9
-7.560	81706.0
-7.555	81697.0
-7.550	81721.0
-7.545	81741.0
-7.540	81746.9
-7.535	81753.9
-7.530	81760.9
-7.525	81778.9
-7.520	81785.9
-7.515	81786.9
-7.510	81788.9
-7.505	81792.9
-7.500	81792.9
-7.495	81757.9
-7.490	81764.9
-7.485	81774.9
-7.480	81794.9
-7.475	81790.9
-7.470	81789.9
-7.465	81783.9
-7.460	81787.9
-7.455	81782.9
-7.450	81795.9
-7.445	81792.9
-7.440	81800.9
-7.435	81787.9
-7.430	81789.9
-7.425	81753.0
-7.420	81771.9
-7.415	81785.9
-7.410	81788.9
-7.405	81795.9
-7.400	81796.9
-7.395	81788.9
-7.390	81793.9
-7.385	81792.9
-7.380	81801.9
-7.375	81797.9
-7.370	81808.9
-7.365	81802.9
-7.360	81773.0
-7.355	81764.0
-7.350	81795.9
-7.345	81786.9
-7.340	81783.0
-7.335	81775.0
-7.330	81784.0
-7.325	81772.0
-7.320	81780.0
-7.315	81781.0
-7.310	81788.0
-7.305	81768.0
-7.300	81781.0
-7.295	81750.0
-7.290	81738.0
-7.285	81751.0
-7.280	81781.0
-7.275	81770.0
-7.270	81786.0
-7.265	81777.0
-7.260	81783.0
-7.255	81797.0
-7.250	81796.0
-7.245	81797.0
-7.240	81812.9
-7.235	81811.9
-7.230	81799.0
-7.225	81781.0
-7.220	81798.0
-7.215	81816.9
-7.210	81832.9
-7.205	81829.9
-7.200	81821.9
-7.195	81817.9
-7.190	81831.9
-7.185	81825.9
-7.180	81836.9
-7.175	81839.9
-7.170	81843.9
-7.165	81834.9
-7.160	81803.0
-7.155	81800.0
-7.150	81817.9
-7.145	81818.9
-7.140	81818.0
-7.135	81814.0
-7.130	81807.0
-7.125	81802.0
-7.120	81803.0
-7.115	81792.0
-7.110	81792.0
-7.105	81793.0
-7.100	81786.0
-7.095	81757.0
-7.090	81758.0
-7.085	81779.0
-7.080	81813.0
-7.075	81807.0
-7.070	81817.0
-7.065	81826.0
-7.060	81835.9
-7.055	81840.9
-7.050	81858.9
-7.045	81863.9
-7.040	81882.9
-7.035	81886.9
-7.030	81874.9
-7.025	81839.9
-7.020	81854.9
-7.015	81866.9
-7.010	81872.9
-7.005	81859.9
-7.000	81866.9
-6.995	81865.9
-6.990	81880.9
-6.985	81869.9
-6.980	81873.9
-6.975	81870.9
-6.970	81867.9
-6.965	81861.9
-6.960	81818.0
-6.955	81818.0
-6.950	81843.0
-6.945	81844.0
-6.940	81828.0
-6.935	81821.0
-6.930	81819.0
-6.925	81809.0
-6.920	81802.0
-6.915	81792.0
-6.910	81794.0
-6.905	81793.0
-6.900	81802.0
-6.895	81758.0
-6.890	81744.0
-6.885	81750.0
-6.880	81765.0
-6.875	81759.0
-6.870	81759.0
-6.865	81734.0
-6.860	81734.0
-6.855	81730.0
-6.850	81731.0
-6.845	81726.0
-6.840	81730.0
-6.835	81713.1
-6.830	81693.1
-6.825	81659.1
-6.820	81663.1
-6.815	81675.1
-6.810	81660.1
-6.805	81652.1
-6.800	81637.1
-6.795	81642.1
-6.790	81645.1
-6.785	81640.1
-6.780	81638.1
-6.775	81621.1
-6.770	81622.1
-6.765	81615.1
-6.760	81596.1
-6.755	81608.1
-6.750	81635.1
-6.745	81650.1
-6.740	81645.1
-6.735	81649.1
-6.730	81650.1
-6.725	81664.1
-6.720	81685.1
-6.715	81706.1
-6.710	81724.1
-6.705	81708.1
-6.700	81694.1
-6.695	81664.1
-6.690	81670.1
-6.685	81687.1
-6.680	81706.1
-6.675	81705.1
-6.670	81710.1
-6.665	81717.1
-6.660	81744.0
-6.655	81761.0
-6.650	81785.0
-6.645	81791.0
-6.640	81799.0
-6.635	81802.0
-6.630	81802.0
-6.625	81775.0
-6.620	81783.0
-6.615	81805.0
-6.610	81819.0
-6.605	81811.0
-6.600	81814.0
-6.595	81815.0
-6.590	81825.0
-6.585	81818.0
-6.580	81820.0
-6.575	81821.0
-6.570	81815.0
-6.565	81801.0
-6.560	81777.0
-6.555	81781.0
-6.550	81808.0
-6.545	81805.0
-6.540	81790.0
-6.535	81779.0
-6.530	81784.0
-6.525	81778.0
-6.520	81792.0
-6.515	81787.0
-6.510	81792.0
-6.505	81795.0
-6.500	81794.0
-6.495	81758.1
-6.490	81755.1
-6.485	81767.0
-6.480	81795.0
-6.475	81798.0
-6.470	81791.0
-6.465	81789.0
-6.460	81782.0
-6.455	81791.0
-6.450	81804.0
-6.445	81792.0
-6.440	81797.0
-6.435	81793.0
-6.430	81765.0
-6.425	81751.1
-6.420	81765.0
-6.415	81782.0
-6.410	81791.0
-6.405	81781.0
-6.400	81786.0
-6.395	81773.0
-6.390	81782.0
-6.385	81779.0
-6.380	81789.0
-6.375	81779.0
-6.370	81794.0
-6.365	81787.0
-6.360	81762.1
-6.355	81757.1
-6.350	81787.0
-6.345	81785.0
-6.340	81789.0
-6.335	81782.0
-6.330	81778.0
-6.325	81781.0
-6.320	81778.0
-6.315	81776.1
-6.310	81775.1
-6.305	81780.0
-6.300	81774.0
-6.295	81739.1
-6.290	81745.1
-6.285	81771.1
-6.280	81770.1
-6.275	81765.1
-6.270	81767.1
-6.265	81754.1
-6.260	81759.1
-6.255	81752.1
-6.250	81771.1
-6.245	81774.1
-6.240	81783.0
-6.235	81781.1
-6.230	81769.1
-6.225	81755.1
-6.220	81773.1
-6.215	81798.0
-6.210	81797.0
-6.205	81784.0
-6.200	81801.0
-6.195	81795.0
-6.190	81794.0
-6.185	81803.0
-6.180	81805.0
-6.175	81801.0
-6.170	81797.0
-6.165	81781.1
-6.160	81755.1
-6.155	81758.1
-6.150	81780.1
-6.145	81784.1
-6.140	81777.1
-6.135	81776.1
-6.130	81781.1
-6.125	81776.1
-6.120	81778.1
-6.115	81784.1
-6.110	81791.0
-6.105	81781.1
-6.100	81790.1
-6.095	81741.1
-6.090	81736.1
-6.085	81753.1
-6.080	81788.1
-6.075	81776.1
-6.070	81782.1
-6.065	81779.1
-6.060	81773.1
-6.055	81779.1
-6.050	81785.1
-6.045	81787.1
-6.040	81788.1
-6.035	81783.1
-6.030	81763.1
-6.025	81748.1
-6.020	81766.1
-6.015	81785.1
-6.010	81779.1
-6.005	81772.1
-6.000	81781.1
-5.995	81773.1
-5.990	81768.1
-5.985	81767.1
-5.980	81772.1
-5.975	81770.1
-5.970	81788.1
-5.965	81784.1
-5.960	81745.1
-5.955	81753.1
-5.950	81786.1
-5.945	81784.1
-5.940	81780.1
-5.935	81779.1
-5.930	81790.1
-5.925	81787.1
-5.920	81786.1
-5.915	81793.1
-5.910	81794.1
-5.905	81798.1
-5.900	81797.1
-5.895	81764.1
-5.890	81766.1
-5.885	81779.1
-5.880	81784.1
-5.875	81789.1
-5.870	81781.1
-5.865	81777.1
-5.860	81788.1
-5.855	81765.1
-5.850	81768.1
-5.845	81775.1
-5.840	81790.1
-5.835	81778.1
-5.830	81764.1
-5.825	81741.1
-5.820	81751.1
-5.815	81772.1
-5.810	81778.1
-5.805	81776.1
-5.800	81777.1
-5.795	81773.1
-5.790	81774.1
-5.785	81786.1
-5.780	81783.1
-5.775	81785.1
-5.770	81792.0
-5.765	81774.1
-5.760	81743.1
-5.755	81757.0
-5.750	81780.0
-5.745	81778.0
-5.740	81770.0
-5.735	81762.0
-5.730	81771.0
-5.725	81772.0
-5.720	81785.0
-5.715	81781.9
-5.710	81792.9
-5.705	81796.9
-5.700	81805.9
-5.695	81776.9
-5.690	81784.9
-5.685	81792.9
-5.680	81810.0
-5.675	81803.0
-5.670	81799.0
-5.665	81805.0
-5.660	81808.0
-5.655	81808.0
-5.650	81806.0
-5.645	81809.1
-5.640	81798.1
-5.635	81798.1
-5.630	81778.1
-5.625	81749.1
-5.620	81764.1
-5.615	81788.1
-5.610	81794.1
-5.605	81788.1
-5.600	81787.1
-5.595	81780.1
-5.590	81781.1
-5.585	81777.1
-5.580	81783.1
-5.575	81777.1
-5.570	81780.1
-5.565	81757.1
-5.560	81738.1
-5.555	81744.1
-5.550	81761.1
-5.545	81765.1
-5.540	81754.1
-5.535	81752.1
-5.530	81754.1
-5.525	81749.1
-5.520	81743.1
-5.515	81755.1
-5.510	81761.1
-5.505	81743.1
-5.500	81737.1
-5.495	81702.2
-5.490	81699.2
-5.485	81716.2
-5.480	81718.2
-5.475	81688.2
-5.470	81687.2
-5.465	81663.2
-5.460	81652.2
-5.455	81617.2
-5.450	81600.3
-5.445	81563.3
-5.440	81536.4
-5.435	81505.6
-5.430	81416.8
-5.425	81330.1
-5.420	81277.4
-5.415	81154.9
-5.410	80979.4
-5.405	80795.9
-5.400	80660.6
-5.395	80596.2
-5.390	80559.8
-5.385	80445.5
-5.380	80342.3
-5.375	80319.9
-5.370	80271.5
-5.365	80151.2
-5.360	80015.9
-5.355	80021.3
-5.350	80170.3
-5.345	80384.9
-5.340	80590.4
-5.335	80745.8
-5.330	80884.3
-5.325	81021.8
-5.320	81139.4
-5.315	81205.1
-5.310	81264.8
-5.305	81299.6
-5.300	81335.3
-5.295	81320.2
-5.290	81345.0
-5.285	81356.9
-5.280	81374.7
-5.275	81370.6
-5.270	81374.5
-5.265	81369.4
-5.260	81376.3
-5.255	81401.2
-5.250	81427.1
-5.245	81441.1
-5.240	81471.0
-5.235	81488.9
-5.230	81469.8
-5.225	81462.8
-5.220	81484.7
-5.215	81507.6
-5.210	81508.6
-5.205	81505.5
-5.200	81528.5
-5.195	81549.4
-5.190	81576.3
-5.185	81567.3
-5.180	81581.2
-5.175	81585.2
-5.170	81596.1
-5.165	81587.1
-5.160	81575.1
-5.155	81595.0
-5.150	81629.0
-5.145	81629.9
-5.140	81639.9
-5.135	81647.9
-5.130	81647.8
-5.125	81664.8
-5.120	81681.8
-5.115	81679.7
-5.110	81673.7
-5.105	81652.7
-5.100	81656.7
-5.095	81619.7
-5.090	81645.6
-5.085	81688.6
-5.080	81711.5
-5.075	81706.5
-5.070	81690.5
-5.065	81684.5
-5.060	81672.5
-5.055	81680.5
-5.050	81689.5
-5.045	81670.5
-5.040	81683.4
-5.035	81689.4
-5.030	81667.4
-5.025	81669.4
-5.020	81691.3
-5.015	81708.3
-5.010	81723.3
-5.005	81707.3
-5.000	81711.3
-4.995	81716.3
-4.990	81732.2
-4.985	81730.2
-4.980	81740.2
-4.975	81717.2
-4.970	81711.2
-4.965	81704.2
-4.960	81685.1
-4.955	81700.1
-4.950	81734.1
-4.945	81732.1
-4.940	81737.0
-4.935	81745.0
-4.930	81739.0
-4.925	81749.0
-4.920	81762.0
-4.915	81750.0
-4.910	81759.0
-4.905	81747.0
-4.900	81747.0
-4.895	81709.0
-4.890	81720.0
-4.885	81731.0
-4.880	81745.9
-4.875	81730.9
-4.870	81733.9
-4.865	81735.9
-4.860	81758.9
-4.855	81772.9
-4.850	81773.9
-4.845	81784.9
-4.840	81782.9
-4.835	81779.9
-4.830	81736.9
-4.825	81734.9
-4.820	81762.8
-4.815	81771.8
-4.810	81767.8
-4.805	81765.8
-4.800	81758.8
-4.795	81771.8
-4.790	81781.7
-4.785	81790.7
-4.780	81787.7
-4.775	81782.7
-4.770	81799.7
-4.765	81771.7
-4.760	81750.7
-4.755	81766.7
-4.750	81795.7
-4.745	81796.7
-4.740	81805.7
-4.735	81803.7
-4.730	81804.6
-4.725	81807.6
-4.720	81806.6
-4.715	81801.6
-4.710	81808.6
-4.705	81809.6
-4.700	81808.6
-4.695	81771.6
-4.690	81782.6
-4.685	81789.6
-4.680	81776.6
-4.675	81765.6
-4.670	81782.6
-4.665	81795.6
-4.660	81788.6
-4.655	81778.6
-4.650	81788.5
-4.645	81789.5
-4.640	81791.5
-4.635	81792.5
-4.630	81772.5
-4.625	81764.5
-4.620	81790.5
-4.615	81802.5
-4.610	81803.5
-4.605	81792.5
-4.600	81809.5
-4.595	81816.5
-4.590	81814.5
-4.585	81817.5
-4.580	81816.5
-4.575	81817.5
-4.570	81821.4
-4.565	81800.5
-4.560	81784.5
-4.555	81813.4
-4.550	81831.4
-4.545	81828.4
-4.540	81820.4
-4.535	81810.4
-4.530	81805.4
-4.525	81801.4
-4.520	81814.4
-4.515	81812.4
-4.510	81829.4
-4.505	81827.4
-4.500	81837.4
-4.495	81807.4
-4.490	81821.4
-4.485	81845.3
-4.480	81851.3
-4.475	81846.3
-4.470	81861.3
-4.465	81865.3
-4.460	81875.3
-4.455	81868.3
-4.450	81873.3
-4.445	81870.3
-4.440	81863.3
-4.435	81864.3
-4.430	81847.3
-4.425	81840.3
-4.420	81854.3
-4.415	81873.3
-4.410	81885.2
-4.405	81865.2
-4.400	81873.2
-4.395	81870.2
-4.390	81884.2
-4.385	81866.2
-4.380	81877.2
-4.375	81870.2
-4.370	81892.2
-4.365	81877.2
-4.360	81864.2
-4.355	81871.2
-4.350	81905.2
-4.345	81899.2
-4.340	81895.2
-4.335	81886.2
-4.330	81904.2
-4.325	81895.2
-4.320	81912.2
-4.315	81908.2
-4.310	81923.1
-4.305	81913.1
-4.300	81905.1
-4.295	81879.2
-4.290	81893.1
-4.285	81908.1
-4.280	81922.1
-4.275	81922.1
-4.270	81914.1
-4.265	81920.1
-4.260	81919.1
-4.255	81914.1
-4.250	81908.1
-4.245	81894.1
-4.240	81913.1
-4.235	81913.1
-4.230	81902.1
-4.225	81892.1
-4.220	81903.1
-4.215	81915.1
-4.210	81912.1
-4.205	81897.1
-4.200	81903.1
-4.195	81892.1
-4.190	81891.1
-4.185	81897.1
-4.180	81908.1
-4.175	81891.1
-4.170	81889.0
-4.165	81861.0
-4.160	81850.0
-4.155	81852.9
-4.150	81862.8
-4.145	81845.7
-4.140	81841.5
-4.135	81837.3
-4.130	81829.0
-4.125	81821.7
-4.120	81807.3
-4.115	81769.8
-4.110	81740.3
-4.105	81713.8
-4.100	81687.2
-4.095	81614.6
-4.090	81578.9
-4.085	81550.3
-4.080	81537.6
-4.075	81496.0
-4.070	81436.5
-4.065	81432.1
-4.060	81502.7
-4.055	81587.6
-4.050	81629.7
-4.045	81641.1
-4.040	81680.5
-4.035	81728.9
-4.030	81772.3
-4.025	81856.7
-4.020	81969.9
-4.015	81994.2
-4.010	81973.4
-4.005	81980.6
-4.000	82005.8
-3.995	82000.0
-3.990	82001.1
-3.985	82017.2
-3.980	82019.4
-3.975	81998.5
-3.970	81972.6
-3.965	81903.8
-3.960	81894.8
-3.955	81891.9
-3.950	81930.0
-3.945	81904.1
-3.940	81832.2
-3.935	81725.3
-3.930	81746.4
-3.925	81764.4
-3.920	81399.9
-3.915	80728.6
-3.910	80487.7
-3.905	80776.3
-3.900	80970.1
-3.895	81028.3
-3.890	81373.2
-3.885	81810.8
-3.880	81905.6
-3.875	81711.8
-3.870	81597.0
-3.865	81716.0
-3.860	81852.9
-3.855	81834.9
-3.850	81668.0
-3.845	81469.3
-3.840	81390.4
-3.835	81490.3
-3.830	81619.2
-3.825	81670.2
-3.820	81673.3
-3.815	81696.3
-3.810	81719.3
-3.805	81711.3
-3.800	81713.4
-3.795	81685.5
-3.790	81709.5
-3.785	81815.4
-3.780	81914.3
-3.775	81897.3
-3.770	81821.4
-3.765	81759.5
-3.760	81769.5
-3.755	81828.5
-3.750	81912.5
-3.745	81972.4
-3.740	81977.4
-3.735	81939.4
-3.730	81890.5
-3.725	81869.6
-3.720	81854.6
-3.715	81865.6
-3.710	81858.6
-3.705	81858.6
-3.700	81864.7
-3.695	81849.7
-3.690	81841.7
-3.685	81837.7
-3.680	81815.7
-3.675	81769.8
-3.670	81723.8
-3.665	81675.9
-3.660	81660.9
-3.655	81691.9
-3.650	81765.9
-3.645	81871.8
-3.640	81990.7
-3.635	82045.7
-3.630	81982.7
-3.625	81881.8
-3.620	81816.9
-3.615	81813.9
-3.610	81842.9
-3.605	81853.9
-3.600	81813.0
-3.595	81776.1
-3.590	81795.1
-3.585	81813.1
-3.580	81811.1
-3.575	81792.2
-3.570	81832.2
-3.565	81817.3
-3.560	81760.4
-3.555	81739.5
-3.550	81781.5
-3.545	81744.6
-3.540	81671.7
-3.535	81623.8
-3.530	81650.9
-3.525	81661.9
-3.520	81664.0
-3.515	81699.0
-3.510	81736.1
-3.505	81717.1
-3.500	81710.2
-3.495	81762.2
-3.490	81893.2
-3.485	81949.1
-3.480	81918.2
-3.475	81910.2
-3.470	81940.2
-3.465	81945.2
-3.460	81932.2
-3.455	81895.2
-3.450	81901.2
-3.445	81892.2
-3.440	81905.2
-3.435	81895.2
-3.430	81840.3
-3.425	81797.4
-3.420	81747.5
-3.415	81718.6
-3.410	81741.6
-3.405	81820.6
-3.400	81883.7
-3.395	81865.8
-3.390	81786.9
-3.385	81745.1
-3.380	81796.2
-3.375	81869.2
-3.370	81908.3
-3.365	81853.4
-3.360	81793.6
-3.355	81775.6
-3.350	81804.6
-3.345	81816.5
-3.340	81819.4
-3.335	81834.4
-3.330	81849.3
-3.325	81853.3
-3.320	81878.2
-3.315	81890.2
-3.310	81889.2
-3.305	81902.1
-3.300	81913.1
-3.295	81883.1
-3.290	81916.1
-3.285	81951.1
-3.280	81979.1
-3.275	81989.1
-3.270	81982.1
-3.265	81983.1
-3.260	81989.1
-3.255	81977.1
-3.250	81968.1
-3.245	81959.1
-3.240	81955.1
-3.235	81950.1
-3.230	81920.2
-3.225	81932.2
-3.220	81957.2
-3.215	81956.2
-3.210	81929.2
-3.205	81915.2
-3.200	81916.2
-3.195	81910.3
-3.190	81903.3
-3.185	81887.3
-3.180	81902.3
-3.175	81903.3
-3.170	81899.3
-3.165	81840.4
-3.160	81826.4
-3.155	81825.4
-3.150	81837.4
-3.145	81808.4
-3.140	81793.4
-3.135	81778.5
-3.130	81797.5
-3.125	81800.5
-3.120	81796.5
-3.115	81781.5
-3.110	81757.5
-3.105	81733.5
-3.100	81713.6
-3.095	81693.6
-3.090	81707.6
-3.085	81728.6
-3.080	81669.6
-3.075	81520.5
-3.070	81481.4
-3.065	81754.3
-3.060	82103.3
-3.055	82356.2
-3.050	82585.0
-3.045	82641.0
-3.040	82555.2
-3.035	82449.3
-3.030	82376.4
-3.025	82268.4
-3.020	82108.5
-3.015	81958.6
-3.010	81926.6
-3.005	81932.6
-3.000	81941.6
-2.995	81923.6
-2.990	81933.6
-2.985	81976.6
-2.980	82028.5
-2.975	82047.5
-2.970	81968.6
-2.965	81832.7
-2.960	81755.8
-2.955	81744.8
-2.950	81721.9
-2.945	81705.9
-2.940	81719.9
-2.935	81761.9
-2.930	81804.8
-2.925	81793.8
-2.920	81786.8
-2.915	81781.8
-2.910	81809.8
-2.905	81806.8
-2.900	81781.9
-2.895	81750.9
-2.890	81746.9
-2.885	81718.9
-2.880	81674.0
-2.875	81657.0
-2.870	81685.0
-2.865	81712.0
-2.860	81740.0
-2.855	81746.0
-2.850	81740.0
-2.845	81710.0
-2.840	81708.0
-2.835	81734.0
-2.830	81745.0
-2.825	81766.0
-2.820	81785.0
-2.815	81762.0
-2.810	81757.0
-2.805	81777.0
-2.800	81833.9
-2.795	81873.9
-2.790	81874.9
-2.785	81794.0
-2.780	81724.1
-2.775	81661.1
-2.770	81660.1
-2.765	81707.1
-2.760	81785.1
-2.755	81825.0
-2.750	81843.0
-2.745	81778.1
-2.740	81709.1
-2.735	81679.2
-2.730	81717.2
-2.725	81714.2
-2.720	81695.2
-2.715	81719.2
-2.710	81752.1
-2.705	81708.2
-2.700	81685.2
-2.695	81731.2
-2.690	81830.1
-2.685	81843.1
-2.680	81758.2
-2.675	81724.2
-2.670	81766.2
-2.665	81758.3
-2.660	81719.3
-2.655	81715.3
-2.650	81744.3
-2.645	81776.2
-2.640	81812.2
-2.635	81814.2
-2.630	81751.3
-2.625	81725.3
-2.620	81733.3
-2.615	81736.3
-2.610	81755.2
-2.605	81715.3
-2.600	81652.3
-2.595	81616.4
-2.590	81674.3
-2.585	81724.3
-2.580	81762.3
-2.575	81769.3
-2.570	81734.3
-2.565	81660.4
-2.560	81600.5
-2.555	81572.5
-2.550	81575.4
-2.545	81561.4
-2.540	81543.4
-2.535	81521.5
-2.530	81510.5
-2.525	81512.5
-2.520	81542.5
-2.515	81550.5
-2.510	81581.5
-2.505	81611.4
-2.500	81618.4
-2.495	81619.4
-2.490	81672.4
-2.485	81711.4
-2.480	81713.4
-2.475	81701.4
-2.470	81704.4
-2.465	81705.4
-2.460	81728.4
-2.455	81717.4
-2.450	81704.4
-2.445	81685.4
-2.440	81702.4
-2.435	81695.4
-2.430	81651.5
-2.425	81643.5
-2.420	81679.4
-2.415	81691.4
-2.410	81702.4
-2.405	81699.5
-2.400	81709.5
-2.395	81695.5
-2.390	81687.5
-2.385	81689.5
-2.380	81695.5
-2.375	81691.5
-2.370	81711.5
-2.365	81722.4
-2.360	81735.4
-2.355	81742.4
-2.350	81753.5
-2.345	81748.5
-2.340	81758.5
-2.335	81738.5
-2.330	81726.5
-2.325	81725.5
-2.320	81740.5
-2.315	81749.5
-2.310	81779.4
-2.305	81796.4
-2.300	81793.4
-2.295	81778.4
-2.290	81788.4
-2.285	81803.4
-2.280	81809.4
-2.275	81784.4
-2.270	81790.4
-2.265	81793.4
-2.260	81816.4
-2.255	81825.4
-2.250	81864.3
-2.245	81875.3
-2.240	81889.3
-2.235	81880.3
-2.230	81849.3
-2.225	81847.3
-2.220	81883.3
-2.215	81904.3
-2.210	81912.3
-2.205	81896.3
-2.200	81892.3
-2.195	81889.3
-2.190	81909.3
-2.185	81898.3
-2.180	81891.3
-2.175	81883.3
-2.170	81888.3
-2.165	81875.4
-2.160	81893.3
-2.155	81926.3
-2.150	81958.3
-2.145	81952.3
-2.140	81951.3
-2.135	81912.4
-2.130	81900.4
-2.125	81899.4
-2.120	81899.4
-2.115	81882.4
-2.110	81862.4
-2.105	81837.4
-2.100	81784.4
-2.095	81734.5
-2.090	81733.5
-2.085	81742.5
-2.080	81745.4
-2.075	81762.4
-2.070	81791.4
-2.065	81791.4
-2.060	81778.4
-2.055	81755.4
-2.050	81744.5
-2.045	81725.5
-2.040	81729.5
-2.035	81712.5
-2.030	81693.5
-2.025	81691.5
-2.020	81703.5
-2.015	81702.5
-2.010	81703.5
-2.005	81706.5
-2.000	81715.5
-1.995	81713.5
-1.990	81721.5
-1.985	81732.5
-1.980	81745.5
-1.975	81747.5
-1.970	81748.5
-1.965	81715.5
-1.960	81715.5
-1.955	81738.4
-1.950	81777.4
-1.945	81799.4
-1.940	81802.4
-1.935	81796.3
-1.930	81807.3
-1.925	81827.3
-1.920	81859.3
-1.915	81868.3
-1.910	81882.3
-1.905	81878.3
-1.900	81869.3
-1.895	81872.3
-1.890	81902.3
-1.885	81914.3
-1.880	81893.3
-1.875	81870.3
-1.870	81866.3
-1.865	81852.3
-1.860	81867.3
-1.855	81860.3
-1.850	81876.3
-1.845	81888.3
-1.840	81894.3
-1.835	81889.3
-1.830	81859.3
-1.825	81852.3
-1.820	81848.4
-1.815	81848.4
-1.810	81830.4
-1.805	81822.4
-1.800	81810.4
-1.795	81813.4
-1.790	81819.3
-1.785	81832.3
-1.780	81841.3
-1.775	81838.3
-1.770	81839.2
-1.765	81785.3
-1.760	81780.3
-1.755	81767.2
-1.750	81767.2
-1.745	81754.2
-1.740	81751.2
-1.735	81758.2
-1.730	81777.2
-1.725	81801.2
-1.720	81822.2
-1.715	81833.2
-1.710	81834.2
-1.705	81841.2
-1.700	81818.2
-1.695	81815.3
-1.690	81814.3
-1.685	81829.3
-1.680	81824.3
-1.675	81817.3
-1.670	81818.3
-1.665	81823.2
-1.660	81832.2
-1.655	81840.2
-1.650	81860.2
-1.645	81862.2
-1.640	81858.2
-1.635	81830.2
-1.630	81791.3
-1.625	81779.3
-1.620	81788.3
-1.615	81773.3
-1.610	81762.3
-1.605	81739.3
-1.600	81749.3
-1.595	81730.3
-1.590	81717.3
-1.585	81686.3
-1.580	81681.3
-1.575	81661.3
-1.570	81654.3
-1.565	81612.3
-1.560	81596.3
-1.555	81611.2
-1.550	81624.2
-1.545	81616.2
-1.540	81612.2
-1.535	81593.2
-1.530	81584.2
-1.525	81581.2
-1.520	81574.2
-1.515	81576.2
-1.510	81578.2
-1.505	81588.2
-1.500	81584.2
-1.495	81570.2
-1.490	81601.2
-1.485	81630.2
-1.480	81634.2
-1.475	81624.2
-1.470	81622.2
-1.465	81618.2
-1.460	81618.1
-1.455	81622.1
-1.450	81637.1
-1.445	81645.1
-1.440	81657.1
-1.435	81640.1
-1.430	81625.1
-1.425	81639.1
-1.420	81665.1
-1.415	81669.1
-1.410	81670.1
-1.405	81658.1
-1.400	81659.1
-1.395	81654.1
-1.390	81671.1
-1.385	81671.1
-1.380	81678.1
-1.375	81673.1
-1.370	81680.1
-1.365	81641.1
-1.360	81647.1
-1.355	81671.0
-1.350	81688.0
-1.345	81680.0
-1.340	81687.0
-1.335	81701.0
-1.330	81725.9
-1.325	81747.9
-1.320	81772.9
-1.315	81786.9
-1.310	81798.9
-1.305	81813.8
-1.300	81809.8
-1.295	81797.9
-1.290	81816.8
-1.285	81857.8
-1.280	81860.8
-1.275	81864.8
-1.270	81865.8
-1.265	81864.8
-1.260	81869.8
-1.255	81862.8
-1.250	81871.8
-1.245	81870.8
-1.240	81869.8
-1.235	81845.8
-1.230	81828.8
-1.225	81824.8
-1.220	81838.8
-1.215	81817.8
-1.210	81812.8
-1.205	81797.8
-1.200	81793.8
-1.195	81803.8
-1.190	81807.8
-1.185	81804.8
-1.180	81793.8
-1.175	81785.8
-1.170	81781.8
-1.165	81759.8
-1.160	81751.8
-1.155	81776.8
-1.150	81800.8
-1.145	81794.8
-1.140	81788.8
-1.135	81785.8
-1.130	81807.8
-1.125	81810.7
-1.120	81817.7
-1.115	81811.7
-1.110	81825.7
-1.105	81820.7
-1.100	81798.7
-1.095	81795.7
-1.090	81829.6
-1.085	81845.6
-1.080	81852.6
-1.075	81836.6
-1.070	81849.6
-1.065	81840.6
-1.060	81863.6
-1.055	81866.6
-1.050	81874.6
-1.045	81866.6
-1.040	81852.6
-1.035	81835.6
-1.030	81819.6
-1.025	81818.6
-1.020	81837.6
-1.015	81842.6
-1.010	81842.5
-1.005	81835.6
-1.000	81841.5
-0.995	81831.5
-0.990	81848.5
-0.985	81843.5
-0.980	81840.5
-0.975	81826.5
-0.970	81827.5
-0.965	81783.5
-0.960	81795.5
-0.955	81809.5
-0.950	81823.5
-0.945	81816.5
-0.940	81813.5
-0.935	81806.5
-0.930	81809.5
-0.925	81808.5
-0.920	81798.5
-0.915	81790.5
-0.910	81792.5
-0.905	81788.5
-0.900	81762.5
-0.895	81742.5
-0.890	81757.5
-0.885	81764.4
-0.880	81753.5
-0.875	81751.5
-0.870	81736.5
-0.865	81728.5
-0.860	81714.5
-0.855	81697.5
-0.850	81688.5
-0.845	81662.5
-0.840	81646.5
-0.835	81601.5
-0.830	81576.5
-0.825	81579.5
-0.820	81592.5
-0.815	81582.5
-0.810	81578.5
-0.805	81583.5
-0.800	81590.5
-0.795	81591.5
-0.790	81605.4
-0.785	81607.4
-0.780	81611.4
-0.775	81618.4
-0.770	81623.4
-0.765	81598.4
-0.760	81610.4
-0.755	81627.4
-0.750	81653.3
-0.745	81654.3
-0.740	81645.3
-0.735	81624.3
-0.730	81629.3
-0.725	81635.3
-0.720	81645.3
-0.715	81643.3
-0.710	81635.3
-0.705	81637.3
-0.700	81609.3
-0.695	81601.3
-0.690	81619.3
-0.685	81629.3
-0.680	81609.3
-0.675	81592.3
-0.670	81596.3
-0.665	81597.3
-0.660	81603.3
-0.655	81609.2
-0.650	81618.2
-0.645	81614.2
-0.640	81608.2
-0.635	81590.2
-0.630	81590.2
-0.625	81596.2
-0.620	81641.2
-0.615	81665.1
-0.610	81682.1
-0.605	81690.1
-0.600	81697.1
-0.595	81688.1
-0.590	81666.1
-0.585	81641.1
-0.580	81615.1
-0.575	81608.1
-0.570	81581.1
-0.565	81528.2
-0.560	81541.2
-0.555	81564.1
-0.550	81593.1
-0.545	81593.1
-0.540	81609.1
-0.535	81617.1
-0.530	81645.1
-0.525	81659.0
-0.520	81687.0
-0.515	81705.0
-0.510	81721.0
-0.505	81721.0
-0.500	81708.0
-0.495	81711.0
-0.490	81741.0
-0.485	81774.9
-0.480	81781.9
-0.475	81780.9
-0.470	81768.9
-0.465	81751.9
-0.460	81743.9
-0.455	81736.9
-0.450	81728.9
-0.445	81719.9
-0.440	81724.9
-0.435	81692.9
-0.430	81663.9
-0.425	81663.9
-0.420	81688.9
-0.415	81679.9
-0.410	81690.9
-0.405	81688.8
-0.400	81700.8
-0.395	81684.8
-0.390	81703.8
-0.385	81710.8
-0.380	81717.8
-0.375	81709.8
-0.370	81716.8
-0.365	81685.8
-0.360	81700.8
-0.355	81712.7
-0.350	81708.7
-0.345	81685.7
-0.340	81696.7
-0.335	81688.7
-0.330	81696.7
-0.325	81689.7
-0.320	81713.7
-0.315	81710.7
-0.310	81699.7
-0.305	81686.7
-0.300	81640.7
-0.295	81628.7
-0.290	81675.7
-0.285	81696.7
-0.280	81722.7
-0.275	81718.7
-0.270	81728.7
-0.265	81728.6
-0.260	81734.6
-0.255	81709.6
-0.250	81690.6
-0.245	81675.6
-0.240	81693.6
-0.235	81695.6
-0.230	81700.6
-0.225	81719.6
-0.220	81741.6
-0.215	81735.6
-0.210	81723.6
-0.205	81739.6
-0.200	81755.6
-0.195	81772.5
-0.190	81787.5
-0.185	81787.5
-0.180	81808.5
-0.175	81841.5
-0.170	81847.5
-0.165	81787.6
-0.160	81766.6
-0.155	81746.6
-0.150	81744.6
-0.145	81730.6
-0.140	81750.6
-0.135	81763.6
-0.130	81770.6
-0.125	81763.6
-0.120	81759.5
-0.115	81759.5
-0.110	81768.4
-0.105	81777.3
-0.100	81753.2
-0.095	81719.1
-0.090	81708.0
-0.085	81697.9
-0.080	81642.8
-0.075	81574.8
-0.070	81559.8
-0.065	81626.8
-0.060	81692.8
-0.055	81715.8
-0.050	81744.0
-0.045	81774.1
-0.040	81764.4
-0.035	81678.6
-0.030	81654.8
-0.025	81723.9
-0.020	81776.0
-0.015	81734.1
-0.010	81659.1
-0.005	81607.0
0.000	81606.9
0.005	81615.7
0.010	81649.5
0.015	81694.3
0.020	81741.1
0.025	81771.0
0.030	81760.9
0.035	81703.9
0.040	81677.9
0.045	81679.0
0.050	81700.0
0.055	81734.0
0.060	81763.0
0.065	81785.0
0.070	81786.1
0.075	81762.1
0.080	81772.1
0.085	81785.1
0.090	81782.1
0.095	81746.1
0.100	81689.1
0.105	81666.2
0.110	81695.1
0.115	81714.1
0.120	81737.1
0.125	81750.0
0.130	81736.0
0.135	81708.1
0.140	81702.0
0.145	81714.0
0.150	81744.0
0.155	81741.0
0.160	81733.0
0.165	81715.0
0.170	81716.0
0.175	81742.9
0.180	81755.9
0.185	81734.9
0.190	81729.9
0.195	81745.9
0.200	81757.9
0.205	81762.9
0.210	81763.9
0.215	81754.9
0.220	81751.9
0.225	81743.9
0.230	81737.9
0.235	81716.9
0.240	81744.8
0.245	81765.8
0.250	81770.8
0.255	81743.8
0.260	81729.8
0.265	81740.8
0.270	81750.8
0.275	81745.8
0.280	81741.8
0.285	81739.8
0.290	81729.8
0.295	81732.8
0.300	81683.9
0.305	81691.8
0.310	81725.8
0.315	81752.8
0.320	81746.8
0.325	81737.8
0.330	81751.8
0.335	81763.8
0.340	81765.8
0.345	81761.8
0.350	81761.8
0.355	81750.8
0.360	81752.7
0.365	81732.8
0.370	81734.7
0.375	81764.7
0.380	81813.7
0.385	81815.7
0.390	81806.7
0.395	81785.7
0.400	81773.7
0.405	81757.7
0.410	81758.7
0.415	81769.7
0.420	81773.6
0.425	81781.6
0.430	81763.6
0.435	81717.7
0.440	81708.7
0.445	81714.7
0.450	81736.6
0.455	81752.6
0.460	81748.6
0.465	81740.6
0.470	81729.6
0.475	81713.6
0.480	81721.6
0.485	81728.6
0.490	81736.5
0.495	81735.5
0.500	81689.6
0.505	81678.6
0.510	81716.5
0.515	81732.5
0.520	81730.5
0.525	81728.5
0.530	81736.5
0.535	81735.4
0.540	81738.4
0.545	81739.4
0.550	81742.4
0.555	81739.4
0.560	81740.4
0.565	81714.4
0.570	81698.4
0.575	81705.4
0.580	81728.4
0.585	81726.4
0.590	81727.4
0.595	81737.4
0.600	81747.4
0.605	81774.3
0.610	81794.3
0.615	81813.3
0.620	81831.3
0.625	81819.3
0.630	81802.3
0.635	81760.3
0.640	81771.3
0.645	81799.3
0.650	81781.3
0.655	81759.3
0.660	81748.3
0.665	81722.3
0.670	81728.3
0.675	81728.3
0.680	81753.3
0.685	81743.3
0.690	81751.3
0.695	81751.3
0.700	81723.3
0.705	81735.3
0.710	81760.3
0.715	81775.3
0.720	81778.2
0.725	81794.2
0.730	81799.2
0.735	81813.2
0.740	81827.2
0.745	81836.2
0.750	81841.2
0.755	81829.2
0.760	81836.1
0.765	81779.2
0.770	81769.2
0.775	81781.2
0.780	81795.1
0.785	81786.1
0.790	81772.1
0.795	81754.1
0.800	81745.1
0.805	81726.1
0.810	81715.1
0.815	81703.1
0.820	81697.1
0.825	81692.1
0.830	81690.1
0.835	81672.1
0.840	81691.1
0.845	81717.1
0.850	81726.1
0.855	81737.0
0.860	81743.0
0.865	81754.0
0.870	81766.0
0.875	81764.0
0.880	81766.0
0.885	81757.0
0.890	81751.0
0.895	81746.9
0.900	81702.0
0.905	81683.0
0.910	81704.0
0.915	81700.9
0.920	81693.9
0.925	81688.9
0.930	81696.9
0.935	81685.9
0.940	81689.9
0.945	81692.9
0.950	81707.9
0.955	81712.9
0.960	81707.9
0.965	81680.0
0.970	81682.0
0.975	81692.9
0.980	81719.9
0.985	81722.9
0.990	81718.9
0.995	81708.9
1.000	81716.9
1.005	81717.9
1.010	81717.9
1.015	81715.9
1.020	81724.9
1.025	81719.9
1.030	81710.9
1.035	81683.9
1.040	81696.9
1.045	81719.9
1.050	81720.8
1.055	81715.8
1.060	81726.8
1.065	81723.8
1.070	81734.8
1.075	81741.8
1.080	81755.8
1.085	81745.8
1.090	81756.8
1.095	81750.8
1.100	81727.8
1.105	81715.8
1.110	81743.8
1.115	81767.8
1.120	81770.7
1.125	81771.7
1.130	81762.7
1.135	81760.7
1.140	81761.7
1.145	81763.7
1.150	81766.7
1.155	81763.7
1.160	81772.7
1.165	81743.7
1.170	81742.7
1.175	81746.7
1.180	81776.6
1.185	81763.6
1.190	81767.6
1.195	81754.6
1.200	81763.6
1.205	81760.6
1.210	81761.6
1.215	81763.6
1.220	81760.6
1.225	81762.6
1.230	81733.6
1.235	81701.6
1.240	81719.6
1.245	81751.6
1.250	81782.6
1.255	81780.6
1.260	81774.6
1.265	81760.6
1.270	81755.6
1.275	81750.6
1.280	81762.6
1.285	81771.6
1.290	81784.6
1.295	81794.5
1.300	81753.6
1.305	81751.6
1.310	81777.5
1.315	81781.5
1.320	81786.5
1.325	81776.5
1.330	81772.5
1.335	81750.5
1.340	81763.5
1.345	81769.5
1.350	81783.5
1.355	81786.5
1.360	81800.5
1.365	81783.5
1.370	81789.5
1.375	81825.5
1.380	81851.5
1.385	81853.5
1.390	81841.5
1.395	81849.5
1.400	81848.5
1.405	81832.5
1.410	81846.4
1.415	81837.4
1.420	81840.4
1.425	81818.4
1.430	81789.4
1.435	81755.4
1.440	81770.4
1.445	81776.4
1.450	81791.4
1.455	81779.4
1.460	81784.4
1.465	81779.4
1.470	81781.3
1.475	81780.3
1.480	81775.3
1.485	81771.3
1.490	81753.3
1.495	81747.4
1.500	81693.4
1.505	81691.4
1.510	81724.4
1.515	81749.3
1.520	81771.3
1.525	81786.3
1.530	81798.3
1.535	81809.3
1.540	81813.3
1.545	81805.3
1.550	81806.3
1.555	81791.3
1.560	81781.3
1.565	81740.3
1.570	81757.3
1.575	81787.3
1.580	81811.3
1.585	81809.3
1.590	81800.3
1.595	81801.3
1.600	81802.3
1.605	81809.3
1.610	81821.3
1.615	81823.3
1.620	81828.3
1.625	81822.2
1.630	81784.3
1.635	81762.3
1.640	81794.2
1.645	81831.2
1.650	81836.2
1.655	81843.2
1.660	81825.2
1.665	81795.2
1.670	81796.2
1.675	81812.2
1.680	81823.2
1.685	81830.2
1.690	81840.2
1.695	81841.2
1.700	81793.2
1.705	81785.2
1.710	81805.2
1.715	81785.2
1.720	81795.2
1.725	81789.2
1.730	81811.2
1.735	81800.2
1.740	81808.2
1.745	81817.1
1.750	81801.2
1.755	81793.2
1.760	81792.2
1.765	81757.2
1.770	81747.2
1.775	81754.2
1.780	81780.2
1.785	81772.2
1.790	81787.2
1.795	81788.2
1.800	81798.2
1.805	81810.2
1.810	81820.2
1.815	81834.2
1.820	81849.1
1.825	81852.1
1.830	81852.1
1.835	81825.1
1.840	81830.1
1.845	81835.1
1.850	81846.1
1.855	81830.1
1.860	81844.0
1.865	81847.0
1.870	81850.0
1.875	81852.0
1.880	81838.0
1.885	81833.1
1.890	81848.0
1.895	81843.0
1.900	81801.1
1.905	81812.1
1.910	81843.1
1.915	81869.0
1.920	81887.0
1.925	81887.0
1.930	81883.0
1.935	81865.0
1.940	81842.1
1.945	81826.1
1.950	81829.1
1.955	81822.1
1.960	81837.1
1.965	81821.1
1.970	81846.1
1.975	81859.1
1.980	81868.0
1.985	81848.1
1.990	81854.0
1.995	81847.0
2.000	81858.0
2.005	81848.0
2.010	81823.0
2.015	81805.0
2.020	81817.0
2.025	81811.0
2.030	81814.0
2.035	81806.0
2.040	81799.0
2.045	81818.0
2.050	81784.0
2.055	81779.0
2.060	81783.0
2.065	81779.0
2.070	81800.0
2.075	81806.0
2.080	81812.0
2.085	81804.1
2.090	81796.1
2.095	81777.1
2.100	81717.2
2.105	81685.2
2.110	81692.2
2.115	81703.2
2.120	81720.2
2.125	81736.2
2.130	81776.2
2.135	81775.2
2.140	81776.2
2.145	81772.2
2.150	81764.1
2.155	81751.1
2.160	81757.1
2.165	81731.1
2.170	81723.1
2.175	81738.1
2.180	81728.1
2.185	81724.1
2.190	81729.1
2.195	81710.1
2.200	81712.1
2.205	81702.1
2.210	81693.1
2.215	81717.1
2.220	81753.1
2.225	81762.1
2.230	81742.1
2.235	81706.2
2.240	81689.2
2.245	81686.2
2.250	81675.2
2.255	81668.2
2.260	81674.2
2.265	81681.2
2.270	81694.2
2.275	81699.2
2.280	81702.2
2.285	81692.2
2.290	81696.2
2.295	81680.2
2.300	81675.2
2.305	81689.1
2.310	81685.1
2.315	81690.1
2.320	81670.1
2.325	81655.1
2.330	81658.1
2.335	81660.1
2.340	81663.1
2.345	81663.1
2.350	81659.2
2.355	81651.2
2.360	81650.2
2.365	81617.2
2.370	81616.2
2.375	81619.2
2.380	81628.2
2.385	81596.3
2.390	81599.3
2.395	81596.3
2.400	81622.3
2.405	81644.3
2.410	81679.3
2.415	81706.3
2.420	81716.3
2.425	81728.2
2.430	81683.3
2.435	81636.3
2.440	81637.3
2.445	81652.3
2.450	81653.3
2.455	81673.3
2.460	81667.3
2.465	81675.3
2.470	81675.3
2.475	81665.3
2.480	81678.3
2.485	81684.3
2.490	81701.2
2.495	81697.2
2.500	81667.3
2.505	81655.3
2.510	81656.3
2.515	81634.3
2.520	81630.3
2.525	81619.3
2.530	81647.3
2.535	81665.3
2.540	81694.3
2.545	81688.3
2.550	81662.4
2.555	81643.4
2.560	81635.4
2.565	81595.4
2.570	81606.4
2.575	81629.4
2.580	81673.4
2.585	81710.3
2.590	81715.3
2.595	81722.3
2.600	81739.3
2.605	81735.3
2.610	81745.3
2.615	81718.3
2.620	81698.3
2.625	81678.3
2.630	81637.4
2.635	81611.4
2.640	81629.4
2.645	81638.4
2.650	81665.4
2.655	81653.4
2.660	81668.4
2.665	81664.4
2.670	81658.5
2.675	81628.5
2.680	81621.5
2.685	81650.5
2.690	81679.5
2.695	81661.5
2.700	81620.5
2.705	81645.5
2.710	81672.5
2.715	81681.5
2.720	81672.5
2.725	81656.5
2.730	81631.5
2.735	81626.6
2.740	81645.6
2.745	81665.6
2.750	81689.5
2.755	81700.6
2.760	81715.6
2.765	81672.6
2.770	81672.6
2.775	81700.6
2.780	81694.6
2.785	81669.6
2.790	81625.7
2.795	81618.7
2.800	81631.7
2.805	81664.6
2.810	81697.6
2.815	81713.6
2.820	81719.6
2.825	81710.6
2.830	81685.6
2.835	81665.6
2.840	81683.6
2.845	81714.6
2.850	81729.6
2.855	81722.6
2.860	81710.6
2.865	81677.7
2.870	81659.7
2.875	81652.7
2.880	81661.7
2.885	81668.7
2.890	81683.7
2.895	81663.8
2.900	81634.8
2.905	81636.8
2.910	81672.8
2.915	81681.8
2.920	81683.8
2.925	81669.8
2.930	81689.8
2.935	81690.8
2.940	81698.8
2.945	81706.8
2.950	81727.8
2.955	81739.8
2.960	81735.8
2.965	81687.9
2.970	81667.9
2.975	81679.9
2.980	81697.9
2.985	81690.9
2.990	81671.9
2.995	81664.9
3.000	81677.9
3.005	81689.9
3.010	81696.9
3.015	81717.9
3.020	81740.9
3.025	81742.9
3.030	81728.9
3.035	81720.0
3.040	81750.0
3.045	81765.0
3.050	81772.0
3.055	81739.0
3.060	81728.0
3.065	81712.0
3.070	81720.0
3.075	81722.0
3.080	81747.0
3.085	81772.0
3.090	81779.0
3.095	81765.0
3.100	81734.0
3.105	81722.1
3.110	81747.1
3.115	81740.1
3.120	81757.1
3.125	81768.1
3.130	81784.1
3.135	81776.1
3.140	81785.1
3.145	81791.1
3.150	81796.1
3.155	81767.1
3.160	81772.1
3.165	81726.2
3.170	81743.2
3.175	81776.2
3.180	81790.2
3.185	81788.2
3.190	81780.2
3.195	81776.2
3.200	81789.2
3.205	81798.2
3.210	81795.2
3.215	81797.2
3.220	81801.2
3.225	81823.2
3.230	81796.3
3.235	81787.3
3.240	81799.3
3.245	81815.3
3.250	81802.3
3.255	81796.3
3.260	81803.3
3.265	81809.2
3.270	81809.2
3.275	81819.2
3.280	81823.2
3.285	81814.2
3.290	81813.2
3.295	81770.2
3.300	81744.2
3.305	81753.2
3.310	81776.1
3.315	81785.1
3.320	81805.1
3.325	81840.0
3.330	81854.0
3.335	81818.0
3.340	81757.1
3.345	81695.1
3.350	81681.2
3.355	81722.2
3.360	81783.2
3.365	81784.3
3.370	81810.3
3.375	81838.4
3.380	81827.5
3.385	81754.8
3.390	81685.0
3.395	81704.1
3.400	81814.1
3.405	81848.1
3.410	81832.2
3.415	81807.2
3.420	81801.2
3.425	81812.2
3.430	81800.2
3.435	81797.2
3.440	81805.2
3.445	81828.1
3.450	81832.1
3.455	81816.2
3.460	81815.2
3.465	81812.2
3.470	81802.2
3.475	81797.3
3.480	81798.3
3.485	81799.4
3.490	81808.4
3.495	81798.5
3.500	81790.5
3.505	81807.6
3.510	81855.6
3.515	81860.7
3.520	81851.8
3.525	81836.9
3.530	81815.9
3.535	81774.0
3.540	81761.1
3.545	81755.2
3.550	81776.2
3.555	81760.3
3.560	81758.3
3.565	81734.4
3.570	81746.4
3.575	81757.4
3.580	81760.5
3.585	81763.5
3.590	81756.5
3.595	81752.5
3.600	81751.6
3.605	81741.6
3.610	81747.6
3.615	81737.6
3.620	81745.6
3.625	81762.6
3.630	81739.6
3.635	81707.7
3.640	81731.7
3.645	81748.7
3.650	81743.7
3.655	81753.7
3.660	81748.7
3.665	81747.7
3.670	81750.8
3.675	81742.8
3.680	81745.8
3.685	81738.8
3.690	81746.8
3.695	81724.8
3.700	81706.9
3.705	81695.9
3.710	81729.9
3.715	81715.9
3.720	81716.9
3.725	81709.0
3.730	81705.0
3.735	81691.0
3.740	81687.0
3.745	81699.0
3.750	81686.1
3.755	81693.1
3.760	81689.1
3.765	81663.1
3.770	81674.2
3.775	81695.2
3.780	81705.2
3.785	81693.2
3.790	81705.2
3.795	81692.3
3.800	81692.3
3.805	81685.3
3.810	81690.3
3.815	81671.4
3.820	81692.4
3.825	81688.4
3.830	81672.5
3.835	81665.5
3.840	81689.5
3.845	81715.6
3.850	81718.6
3.855	81716.6
3.860	81715.7
3.865	81713.7
3.870	81713.7
3.875	81701.8
3.880	81707.8
3.885	81697.9
3.890	81697.9
3.895	81664.0
3.900	81645.1
3.905	81637.1
3.910	81674.1
3.915	81664.2
3.920	81655.3
3.925	81631.3
3.930	81624.4
3.935	81603.5
3.940	81614.5
3.945	81609.6
3.950	81569.7
3.955	81520.9
3.960	81489.0
3.965	81407.1
3.970	81430.2
3.975	81467.3
3.980	81108.7
3.985	80612.2
3.990	80579.4
3.995	80940.4
4.000	81183.4
4.005	81268.6
4.010	81339.8
4.015	81248.2
4.020	80973.7
4.025	80785.1
4.030	80835.3
4.035	80936.5
4.040	80946.7
4.045	80914.9
4.050	80854.0
4.055	80819.0
4.060	80794.9
4.065	80747.7
4.070	80713.4
4.075	80728.0
4.080	80805.4
4.085	80889.6
4.090	81012.7
4.095	81106.7
4.100	81234.7
4.105	81394.8
4.110	81533.0
4.115	81593.5
4.120	81631.1
4.125	81653.9
4.130	81661.7
4.135	81657.6
4.140	81653.6
4.145	81641.5
4.150	81650.5
4.155	81651.5
4.160	81657.4
4.165	81636.4
4.170	81647.4
4.175	81672.4
4.180	81685.4
4.185	81673.4
4.190	81673.4
4.195	81660.4
4.200	81660.4
4.205	81652.4
4.210	81662.4
4.215	81651.4
4.220	81661.4
4.225	81657.4
4.230	81638.4
4.235	81641.4
4.240	81659.4
4.245	81660.4
4.250	81653.4
4.255	81652.4
4.260	81659.4
4.265	81649.4
4.270	81657.4
4.275	81651.4
4.280	81650.4
4.285	81641.4
4.290	81656.4
4.295	81644.4
4.300	81629.4
4.305	81641.3
4.310	81650.3
4.315	81635.3
4.320	81619.3
4.325	81604.4
4.330	81605.3
4.335	81618.3
4.340	81652.3
4.345	81666.3
4.350	81680.3
4.355	81673.3
4.360	81656.3
4.365	81627.3
4.370	81631.3
4.375	81646.3
4.380	81656.3
4.385	81663.3
4.390	81651.3
4.395	81644.3
4.400	81642.3
4.405	81655.2
4.410	81663.2
4.415	81661.2
4.420	81659.2
4.425	81665.2
4.430	81643.3
4.435	81646.3
4.440	81663.2
4.445	81670.2
4.450	81669.2
4.455	81661.2
4.460	81667.2
4.465	81658.2
4.470	81652.2
4.475	81645.2
4.480	81646.2
4.485	81639.2
4.490	81646.2
4.495	81641.2
4.500	81643.2
4.505	81673.2
4.510	81693.1
4.515	81694.1
4.520	81683.1
4.525	81679.1
4.530	81674.1
4.535	81645.2
4.540	81645.1
4.545	81642.1
4.550	81645.1
4.555	81642.1
4.560	81628.1
4.565	81605.1
4.570	81613.1
4.575	81644.1
4.580	81645.1
4.585	81645.1
4.590	81631.1
4.595	81632.1
4.600	81641.1
4.605	81633.1
4.610	81635.1
4.615	81626.1
4.620	81630.1
4.625	81635.1
4.630	81615.1
4.635	81601.1
4.640	81622.1
4.645	81619.1
4.650	81621.1
4.655	81616.1
4.660	81617.0
4.665	81618.0
4.670	81615.0
4.675	81612.0
4.680	81604.0
4.685	81602.0
4.690	81608.0
4.695	81583.0
4.700	81587.0
4.705	81593.0
4.710	81616.0
4.715	81596.0
4.720	81603.0
4.725	81586.0
4.730	81581.0
4.735	81581.0
4.740	81591.0
4.745	81609.9
4.750	81618.9
4.755	81616.9
4.760	81590.9
4.765	81580.9
4.770	81613.9
4.775	81648.9
4.780	81654.9
4.785	81636.9
4.790	81648.9
4.795	81649.8
4.800	81645.8
4.805	81642.8
4.810	81630.8
4.815	81637.8
4.820	81644.8
4.825	81643.8
4.830	81616.8
4.835	81619.8
4.840	81640.8
4.845	81654.7
4.850	81677.7
4.855	81677.7
4.860	81680.7
4.865	81682.7
4.870	81702.6
4.875	81728.6
4.880	81749.6
4.885	81733.6
4.890	81740.6
4.895	81699.6
4.900	81696.6
4.905	81707.6
4.910	81730.6
4.915	81708.6
4.920	81698.6
4.925	81698.6
4.930	81690.6
4.935	81715.5
4.940	81718.5
4.945	81724.5
4.950	81710.5
4.955	81703.5
4.960	81697.5
4.965	81658.5
4.970	81684.5
4.975	81703.4
4.980	81726.4
4.985	81728.4
4.990	81739.4
4.995	81737.4
5.000	81733.3
5.005	81735.3
5.010	81746.3
5.015	81759.3
5.020	81765.2
5.025	81748.2
5.030	81716.2
5.035	81695.2
5.040	81690.2
5.045	81686.2
5.050	81671.2
5.055	81658.2
5.060	81674.2
5.065	81676.1
5.070	81709.1
5.075	81712.1
5.080	81739.0
5.085	81725.0
5.090	81702.0
5.095	81641.0
5.100	81612.0
5.105	81613.0
5.110	81644.0
5.115	81651.0
5.120	81646.9
5.125	81656.9
5.130	81691.9
5.135	81702.8
5.140	81709.8
5.145	81690.8
5.150	81692.8
5.155	81692.7
5.160	81711.7
5.165	81691.6
5.170	81687.6
5.175	81707.5
5.180	81748.5
5.185	81759.4
5.190	81740.4
5.195	81728.4
5.200	81720.3
5.205	81744.3
5.210	81739.2
5.215	81721.2
5.220	81732.1
5.225	81737.0
5.230	81710.0
5.235	81709.9
5.240	81735.9
5.245	81754.8
5.250	81762.7
5.255	81755.7
5.260	81743.6
5.265	81726.5
5.270	81733.4
5.275	81727.3
5.280	81728.2
5.285	81726.1
5.290	81697.0
5.295	81661.9
5.300	81643.8
5.305	81644.6
5.310	81662.4
5.315	81639.2
5.320	81610.0
5.325	81561.7
5.330	81516.5
5.335	81449.2
5.340	81377.0
5.345	81308.8
5.350	81210.7
5.355	81150.7
5.360	81038.7
5.365	80929.8
5.370	80898.9
5.375	80886.0
5.380	80846.3
5.385	80859.8
5.390	80896.3
5.395	80907.8
5.400	80939.4
5.405	81005.3
5.410	81139.2
5.415	81322.0
5.420	81504.6
5.425	81615.0
5.430	81658.2
5.435	81679.3
5.440	81717.4
5.445	81726.4
5.450	81729.4
5.455	81705.4
5.460	81699.4
5.465	81695.4
5.470	81684.5
5.475	81664.5
5.480	81656.5
5.485	81637.5
5.490	81619.5
5.495	81591.5
5.500	81559.5
5.505	81566.5
5.510	81593.5
5.515	81583.5
5.520	81580.5
5.525	81567.5
5.530	81568.5
5.535	81565.5
5.540	81559.5
5.545	81561.5
5.550	81581.5
5.555	81583.5
5.560	81573.5
5.565	81570.5
5.570	81604.5
5.575	81638.5
5.580	81656.5
5.585	81636.5
5.590	81645.5
5.595	81651.5
5.600	81667.5
5.605	81678.5
5.610	81695.4
5.615	81707.4
5.620	81713.4
5.625	81708.4
5.630	81680.5
5.635	81699.4
5.640	81724.4
5.645	81728.4
5.650	81733.4
5.655	81728.4
5.660	81743.4
5.665	81737.5
5.670	81737.5
5.675	81735.5
5.680	81739.5
5.685	81744.5
5.690	81756.5
5.695	81724.6
5.700	81724.6
5.705	81734.6
5.710	81760.6
5.715	81762.6
5.720	81762.6
5.725	81734.6
5.730	81743.6
5.735	81739.6
5.740	81743.6
5.745	81738.5
5.750	81747.5
5.755	81747.5
5.760	81721.5
5.765	81703.5
5.770	81711.5
5.775	81738.5
5.780	81749.5
5.785	81742.5
5.790	81742.5
5.795	81738.4
5.800	81743.4
5.805	81735.4
5.810	81740.4
5.815	81744.4
5.820	81736.4
5.825	81737.4
5.830	81708.5
5.835	81710.5
5.840	81730.4
5.845	81721.4
5.850	81714.4
5.855	81704.5
5.860	81702.5
5.865	81702.5
5.870	81725.4
5.875	81717.4
5.880	81727.4
5.885	81706.5
5.890	81710.5
5.895	81665.5
5.900	81658.5
5.905	81663.5
5.910	81693.5
5.915	81683.5
5.920	81691.5
5.925	81692.5
5.930	81688.5
5.935	81695.5
5.940	81699.5
5.945	81682.5
5.950	81691.5
5.955	81683.5
5.960	81656.5
5.965	81644.5
5.970	81660.5
5.975	81680.5
5.980	81683.5
5.985	81670.5
5.990	81674.5
5.995	81663.5
6.000	81672.5
6.005	81676.5
6.010	81678.5
6.015	81674.5
6.020	81677.5
6.025	81666.5
6.030	81627.5
6.035	81631.5
6.040	81647.5
6.045	81658.5
6.050	81657.5
6.055	81646.5
6.060	81650.5
6.065	81639.5
6.070	81651.5
6.075	81655.5
6.080	81661.5
6.085	81644.5
6.090	81654.5
6.095	81625.6
6.100	81622.6
6.105	81639.5
6.110	81660.5
6.115	81651.5
6.120	81646.5
6.125	81642.5
6.130	81645.5
6.135	81635.5
6.140	81634.5
6.145	81638.5
6.150	81660.5
6.155	81647.5
6.160	81638.5
6.165	81615.6
6.170	81640.5
6.175	81665.5
6.180	81660.5
6.185	81651.5
6.190	81656.5
6.195	81656.5
6.200	81650.5
6.205	81656.5
6.210	81653.5
6.215	81655.5
6.220	81651.5
6.225	81645.5
6.230	81620.6
6.235	81627.6
6.240	81649.5
6.245	81653.5
6.250	81648.5
6.255	81645.5
6.260	81650.5
6.265	81645.5
6.270	81657.5
6.275	81651.5
6.280	81644.5
6.285	81663.5
6.290	81659.5
6.295	81625.6
6.300	81616.6
6.305	81635.6
6.310	81657.5
6.315	81650.5
6.320	81663.5
6.325	81657.5
6.330	81662.5
6.335	81663.5
6.340	81660.5
6.345	81660.5
6.350	81659.5
6.355	81657.5
6.360	81642.6
6.365	81626.6
6.370	81660.5
6.375	81667.5
6.380	81664.5
6.385	81649.6
6.390	81649.5
6.395	81654.5
6.400	81658.5
6.405	81652.5
6.410	81672.5
6.415	81672.5
6.420	81679.5
6.425	81658.5
6.430	81628.6
6.435	81641.6
6.440	81668.5
6.445	81666.5
6.450	81679.5
6.455	81671.5
6.460	81675.5
6.465	81677.5
6.470	81687.5
6.475	81700.5
6.480	81692.5
6.485	81694.5
6.490	81694.5
6.495	81654.6
6.500	81664.5
6.505	81685.5
6.510	81700.5
6.515	81704.5
6.520	81706.5
6.525	81690.5
6.530	81698.5
6.535	81693.5
6.540	81701.5
6.545	81703.5
6.550	81711.5
6.555	81724.5
6.560	81699.5
6.565	81682.5
6.570	81697.5
6.575	81726.5
6.580	81726.5
6.585	81720.5
6.590	81722.5
6.595	81718.5
6.600	81733.5
6.605	81726.5
6.610	81737.5
6.615	81737.5
6.620	81744.5
6.625	81730.5
6.630	81704.5
6.635	81719.5
6.640	81756.5
6.645	81758.5
6.650	81752.5
6.655	81747.5
6.660	81754.5
6.665	81758.5
6.670	81762.5
6.675	81764.5
6.680	81768.5
6.685	81762.5
6.690	81773.5
6.695	81737.5
6.700	81742.5
6.705	81752.5
6.710	81782.5
6.715	81779.5
6.720	81783.5
6.725	81779.5
6.730	81782.5
6.735	81787.5
6.740	81794.5
6.745	81797.5
6.750	81798.5
6.755	81800.5
6.760	81767.5
6.765	81755.5
6.770	81781.5
6.775	81795.5
6.780	81800.5
6.785	81788.5
6.790	81795.5
6.795	81792.5
6.800	81795.5
6.805	81796.5
6.810	81803.5
6.815	81793.5
6.820	81803.5
6.825	81779.5
6.830	81765.5
6.835	81769.5
6.840	81804.5
6.845	81798.5
6.850	81812.5
6.855	81798.5
6.860	81807.5
6.865	81806.5
6.870	81815.5
6.875	81814.5
6.880	81819.5
6.885	81816.5
6.890	81813.5
6.895	81781.5
6.900	81792.5
6.905	81816.5
6.910	81834.4
6.915	81818.5
6.920	81814.5
6.925	81815.5
6.930	81820.5
6.935	81825.4
6.940	81823.5
6.945	81826.5
6.950	81824.5
6.955	81827.5
6.960	81805.5
6.965	81788.5
6.970	81797.5
6.975	81818.5
6.980	81822.5
6.985	81798.5
6.990	81787.5
6.995	81779.5
7.000	81767.5
7.005	81733.5
7.010	81700.5
7.015	81646.6
7.020	81571.6
7.025	81461.7
7.030	81324.8
7.035	81223.9
7.040	81182.9
7.045	81141.0
7.050	81065.0
7.055	80907.2
7.060	80714.3
7.065	80552.4
7.070	80453.5
7.075	80374.6
7.080	80340.6
7.085	80332.6
7.090	80432.5
7.095	80597.4
7.100	80798.3
7.105	80944.1
7.110	81083.0
7.115	81227.9
7.120	81372.8
7.125	81478.7
7.130	81544.7
7.135	81586.7
7.140	81623.6
7.145	81647.6
7.150	81672.6
7.155	81671.6
7.160	81653.6
7.165	81640.6
7.170	81668.6
7.175	81681.6
7.180	81671.6
7.185	81663.6
7.190	81658.6
7.195	81649.6
7.200	81645.6
7.205	81647.6
7.210	81653.6
7.215	81652.6
7.220	81654.6
7.225	81632.6
7.230	81617.6
7.235	81621.6
7.240	81639.6
7.245	81635.6
7.250	81648.6
7.255	81645.6
7.260	81649.6
7.265	81639.6
7.270	81645.6
7.275	81640.6
7.280	81626.6
7.285	81628.6
7.290	81623.6
7.295	81575.7
7.300	81567.7
7.305	81592.7
7.310	81596.7
7.315	81591.7
7.320	81599.7
7.325	81605.7
7.330	81617.6
7.335	81619.6
7.340	81625.6
7.345	81634.6
7.350	81650.6
7.355	81649.6
7.360	81629.6
7.365	81618.7
7.370	81628.6
7.375	81637.6
7.380	81643.6
7.385	81635.6
7.390	81630.6
7.395	81619.7
7.400	81617.7
7.405	81611.7
7.410	81606.7
7.415	81612.7
7.420	81612.7
7.425	81595.7
7.430	81582.7
7.435	81595.7
7.440	81618.7
7.445	81606.7
7.450	81605.7
7.455	81602.7
7.460	81604.7
7.465	81593.7
7.470	81594.7
7.475	81592.7
7.480	81599.7
7.485	81601.7
7.490	81610.7
7.495	81574.7
7.500	81572.7
7.505	81598.7
7.510	81615.7
7.515	81616.7
7.520	81619.7
7.525	81621.7
7.530	81624.7
7.535	81631.7
7.540	81637.7
7.545	81644.7
7.550	81652.7
7.555	81656.7
7.560	81625.7
7.565	81615.7
7.570	81635.7
7.575	81646.7
7.580	81648.7
7.585	81633.7
7.590	81650.7
7.595	81644.7
7.600	81655.7
7.605	81647.7
7.610	81662.7
7.615	81654.7
7.620	81665.7
7.625	81641.7
7.630	81626.7
7.635	81639.7
7.640	81658.7
7.645	81653.7
7.650	81665.7
7.655	81666.7
7.660	81670.7
7.665	81678.7
7.670	81683.7
7.675	81688.6
7.680	81691.6
7.685	81688.7
7.690	81685.7
7.695	81656.7
7.700	81674.7
7.705	81680.7
7.710	81696.7
7.715	81686.7
7.720	81694.7
7.725	81676.7
7.730	81691.7
7.735	81680.7
7.740	81684.7
7.745	81680.7
7.750	81690.7
7.755	81689.7
7.760	81663.7
7.765	81660.7
7.770	81668.7
7.775	81690.7
7.780	81678.7
7.785	81672.7
7.790	81678.7
7.795	81668.7
7.800	81672.7
7.805	81676.7
7.810	81686.7
7.815	81691.7
7.820	81694.7
7.825	81668.7
7.830	81658.7
7.835	81669.7
7.840	81687.7
7.845	81686.7
7.850	81688.7
7.855	81677.7
7.860	81678.7
7.865	81673.7
7.870	81688.7
7.875	81674.7
7.880	81692.7
7.885	81691.7
7.890	81692.7
7.895	81656.7
7.900	81656.7
7.905	81677.7
7.910	81701.7
7.915	81693.7
7.920	81691.7
7.925	81691.7
7.930	81691.7
7.935	81692.7
7.940	81694.7
7.945	81698.7
7.950	81697.7
7.955	81691.7
7.960	81659.7
7.965	81640.7
7.970	81677.7
7.975	81680.7
7.980	81679.7
7.985	81674.7
7.990	81667.7
7.995	81670.7
8.000	81669.7
8.005	81652.7
8.010	81660.7
8.015	81669.7
8.020	81668.7
8.025	81646.7
8.030	81635.8
8.035	81635.8
8.040	81658.7
8.045	81671.7
8.050	81672.7
8.055	81666.7
8.060	81658.7
8.065	81660.7
8.070	81668.7
8.075	81658.7
8.080	81651.8
8.085	81658.8
8.090	81661.8
8.095	81637.8
8.100	81649.8
8.105	81686.7
8.110	81707.7
8.115	81714.7
8.120	81709.7
8.125	81699.7
8.130	81701.7
8.135	81700.7
8.140	81717.7
8.145	81713.7
8.150	81726.7
8.155	81714.7
8.160	81677.8
8.165	81659.8
8.170	81679.8
8.175	81714.7
8.180	81742.7
8.185	81751.7
8.190	81757.7
8.195	81779.7
8.200	81779.7
8.205	81787.7
8.210	81781.7
8.215	81784.7
8.220	81781.7
8.225	81749.7
8.230	81724.7
8.235	81720.8
8.240	81757.7
8.245	81737.7
8.250	81739.7
8.255	81740.7
8.260	81745.7
8.265	81735.8
8.270	81753.7
8.275	81746.7
8.280	81756.7
8.285	81750.7
8.290	81739.8
8.295	81710.8
8.300	81713.8
8.305	81724.8
8.310	81727.8
8.315	81726.8
8.320	81711.8
8.325	81698.8
8.330	81692.8
8.335	81691.8
8.340	81684.8
8.345	81674.8
8.350	81690.8
8.355	81700.8
8.360	81682.8
8.365	81681.8
8.370	81697.8
8.375	81714.8
8.380	81708.8
8.385	81713.8
8.390	81709.8
8.395	81714.8
8.400	81709.8
8.405	81705.8
8.410	81712.8
8.415	81713.8
8.420	81690.8
8.425	81658.9
8.430	81637.9
8.435	81612.9
8.440	81572.9
8.445	81441.0
8.450	81257.2
8.455	80981.4
8.460	80574.7
8.465	80125.0
8.470	79738.3
8.475	79554.5
8.480	79663.4
8.485	80062.1
8.490	80347.9
8.495	80395.8
8.500	80508.8
8.505	80688.6
8.510	80845.5
8.515	80911.5
8.520	80892.5
8.525	80772.6
8.530	80705.6
8.535	80777.6
8.540	80980.4
8.545	81224.2
8.550	81429.1
8.555	81548.0
8.560	81585.0
8.565	81603.0
8.570	81645.9
8.575	81679.9
8.580	81688.9
8.585	81719.9
8.590	81724.9
8.595	81733.9
8.600	81732.9
8.605	81741.9
8.610	81734.9
8.615	81733.9
8.620	81730.9
8.625	81701.9
8.630	81703.9
8.635	81695.9
8.640	81721.9
8.645	81701.0
8.650	81707.9
8.655	81685.0
8.660	81693.0
8.665	81689.0
8.670	81690.0
8.675	81665.0
8.680	81668.0
8.685	81657.0
8.690	81645.0
8.695	81609.0
8.700	81619.0
8.705	81638.0
8.710	81643.0
8.715	81648.0
8.720	81642.0
8.725	81621.1
8.730	81620.1
8.735	81619.1
8.740	81625.1
8.745	81623.1
8.750	81604.1
8.755	81604.1
8.760	81562.1
8.765	81548.1
8.770	81568.1
8.775	81571.1
8.780	81559.1
8.785	81537.2
8.790	81530.2
8.795	81508.2
8.800	81488.2
8.805	81397.3
8.810	81287.4
8.815	81275.4
8.820	81385.3
8.825	81442.3
8.830	81456.3
8.835	81476.3
8.840	81501.2
8.845	81498.2
8.850	81498.2
8.855	81490.3
8.860	81484.3
8.865	81483.3
8.870	81495.3
8.875	81507.3
8.880	81512.3
8.885	81532.2
8.890	81531.3
8.895	81526.3
8.900	81552.2
8.905	81586.2
8.910	81591.2
8.915	81579.2
8.920	81578.2
8.925	81585.2
8.930	81595.2
8.935	81592.3
8.940	81598.3
8.945	81590.3
8.950	81592.3
8.955	81593.3
8.960	81565.3
8.965	81545.3
8.970	81564.3
8.975	81579.3
8.980	81547.3
8.985	81416.4
8.990	81361.5
8.995	81484.4
9.000	81581.3
9.005	81581.3
9.010	81578.4
9.015	81580.4
9.020	81577.4
9.025	81545.4
9.030	81523.4
9.035	81541.4
9.040	81567.4
9.045	81570.4
9.050	81572.4
9.055	81571.4
9.060	81562.4
9.065	81562.4
9.070	81570.5
9.075	81565.5
9.080	81565.5
9.085	81554.5
9.090	81535.5
9.095	81501.5
9.100	81509.5
9.105	81520.6
9.110	81516.6
9.115	81487.6
9.120	81471.6
9.125	81455.6
9.130	81455.7
9.135	81429.7
9.140	81394.7
9.145	81347.8
9.150	81347.8
9.155	81339.8
9.160	81291.8
9.165	81273.9
9.170	81291.9
9.175	81269.9
9.180	81235.9
9.185	81215.0
9.190	81197.0
9.195	81189.0
9.200	81177.0
9.205	81173.1
9.210	81153.1
9.215	81115.1
9.220	81102.1
9.225	81087.2
9.230	81090.2
9.235	81098.2
9.240	81104.2
9.245	81064.3
9.250	81051.3
9.255	81068.3
9.260	81138.3
9.265	81223.2
9.270	81327.1
9.275	81412.1
9.280	81495.1
9.285	81531.1
9.290	81544.1
9.295	81543.1
9.300	81573.1
9.305	81608.1
9.310	81609.1
9.315	81601.2
9.320	81597.2
9.325	81603.2
9.330	81607.3
9.335	81608.3
9.340	81609.3
9.345	81597.4
9.350	81603.4
9.355	81590.4
9.360	81572.5
9.365	81553.6
9.370	81576.6
9.375	81588.6
9.380	81586.7
9.385	81581.7
9.390	81578.8
9.395	81577.9
9.400	81562.0
9.405	81543.0
9.410	81515.2
9.415	81498.3
9.420	81405.4
9.425	81314.7
9.430	81233.9
9.435	81047.2
9.440	81040.4
9.445	80952.7
9.450	80539.3
9.455	80006.9
9.460	79674.4
9.465	79652.6
9.470	79840.6
9.475	79955.7
9.480	79996.7
9.485	80012.7
9.490	79955.6
9.495	79838.5
9.500	79850.3
9.505	80021.8
9.510	80198.3
9.515	80348.6
9.520	80523.8
9.525	80715.9
9.530	80949.1
9.535	81158.4
9.540	81339.8
9.545	81440.5
9.550	81508.4
9.555	81549.3
9.560	81540.3
9.565	81551.2
9.570	81581.2
9.575	81585.2
9.580	81585.2
9.585	81579.2
9.590	81586.2
9.595	81585.2
9.600	81583.2
9.605	81588.2
9.610	81599.2
9.615	81588.2
9.620	81603.2
9.625	81565.2
9.630	81562.2
9.635	81568.2
9.640	81602.2
9.645	81597.2
9.650	81597.2
9.655	81596.2
9.660	81607.2
9.665	81598.2
9.670	81608.2
9.675	81607.2
9.680	81608.2
9.685	81602.2
9.690	81587.2
9.695	81569.2
9.700	81578.2
9.705	81606.2
9.710	81600.2
9.715	81593.2
9.720	81596.2
9.725	81598.2
9.730	81602.2
9.735	81604.2
9.740	81611.2
9.745	81602.2
9.750	81617.1
9.755	81611.2
9.760	81584.2
9.765	81574.2
9.770	81601.2
9.775	81604.2
9.780	81610.1
9.785	81614.1
9.790	81615.1
9.795	81618.1
9.800	81616.1
9.805	81619.1
9.810	81620.1
9.815	81613.1
9.820	81617.1
9.825	81588.2
9.830	81586.2
9.835	81600.2
9.840	81621.1
9.845	81620.1
9.850	81612.1
9.855	81610.1
9.860	81608.1
9.865	81608.2
9.870	81602.2
9.875	81597.2
9.880	81603.2
9.885	81606.2
9.890	81591.2
9.895	81563.2
9.900	81578.2
9.905	81602.2
9.910	81610.1
9.915	81607.2
9.920	81608.1
9.925	81602.2
9.930	81602.2
9.935	81592.2
9.940	81593.2
9.945	81591.2
9.950	81593.2
9.955	81575.2
9.960	81544.2
9.965	81544.2
9.970	81571.2
9.975	81569.2
9.980	81558.2
9.985	81553.2
9.990	81544.2
9.995	81534.2
10.000	81533.2
10.005	81536.2
10.010	81532.2
10.015	81527.2
10.020	81528.2
10.025	81498.2
10.030	81489.2
10.035	81502.2
10.040	81527.2
10.045	81520.2
10.050	81516.2
10.055	81507.2
10.060	81519.2
10.065	81505.2
10.070	81502.2
10.075	81497.2
10.080	81492.2
10.085	81491.2
10.090	81477.2
10.095	81452.3
10.100	81467.3
10.105	81492.2
10.110	81485.2
10.115	81470.2
10.120	81464.3
10.125	81455.3
10.130	81449.3
10.135	81438.3
10.140	81435.3
10.145	81442.3
10.150	81447.3
10.155	81430.3
10.160	81403.3
10.165	81407.3
10.170	81432.3
10.175	81438.3
10.180	81439.3
10.185	81425.3
10.190	81438.3
10.195	81434.3
10.200	81436.3
10.205	81423.3
10.210	81427.3
10.215	81416.3
10.220	81414.3
10.225	81376.3
10.230	81376.3
10.235	81393.3
10.240	81404.3
10.245	81386.3
10.250	81384.3
10.255	81392.3
10.260	81395.3
10.265	81396.3
10.270	81389.3
10.275	81390.3
10.280	81389.3
10.285	81393.3
10.290	81368.3
10.295	81351.3
10.300	81355.3
10.305	81379.3
10.310	81369.3
10.315	81370.3
10.320	81382.3
10.325	81391.3
10.330	81400.3
10.335	81399.3
10.340	81403.3
10.345	81397.3
10.350	81397.3
10.355	81397.3
10.360	81374.3
10.365	81377.3
10.370	81397.3
10.375	81402.3
10.380	81401.3
10.385	81409.3
10.390	81416.3
10.395	81420.3
10.400	81419.3
10.405	81428.3
10.410	81430.3
10.415	81439.3
10.420	81450.3
10.425	81424.3
10.430	81432.3
10.435	81441.3
10.440	81463.2
10.445	81450.2
10.450	81451.3
10.455	81449.3
10.460	81464.2
10.465	81465.2
10.470	81472.2
10.475	81471.2
10.480	81483.2
10.485	81481.2
10.490	81464.2
10.495	81447.3
10.500	81472.2
10.505	81491.2
10.510	81499.2
10.515	81497.2
10.520	81502.2
10.525	81499.2
10.530	81505.2
10.535	81508.2
10.540	81512.2
10.545	81506.2
10.550	81499.2
10.555	81496.2
10.560	81468.2
10.565	81479.2
10.570	81504.2
10.575	81495.2
10.580	81496.2
10.585	81502.2
10.590	81514.2
10.595	81515.2
10.600	81528.2
10.605	81524.2
10.610	81544.2
10.615	81534.2
10.620	81555.2
10.625	81520.2
10.630	81528.2
10.635	81538.2
10.640	81551.2
10.645	81545.2
10.650	81542.2
10.655	81544.2
10.660	81547.2
10.665	81537.2
10.670	81545.2
10.675	81545.2
10.680	81551.2
10.685	81550.2
10.690	81546.2
10.695	81518.2
10.700	81539.2
10.705	81550.2
10.710	81566.2
10.715	81563.2
10.720	81575.1
10.725	81554.2
10.730	81576.1
10.735	81568.2
10.740	81560.2
10.745	81553.2
10.750	81556.2
10.755	81543.2
10.760	81521.2
10.765	81533.2
10.770	81570.2
10.775	81567.2
10.780	81564.2
10.785	81558.2
10.790	81563.2
10.795	81560.2
10.800	81556.2
10.805	81553.2
10.810	81553.2
10.815	81564.1
10.820	81567.1
10.825	81535.2
10.830	81530.2
10.835	81548.2
10.840	81569.1
10.845	81560.2
10.850	81559.2
10.855	81560.2
10.860	81563.2
10.865	81566.1
10.870	81570.1
10.875	81569.1
10.880	81570.1
10.885	81560.2
10.890	81545.2
10.895	81541.2
10.900	81562.1
10.905	81582.1
10.910	81579.1
10.915	81559.1
10.920	81558.2
10.925	81567.1
10.930	81565.1
10.935	81570.1
10.940	81569.1
10.945	81565.1
10.950	81566.1
10.955	81555.2
10.960	81533.2
10.965	81536.2
10.970	81576.1
10.975	81580.1
10.980	81578.1
10.985	81566.1
10.990	81567.1
10.995	81561.1
11.000	81561.1
11.005	81553.2
11.010	81562.1
11.015	81563.1
11.020	81558.1
11.025	81527.2
11.030	81545.2
11.035	81552.2
11.040	81562.1
11.045	81543.2
11.050	81534.2
11.055	81535.2
11.060	81537.2
11.065	81528.2
11.070	81533.2
11.075	81534.2
11.080	81528.2
11.085	81526.2
11.090	81509.2
11.095	81490.2
11.100	81506.2
11.105	81529.2
11.110	81529.2
11.115	81518.2
11.120	81517.2
11.125	81526.2
11.130	81533.2
11.135	81520.2
11.140	81536.2
11.145	81536.2
11.150	81535.2
11.155	81506.2
11.160	81487.2
11.165	81496.2
11.170	81523.2
11.175	81516.2
11.180	81529.2
11.185	81507.2
11.190	81508.2
11.195	81507.2
11.200	81501.2
11.205	81494.2
11.210	81496.2
11.215	81497.2
11.220	81493.2
11.225	81467.2
11.230	81454.2
11.235	81455.2
11.240	81468.2
11.245	81461.2
11.250	81464.2
11.255	81457.2
11.260	81456.2
11.265	81445.2
11.270	81456.2
11.275	81457.2
11.280	81464.2
11.285	81459.2
11.290	81427.2
11.295	81420.2
11.300	81439.2
11.305	81459.2
11.310	81446.2
11.315	81440.2
11.320	81432.2
11.325	81425.2
11.330	81429.2
11.335	81420.2
11.340	81425.2
11.345	81427.2
11.350	81435.2
11.355	81426.2
11.360	81404.3
11.365	81402.3
11.370	81417.2
11.375	81422.2
11.380	81425.2
11.385	81417.2
11.390	81417.2
11.395	81428.2
11.400	81433.2
11.405	81431.2
11.410	81444.2
11.415	81431.2
11.420	81426.2
11.425	81389.3
11.430	81393.3
11.435	81414.2
11.440	81427.2
11.445	81421.2
11.450	81418.2
11.455	81415.2
11.460	81410.2
11.465	81418.2
11.470	81429.2
11.475	81432.2
11.480	81425.2
11.485	81424.2
11.490	81406.2
11.495	81388.3
11.500	81408.2
11.505	81432.2
11.510	81431.2
11.515	81432.2
11.520	81430.2
11.525	81431.2
11.530	81439.2
11.535	81442.2
11.540	81457.2
11.545	81446.2
11.550	81445.2
11.555	81433.2
11.560	81413.2
11.565	81428.2
11.570	81453.2
11.575	81446.2
11.580	81439.2
11.585	81439.2
11.590	81449.2
11.595	81448.2
11.600	81450.2
11.605	81459.2
11.610	81454.2
11.615	81459.2
11.620	81461.2
11.625	81415.2
11.630	81427.2
11.635	81433.2
11.640	81452.2
11.645	81446.2
11.650	81453.2
11.655	81455.2
11.660	81460.2
11.665	81445.2
11.670	81455.2
11.675	81454.2
11.680	81457.2
11.685	81454.2
11.690	81431.2
11.695	81419.2
11.700	81442.2
11.705	81447.2
11.710	81447.2
11.715	81434.2
11.720	81451.2
11.725	81447.2
11.730	81442.2
11.735	81445.2
11.740	81453.2
11.745	81454.2
11.750	81457.2
11.755	81447.2
11.760	81421.2
11.765	81427.2
11.770	81457.2
11.775	81460.2
11.780	81459.2
11.785	81447.2
11.790	81449.2
11.795	81453.2
11.800	81458.2
11.805	81447.2
11.810	81453.2
11.815	81447.2
11.820	81457.2
11.825	81413.2
11.830	81421.2
11.835	81434.2
11.840	81453.2
11.845	81448.2
11.850	81455.2
11.855	81449.2
11.860	81456.2
11.865	81445.2
11.870	81439.2
11.875	81433.2
11.880	81427.2
11.885	81424.2
11.890	81396.2
11.895	81383.3
11.900	81403.2
11.905	81417.2
11.910	81420.2
11.915	81400.2
11.920	81405.2
11.925	81408.2
11.930	81423.2
11.935	81435.2
11.940	81428.2
11.945	81433.2
11.950	81434.2
11.955	81408.2
11.960	81384.2
11.965	81401.2
11.970	81427.2
11.975	81415.2
11.980	81417.2
11.985	81411.2
11.990	81414.2
11.995	81415.2
12.000	81419.2
12.005	81419.2
12.010	81428.2
12.015	81423.2
12.020	81417.2
12.025	81381.2
12.030	81387.2
12.035	81407.2
12.040	81418.2
12.045	81419.2
12.050	81425.2
12.055	81422.2
12.060	81416.2
12.065	81420.2
12.070	81425.2
12.075	81424.2
12.080	81426.2
12.085	81416.2
12.090	81395.2
12.095	81384.2
12.100	81401.2
12.105	81406.2
12.110	81404.2
12.115	81401.2
12.120	81403.2
12.125	81395.2
12.130	81405.2
12.135	81409.2
12.140	81400.2
12.145	81407.2
12.150	81402.2
12.155	81385.2
12.160	81363.3
12.165	81380.2
12.170	81409.2
12.175	81409.2
12.180	81405.2
12.185	81403.2
12.190	81401.2
12.195	81403.2
12.200	81405.2
12.205	81410.2
12.210	81414.2
12.215	81414.2
12.220	81413.2
12.225	81382.2
12.230	81400.2
12.235	81416.2
12.240	81416.2
12.245	81413.2
12.250	81420.2
12.255	81418.2
12.260	81421.2
12.265	81418.2
12.270	81426.2
12.275	81430.2
12.280	81430.2
12.285	81427.2
12.290	81390.2
12.295	81390.2
12.300	81397.2
12.305	81432.2
12.310	81430.2
12.315	81430.2
12.320	81435.2
12.325	81434.2
12.330	81435.2
12.335	81441.2
12.340	81447.2
12.345	81449.2
12.350	81450.2
12.355	81418.2
12.360	81404.2
12.365	81422.2
12.370	81454.2
12.375	81457.2
12.380	81460.2
12.385	81444.2
12.390	81451.2
12.395	81460.2
12.400	81462.2
12.405	81468.2
12.410	81472.2
12.415	81483.2
12.420	81473.2
12.425	81444.2
12.430	81443.2
12.435	81471.2
12.440	81486.2
12.445	81496.1
12.450	81495.1
12.455	81490.2
12.460	81498.1
12.465	81499.1
12.470	81513.1
12.475	81513.1
12.480	81506.1
12.485	81510.1
12.490	81478.2
12.495	81491.1
12.500	81512.1
12.505	81528.1
12.510	81525.1
12.515	81513.1
12.520	81525.1
12.525	81523.1
12.530	81523.1
12.535	81513.1
12.540	81523.1
12.545	81534.1
12.550	81538.1
12.555	81516.1
12.560	81508.1
12.565	81517.1
12.570	81551.1
12.575	81543.1
12.580	81560.1
12.585	81564.1
12.590	81567.1
12.595	81582.1
12.600	81575.1
12.605	81581.1
12.610	81584.1
12.615	81586.1
12.620	81585.1
12.625	81546.1
12.630	81554.1
12.635	81581.1
12.640	81595.1
12.645	81591.1
12.650	81597.1
12.655	81597.1
12.660	81600.1
12.665	81592.1
12.670	81611.0
12.675	81601.1
12.680	81624.0
12.685	81610.0
12.690	81589.1
12.695	81582.1
12.700	81604.1
12.705	81627.0
12.710	81627.0
12.715	81633.0
12.720	81641.0
12.725	81636.0
12.730	81646.0
12.735	81646.0
12.740	81651.0
12.745	81649.0
12.750	81645.0
12.755	81619.0
12.760	81608.0
12.765	81627.0
12.770	81655.0
12.775	81657.0
12.780	81656.0
12.785	81639.0
12.790	81651.0
12.795	81650.0
12.800	81652.0
12.805	81653.0
12.810	81664.0
12.815	81669.0
12.820	81672.0
12.825	81633.0
12.830	81650.0
12.835	81662.0
12.840	81680.0
12.845	81674.0
12.850	81677.0
12.855	81669.0
12.860	81679.0
12.865	81683.0
12.870	81689.0
12.875	81693.0
12.880	81698.0
12.885	81691.0
12.890	81666.0
12.895	81666.0
12.900	81684.0
12.905	81703.0
12.910	81699.0
12.915	81698.0
12.920	81698.0
12.925	81690.0
12.930	81700.0
12.935	81700.0
12.940	81710.0
12.945	81705.0
12.950	81719.0
12.955	81687.0
12.960	81683.0
12.965	81690.0
12.970	81723.0
12.975	81718.0
12.980	81724.9
12.985	81721.0
12.990	81725.0
12.995	81711.0
13.000	81724.9
13.005	81728.9
13.010	81730.9
13.015	81720.0
13.020	81712.0
13.025	81678.0
13.030	81701.0
13.035	81720.9
13.040	81726.9
13.045	81728.9
13.050	81725.9
13.055	81719.9
13.060	81722.0
13.065	81722.9
13.070	81730.9
13.075	81725.9
13.080	81732.9
13.085	81734.9
13.090	81710.0
13.095	81710.0
13.100	81727.9
13.105	81734.9
13.110	81742.9
13.115	81747.9
13.120	81743.9
13.125	81741.9
13.130	81750.9
13.135	81761.9
13.140	81756.9
13.145	81752.9
13.150	81755.9
13.155	81731.9
13.160	81720.9
13.165	81735.9
13.170	81768.9
13.175	81745.9
13.180	81746.9
13.185	81743.9
13.190	81749.9
13.195	81745.9
13.200	81743.9
13.205	81751.9
13.210	81744.9
13.215	81741.9
13.220	81737.9
13.225	81708.0
13.230	81714.9
13.235	81725.9
13.240	81737.9
13.245	81736.9
13.250	81742.9
13.255	81735.9
13.260	81737.9
13.265	81741.9
13.270	81746.9
13.275	81754.9
13.280	81750.9
13.285	81746.9
13.290	81696.0
13.295	81698.0
13.300	81722.9
13.305	81723.9
13.310	81723.9
13.315	81717.9
13.320	81712.9
13.325	81714.9
13.330	81724.9
13.335	81719.9
13.340	81719.9
13.345	81715.9
13.350	81716.9
13.355	81691.0
13.360	81680.0
13.365	81681.0
13.370	81704.9
13.375	81698.0
13.380	81708.9
13.385	81700.0
13.390	81701.9
13.395	81700.9
13.400	81699.0
13.405	81693.0
13.410	81701.9
13.415	81690.0
13.420	81678.0
13.425	81653.0
13.430	81665.0
13.435	81685.0
13.440	81684.0
13.445	81667.0
13.450	81667.0
13.455	81664.0
13.460	81660.0
13.465	81662.0
13.470	81666.0
13.475	81661.0
13.480	81660.0
13.485	81654.0
13.490	81621.0
13.495	81612.0
13.500	81632.0
13.505	81648.0
13.510	81646.0
13.515	81630.0
13.520	81649.0
13.525	81644.0
13.530	81644.0
13.535	81642.0
13.540	81646.0
13.545	81638.0
13.550	81646.0
13.555	81601.0
13.560	81596.0
13.565	81608.0
13.570	81645.0
13.575	81636.0
13.580	81619.0
13.585	81629.0
13.590	81626.0
13.595	81624.0
13.600	81621.0
13.605	81617.0
13.610	81626.0
13.615	81629.0
13.620	81625.0
13.625	81586.0
13.630	81601.0
13.635	81622.0
13.640	81618.0
13.645	81617.0
13.650	81622.0
13.655	81610.0
13.660	81621.0
13.665	81611.0
13.670	81620.0
13.675	81621.0
13.680	81628.0
13.685	81619.0
13.690	81594.0
13.695	81601.0
13.700	81612.0
13.705	81615.0
13.710	81618.0
13.715	81605.0
13.720	81609.0
13.725	81613.0
13.730	81609.0
13.735	81615.0
13.740	81611.0
13.745	81609.0
13.750	81631.0
13.755	81605.0
13.760	81600.0
13.765	81600.0
13.770	81624.0
13.775	81625.0
13.780	81630.0
13.785	81624.0
13.790	81627.0
13.795	81628.0
13.800	81638.0
13.805	81632.0
13.810	81643.0
13.815	81638.0
13.820	81626.0
13.825	81604.0
13.830	81620.0
13.835	81645.0
13.840	81654.0
13.845	81640.0
13.850	81641.0
13.855	81644.0
13.860	81639.0
13.865	81655.0
13.870	81655.0
13.875	81658.0
13.880	81668.9
13.885	81662.0
13.890	81642.0
13.895	81634.0
13.900	81654.0
13.905	81669.9
13.910	81677.9
13.915	81677.9
13.920	81681.9
13.925	81676.9
13.930	81686.9
13.935	81680.9
13.940	81699.9
13.945	81701.9
13.950	81706.9
13.955	81664.0
13.960	81673.9
13.965	81692.9
13.970	81706.9
13.975	81698.9
13.980	81697.9
13.985	81701.9
13.990	81700.9
13.995	81688.9
14.000	81705.9
14.005	81706.9
14.010	81717.9
14.015	81708.9
14.020	81700.9
14.025	81670.9
14.030	81691.9
14.035	81718.9
14.040	81716.9
14.045	81719.9
14.050	81718.9
14.055	81714.9
14.060	81718.9
14.065	81720.9
14.070	81725.9
14.075	81722.9
14.080	81728.9
14.085	81726.9
14.090	81692.9
14.095	81688.9
14.100	81725.9
14.105	81725.9
14.110	81727.9
14.115	81711.9
14.120	81709.9
14.125	81711.9
14.130	81710.9
14.135	81710.9
14.140	81704.9
14.145	81714.9
14.150	81720.9
14.155	81692.9
14.160	81685.9
14.165	81694.9
14.170	81726.9
14.175	81718.9
14.180	81729.9
14.185	81726.9
14.190	81732.9
14.195	81719.9
14.200	81740.9
14.205	81735.9
14.210	81743.9
14.215	81724.9
14.220	81704.9
14.225	81698.9
14.230	81720.9
14.235	81738.9
14.240	81737.9
14.245	81725.9
14.250	81721.9
14.255	81713.9
14.260	81717.9
14.265	81717.9
14.270	81717.9
14.275	81723.9
14.280	81731.9
14.285	81721.9
14.290	81693.9
14.295	81698.9
14.300	81726.9
14.305	81727.9
14.310	81730.9
14.315	81725.9
14.320	81736.9
14.325	81731.9
14.330	81734.9
14.335	81730.9
14.340	81727.9
14.345	81733.9
14.350	81734.9
14.355	81692.9
14.360	81696.9
14.365	81713.9
14.370	81722.9
14.375	81717.9
14.380	81716.9
14.385	81718.9
14.390	81725.9
14.395	81719.9
14.400	81716.9
14.405	81723.9
14.410	81726.9
14.415	81727.9
14.420	81698.9
14.425	81675.9
14.430	81693.9
14.435	81718.9
14.440	81719.9
14.445	81715.9
14.450	81714.9
14.455	81720.9
14.460	81722.9
14.465	81714.9
14.470	81734.9
14.475	81728.9
14.480	81724.9
14.485	81715.9
14.490	81684.9
14.495	81699.9
14.500	81718.9
14.505	81712.9
14.510	81708.9
14.515	81709.9
14.520	81711.9
14.525	81701.9
14.530	81703.9
14.535	81706.9
14.540	81710.9
14.545	81712.9
14.550	81717.9
14.555	81682.9
14.560	81678.9
14.565	81691.9
14.570	81712.9
14.575	81700.9
14.580	81705.9
14.585	81703.9
14.590	81717.9
14.595	81715.9
14.600	81718.9
14.605	81712.9
14.610	81714.9
14.615	81710.9
14.620	81687.9
14.625	81674.9
14.630	81698.9
14.635	81711.9
14.640	81705.9
14.645	81696.9
14.650	81699.9
14.655	81694.9
14.660	81700.9
14.665	81692.9
14.670	81707.9
14.675	81696.9
14.680	81701.9
14.685	81684.9
14.690	81655.9
14.695	81661.9
14.700	81688.9
14.705	81690.9
14.710	81690.9
14.715	81689.9
14.720	81699.9
14.725	81693.9
14.730	81695.9
14.735	81691.9
14.740	81693.9
14.745	81692.9
14.750	81696.9
14.755	81651.9
14.760	81653.9
14.765	81669.9
14.770	81689.9
14.775	81670.9
14.780	81674.9
14.785	81680.9
14.790	81676.9
14.795	81664.9
14.800	81649.9
14.805	81654.9
14.810	81656.9
14.815	81644.9
14.820	81615.9
14.825	81608.9
14.830	81628.9
14.835	81647.9
14.840	81658.9
14.845	81662.9
14.850	81659.9
14.855	81655.9
14.860	81651.9
14.865	81648.9
14.870	81648.9
14.875	81651.9
14.880	81634.9
14.885	81621.9
14.890	81599.0
14.895	81602.0
14.900	81615.9
14.905	81622.9
14.910	81619.9
14.915	81610.9
14.920	81612.9
14.925	81607.9
14.930	81597.0
14.935	81592.0
14.940	81597.0
14.945	81597.0
14.950	81596.0
14.955	81554.0
14.960	81544.0
14.965	81564.0
14.970	81586.0
14.975	81579.0
14.980	81577.0
14.985	81568.0
14.990	81564.0
14.995	81565.0
15.000	81572.0
15.005	81565.0
15.010	81566.0
15.015	81571.0
15.020	81548.0
15.025	81525.0
15.030	81555.0
15.035	81568.0
15.040	81564.0
15.045	81560.0
15.050	81559.0
15.055	81550.0
15.060	81555.0
15.065	81562.0
15.070	81556.0
15.075	81564.0
15.080	81573.0
15.085	81568.0
15.090	81535.0
15.095	81554.0
15.100	81583.0
15.105	81581.0
15.110	81585.0
15.115	81585.0
15.120	81588.0
15.125	81595.9
15.130	81594.9
15.135	81604.9
15.140	81598.9
15.145	81600.9
15.150	81599.9
15.155	81568.0
15.160	81575.0
15.165	81590.9
15.170	81607.9
15.175	81598.9
15.180	81603.9
15.185	81613.9
15.190	81614.9
15.195	81599.9
15.200	81600.9
15.205	81602.9
15.210	81608.9
15.215	81608.9
15.220	81590.9
15.225	81572.0
15.230	81580.0
15.235	81608.9
15.240	81603.9
15.245	81617.9
15.250	81623.9
15.255	81617.9
15.260	81614.9
15.265	81609.9
15.270	81625.9
15.275	81615.9
15.280	81604.9
15.285	81602.9
15.290	81570.0
15.295	81574.0
15.300	81612.9
15.305	81604.9
15.310	81596.9
15.315	81590.9
15.320	81588.9
15.325	81583.9
15.330	81580.9
15.335	81576.9
15.340	81581.9
15.345	81572.9
15.350	81576.9
15.355	81544.0
15.360	81547.0
15.365	81557.0
15.370	81579.9
15.375	81563.0
15.380	81574.9
15.385	81571.9
15.390	81579.9
15.395	81559.0
15.400	81551.0
15.405	81551.0
15.410	81554.0
15.415	81558.0
15.420	81520.0
15.425	81511.0
15.430	81523.0
15.435	81546.0
15.440	81545.0
15.445	81531.0
15.450	81528.0
15.455	81528.0
15.460	81522.0
15.465	81514.0
15.470	81514.0
15.475	81526.0
15.480	81523.0
15.485	81505.0
15.490	81472.0
15.495	81480.0
15.500	81500.0
15.505	81498.0
15.510	81506.0
15.515	81501.0
15.520	81506.0
15.525	81502.0
15.530	81504.0
15.535	81497.0
15.540	81505.0
15.545	81501.0
15.550	81501.0
15.555	81452.0
15.560	81464.0
15.565	81480.0
15.570	81484.0
15.575	81481.0
15.580	81483.0
15.585	81481.0
15.590	81483.0
15.595	81466.0
15.600	81475.0
15.605	81473.0
15.610	81481.0
15.615	81482.0
15.620	81460.0
15.625	81451.0
15.630	81465.0
15.635	81481.0
15.640	81483.0
15.645	81488.0
15.650	81483.0
15.655	81480.0
15.660	81485.0
15.665	81489.0
15.670	81491.0
15.675	81491.0
15.680	81487.0
15.685	81471.0
15.690	81455.0
15.695	81458.0
15.700	81491.0
15.705	81496.0
15.710	81489.0
15.715	81480.0
15.720	81481.0
15.725	81472.0
15.730	81485.0
15.735	81474.0
15.740	81479.0
15.745	81493.0
15.750	81490.0
15.755	81451.0
15.760	81449.0
15.765	81473.0
15.770	81498.0
15.775	81489.0
15.780	81494.0
15.785	81493.0
15.790	81496.0
15.795	81516.0
15.800	81519.0
15.805	81508.0
15.810	81510.0
15.815	81508.0
15.820	81485.0
15.825	81482.0
15.830	81503.0
15.835	81530.9
15.840	81531.0
15.845	81529.9
15.850	81536.9
15.855	81530.9
15.860	81539.9
15.865	81524.0
15.870	81530.9
15.875	81526.9
15.880	81542.9
15.885	81526.0
15.890	81506.0
15.895	81505.0
15.900	81533.9
15.905	81537.9
15.910	81555.9
15.915	81553.9
15.920	81552.9
15.925	81545.9
15.930	81550.9
15.935	81556.9
15.940	81564.9
15.945	81558.9
15.950	81563.9
15.955	81518.9
15.960	81527.9
15.965	81557.9
15.970	81558.9
15.975	81549.9
15.980	81558.9
15.985	81557.9
15.990	81563.9
15.995	81554.9
16.000	81565.9
16.005	81575.9
16.010	81595.9
16.015	81581.9
16.020	81549.9
16.025	81527.9
16.030	81545.9
16.035	81568.9
16.040	81567.9
16.045	81557.9
16.050	81561.9
16.055	81558.9
16.060	81581.9
16.065	81580.9
16.070	81578.9
16.075	81580.9
16.080	81573.9
16.085	81556.9
16.090	81534.9
16.095	81549.9
16.100	81575.9
16.105	81570.9
16.110	81572.9
16.115	81568.9
16.120	81571.9
16.125	81567.9
16.130	81565.9
16.135	81549.9
16.140	81570.9
16.145	81560.9
16.150	81562.9
16.155	81522.9
16.160	81520.9
16.165	81555.9
16.170	81562.9
16.175	81563.9
16.180	81558.9
16.185	81549.9
16.190	81559.9
16.195	81554.9
16.200	81564.9
16.205	81557.9
16.210	81557.9
16.215	81549.9
16.220	81528.9
16.225	81511.9
16.230	81534.9
16.235	81544.9
16.240	81546.9
16.245	81544.9
16.250	81533.9
16.255	81534.9
16.260	81534.9
16.265	81545.9
16.270	81536.9
16.275	81544.9
16.280	81550.9
16.285	81526.9
16.290	81506.9
16.295	81513.9
16.300	81542.9
16.305	81551.9
16.310	81558.9
16.315	81557.9
16.320	81552.9
16.325	81550.9
16.330	81558.9
16.335	81554.9
16.340	81551.9
16.345	81549.9
16.350	81552.9
16.355	81514.9
16.360	81518.9
16.365	81538.9
16.370	81551.9
16.375	81539.9
16.380	81533.9
16.385	81525.9
16.390	81524.9
16.395	81527.9
16.400	81527.9
16.405	81524.9
16.410	81527.9
16.415	81528.9
16.420	81490.9
16.425	81483.9
16.430	81502.9
16.435	81518.9
16.440	81523.9
16.445	81517.9
16.450	81519.9
16.455	81503.9
16.460	81515.9
16.465	81523.9
16.470	81518.9
16.475	81517.9
16.480	81508.9
16.485	81486.9
16.490	81479.9
16.495	81497.9
16.500	81510.9
16.505	81507.9
16.510	81501.9
16.515	81477.9
16.520	81485.9
16.525	81481.9
16.530	81488.9
16.535	81471.9
16.540	81484.9
16.545	81496.9
16.550	81486.9
16.555	81456.0
16.560	81462.9
16.565	81480.9
16.570	81497.9
16.575	81485.9
16.580	81492.9
16.585	81498.9
16.590	81489.9
16.595	81498.9
16.600	81506.9
16.605	81497.9
16.610	81500.9
16.615	81507.9
16.620	81472.9
16.625	81465.9
16.630	81489.9
16.635	81502.9
16.640	81509.9
16.645	81513.9
16.650	81501.9
16.655	81499.9
16.660	81500.9
16.665	81496.9
16.670	81513.9
16.675	81522.9
16.680	81532.9
16.685	81501.9
16.690	81481.9
16.695	81499.9
16.700	81529.9
16.705	81527.9
16.710	81532.9
16.715	81519.9
16.720	81517.9
16.725	81524.9
16.730	81533.9
16.735	81534.9
16.740	81534.9
16.745	81524.9
16.750	81514.9
16.755	81478.9
16.760	81489.9
16.765	81518.9
16.770	81519.9
16.775	81512.9
16.780	81505.9
16.785	81493.9
16.790	81492.9
16.795	81500.9
16.800	81498.9
16.805	81486.9
16.810	81491.9
16.815	81483.9
16.820	81467.9
16.825	81452.9
16.830	81462.9
16.835	81484.9
16.840	81489.9
16.845	81480.9
16.850	81475.9
16.855	81468.9
16.860	81466.9
16.865	81470.9
16.870	81473.9
16.875	81456.9
16.880	81440.9
16.885	81421.9
16.890	81404.0
16.895	81421.0
16.900	81425.9
16.905	81412.0
16.910	81393.0
16.915	81393.0
16.920	81402.0
16.925	81399.0
16.930	81387.0
16.935	81378.0
16.940	81378.0
16.945	81370.0
16.950	81358.0
16.955	81321.0
16.960	81326.0
16.965	81348.0
16.970	81364.0
16.975	81345.0
16.980	81344.0
16.985	81322.0
16.990	81314.0
16.995	81308.0
17.000	81302.0
17.005	81298.0
17.010	81289.0
17.015	81275.0
17.020	81228.1
17.025	81225.1
17.030	81243.1
17.035	81256.1
17.040	81258.1
17.045	81264.1
17.050	81264.1
17.055	81252.1
17.060	81257.1
17.065	81252.1
17.070	81253.1
17.075	81236.1
17.080	81246.1
17.085	81231.1
17.090	81226.1
17.095	81236.1
17.100	81265.1
17.105	81269.0
17.110	81283.0
17.115	81294.0
17.120	81309.0
17.125	81295.0
17.130	81288.0
17.135	81278.0
17.140	81284.0
17.145	81300.0
17.150	81297.0
17.155	81266.0
17.160	81275.0
17.165	81298.0
17.170	81312.0
17.175	81319.0
17.180	81324.0
17.185	81323.0
17.190	81313.0
17.195	81336.0
17.200	81347.0
17.205	81338.0
17.210	81344.0
17.215	81341.0
17.220	81313.0
17.225	81308.0
17.230	81330.0
17.235	81343.0
17.240	81339.0
17.245	81336.0
17.250	81346.0
17.255	81353.0
17.260	81375.0
17.265	81361.0
17.270	81367.0
17.275	81357.0
17.280	81354.0
17.285	81337.0
17.290	81336.0
17.295	81358.0
17.300	81379.9
17.305	81370.9
17.310	81361.0
17.315	81367.0
17.320	81374.9
17.325	81367.9
17.330	81373.9
17.335	81373.9
17.340	81380.9
17.345	81371.9
17.350	81370.9
17.355	81325.0
17.360	81342.0
17.365	81367.9
17.370	81369.9
17.375	81362.9
17.380	81369.9
17.385	81364.9
17.390	81368.9
17.395	81358.0
17.400	81363.9
17.405	81367.9
17.410	81377.9
17.415	81367.9
17.420	81337.0
17.425	81345.0
17.430	81360.9
17.435	81372.9
17.440	81364.9
17.445	81353.9
17.450	81354.9
17.455	81363.9
17.460	81359.9
17.465	81348.0
17.470	81345.0
17.475	81344.9
17.480	81347.9
17.485	81324.0
17.490	81313.0
17.495	81321.0
17.500	81348.9
17.505	81345.9
17.510	81347.9
17.515	81341.0
17.520	81336.0
17.525	81341.9
17.530	81341.9
17.535	81358.9
17.540	81360.9
17.545	81350.9
17.550	81346.9
17.555	81316.0
17.560	81334.0
17.565	81361.9
17.570	81370.9
17.575	81361.9
17.580	81357.9
17.585	81347.9
17.590	81349.9
17.595	81369.9
17.600	81368.9
17.605	81375.9
17.610	81385.9
17.615	81379.9
17.620	81351.9
17.625	81335.9
17.630	81364.9
17.635	81385.9
17.640	81387.9
17.645	81376.9
17.650	81393.9
17.655	81375.9
17.660	81386.9
17.665	81388.9
17.670	81391.9
17.675	81385.9
17.680	81372.9
17.685	81334.9
17.690	81336.9
17.695	81363.9
17.700	81383.9
17.705	81365.9
17.710	81346.9
17.715	81352.9
17.720	81365.9
17.725	81371.9
17.730	81372.9
17.735	81367.9
17.740	81371.9
17.745	81371.9
17.750	81369.9
17.755	81344.9
17.760	81351.9
17.765	81363.9
17.770	81377.9
17.775	81372.9
17.780	81379.9
17.785	81378.9
17.790	81383.9
17.795	81391.9
17.800	81399.9
17.805	81403.9
17.810	81411.9
17.815	81409.9
17.820	81376.9
17.825	81368.9
17.830	81397.9
17.835	81406.9
17.840	81419.9
17.845	81415.9
17.850	81413.9
17.855	81413.9
17.860	81411.9
17.865	81411.9
17.870	81419.8
17.875	81431.8
17.880	81438.8
17.885	81408.9
17.890	81401.9
17.895	81418.8
17.900	81449.8
17.905	81446.8
17.910	81469.8
17.915	81472.8
17.920	81480.8
17.925	81474.8
17.930	81478.8
17.935	81477.8
17.940	81500.8
17.945	81500.8
17.950	81479.8
17.955	81480.8
17.960	81494.8
17.965	81520.8
17.970	81523.8
17.975	81520.8
17.980	81527.8
17.985	81529.8
17.990	81537.7
17.995	81528.8
18.000	81533.7
18.005	81545.7
18.010	81561.7
18.015	81556.7
18.020	81530.7
18.025	81525.8
18.030	81552.7
18.035	81584.7
18.040	81593.7
18.045	81579.7
18.050	81580.7
18.055	81577.7
18.060	81590.7
18.065	81595.7
18.070	81596.7
18.075	81584.7
18.080	81578.7
18.085	81562.7
18.090	81548.7
18.095	81558.7
18.100	81575.7
18.105	81570.7
18.110	81562.7
18.115	81558.7
18.120	81543.7
18.125	81541.7
18.130	81550.7
18.135	81560.7
18.140	81570.7
18.145	81548.7
18.150	81533.7
18.155	81512.7
18.160	81521.7
18.165	81537.7
18.170	81531.7
18.175	81535.7
18.180	81539.7
18.185	81531.7
18.190	81528.7
18.195	81514.7
18.200	81528.7
18.205	81529.7
18.210	81530.7
18.215	81517.7
18.220	81476.8
18.225	81486.8
18.230	81502.7
18.235	81531.7
18.240	81527.7
18.245	81513.7
18.250	81503.7
18.255	81500.7
18.260	81512.7
18.265	81514.7
18.270	81532.7
18.275	81538.7
18.280	81528.7
18.285	81482.7
18.290	81470.8
18.295	81482.7
18.300	81517.7
18.305	81514.7
18.310	81518.7
18.315	81508.7
18.320	81508.7
18.325	81502.7
18.330	81502.7
18.335	81510.7
18.340	81506.7
18.345	81504.7
18.350	81475.7
18.355	81448.8
18.360	81464.8
18.365	81486.7
18.370	81492.7
18.375	81478.7
18.380	81474.7
18.385	81457.8
18.390	81455.8
18.395	81460.7
18.400	81476.7
18.405	81471.7
18.410	81463.7
18.415	81451.8
18.420	81423.8
18.425	81435.8
18.430	81467.7
18.435	81478.7
18.440	81482.7
18.445	81465.7
18.450	81461.7
18.455	81454.7
18.460	81462.7
18.465	81466.7
18.470	81484.7
18.475	81485.7
18.480	81471.7
18.485	81431.8
18.490	81443.7
18.495	81446.7
18.500	81462.7
18.505	81469.7
18.510	81459.7
18.515	81457.7
18.520	81453.7
18.525	81448.7
18.530	81451.7
18.535	81439.7
18.540	81443.7
18.545	81443.7
18.550	81433.7
18.555	81408.8
18.560	81415.8
18.565	81435.7
18.570	81436.7
18.575	81419.8
18.580	81427.7
18.585	81417.8
18.590	81425.7
18.595	81428.7
18.600	81426.7
18.605	81401.8
18.610	81410.8
18.615	81391.8
18.620	81347.8
18.625	81351.8
18.630	81377.8
18.635	81384.8
18.640	81371.8
18.645	81363.8
18.650	81363.8
18.655	81346.8
18.660	81340.8
18.665	81326.8
18.670	81325.8
18.675	81330.8
18.680	81331.8
18.685	81288.8
18.690	81281.8
18.695	81297.8
18.700	81336.8
18.705	81317.8
18.710	81318.8
18.715	81297.8
18.720	81307.8
18.725	81313.8
18.730	81330.8
18.735	81330.8
18.740	81318.8
18.745	81306.8
18.750	81285.8
18.755	81288.8
18.760	81296.8
18.765	81300.8
18.770	81293.8
18.775	81279.8
18.780	81277.8
18.785	81286.8
18.790	81280.8
18.795	81267.8
18.800	81279.8
18.805	81273.8
18.810	81279.8
18.815	81266.8
18.820	81237.9
18.825	81217.9
18.830	81244.8
18.835	81252.8
18.840	81257.8
18.845	81262.8
18.850	81269.8
18.855	81266.8
18.860	81263.8
18.865	81259.8
18.870	81260.8
18.875	81265.8
18.880	81271.8
18.885	81239.8
18.890	81234.8
18.895	81236.8
18.900	81251.8
18.905	81258.8
18.910	81261.8
18.915	81253.8
18.920	81242.8
18.925	81231.8
18.930	81236.8
18.935	81237.8
18.940	81233.8
18.945	81229.8
18.950	81199.9
18.955	81172.9
18.960	81175.9
18.965	81207.8
18.970	81209.8
18.975	81213.8
18.980	81214.8
18.985	81217.8
18.990	81212.8
18.995	81194.8
19.000	81184.9
19.005	81155.9
19.010	81150.9
19.015	81122.9
19.020	81099.9
19.025	81087.9
19.030	81087.9
19.035	81095.9
19.040	81078.9
19.045	81077.9
19.050	81083.9
19.055	81062.9
19.060	81045.9
19.065	81054.9
19.070	81091.9
19.075	81114.9
19.080	81115.9
19.085	81064.9
19.090	81054.9
19.095	81058.9
19.100	81076.9
19.105	81063.9
19.110	81084.9
19.115	81106.9
19.120	81135.9
19.125	81152.9
19.130	81175.8
19.135	81203.8
19.140	81218.8
19.145	81215.8
19.150	81188.8
19.155	81169.8
19.160	81191.8
19.165	81214.8
19.170	81214.8
19.175	81217.8
19.180	81224.8
19.185	81217.8
19.190	81220.8
19.195	81215.8
19.200	81221.8
19.205	81226.8
19.210	81236.8
19.215	81236.8
19.220	81213.8
19.225	81203.8
19.230	81237.8
19.235	81246.8
19.240	81246.8
19.245	81237.8
19.250	81229.8
19.255	81214.8
19.260	81215.8
19.265	81218.8
19.270	81225.8
19.275	81228.8
19.280	81214.8
19.285	81167.8
19.290	81173.8
19.295	81169.8
19.300	81187.8
19.305	81182.8
19.310	81170.8
19.315	81152.8
19.320	81133.8
19.325	81118.8
19.330	81093.8
19.335	81073.9
19.340	81068.9
19.345	81052.9
19.350	81002.9
19.355	80970.9
19.360	80957.0
19.365	80967.9
19.370	80964.9
19.375	80960.9
19.380	80932.0
19.385	80905.0
19.390	80897.0
19.395	80905.0
19.400	80907.0
19.405	80888.0
19.410	80884.0
19.415	80870.0
19.420	80839.0
19.425	80822.0
19.430	80836.0
19.435	80819.0
19.440	80821.0
19.445	80813.0
19.450	80833.0
19.455	80849.0
19.460	80883.0
19.465	80914.0
19.470	80930.9
19.475	80941.9
19.480	80958.9
19.485	80945.9
19.490	80962.9
19.495	80993.9
19.500	81051.8
19.505	81051.8
19.510	81049.8
19.515	81059.8
19.520	81061.8
19.525	81063.8
19.530	81079.8
19.535	81092.8
19.540	81120.8
19.545	81122.8
19.550	81113.8
19.555	81120.8
19.560	81161.7
19.565	81176.7
19.570	81198.7
19.575	81180.7
19.580	81189.7
19.585	81191.7
19.590	81193.7
19.595	81182.7
19.600	81195.7
19.605	81197.7
19.610	81198.7
19.615	81185.7
19.620	81156.7
19.625	81144.7
19.630	81192.7
19.635	81183.7
19.640	81172.7
19.645	81155.7
19.650	81143.7
19.655	81137.7
19.660	81135.7
19.665	81118.7
19.670	81112.7
19.675	81106.7
19.680	81103.7
19.685	81075.8
19.690	81068.8
19.695	81082.8
19.700	81095.7
19.705	81085.8
19.710	81090.7
19.715	81071.8
19.720	81062.8
19.725	81053.8
19.730	81042.8
19.735	81032.8
19.740	81044.8
19.745	81036.8
19.750	81006.8
19.755	80990.8
19.760	80994.8
19.765	81017.8
19.770	81041.8
19.775	81058.8
19.780	81049.8
19.785	81055.8
19.790	81047.8
19.795	81018.8
19.800	81004.8
19.805	80998.8
19.810	80983.8
19.815	80936.8
19.820	80929.8
19.825	80948.8
19.830	80962.8
19.835	80936.8
19.840	80924.8
19.845	80912.8
19.850	80913.8
19.855	80895.8
19.860	80888.9
19.865	80884.9
19.870	80882.9
19.875	80898.8
19.880	80903.8
19.885	80873.9
19.890	80860.9
19.895	80849.9
19.900	80872.8
19.905	80888.8
19.910	80880.8
19.915	80891.8
19.920	80868.8
19.925	80831.9
19.930	80828.9
19.935	80817.9
19.940	80819.9
19.945	80809.9
19.950	80786.9
19.955	80765.9
19.960	80774.9
19.965	80773.9
19.970	80781.9
19.975	80772.9
19.980	80771.9
19.985	80772.9
19.990	80767.9
19.995	80761.9
20.000	80783.9
20.005	80781.9
20.010	80799.9
20.015	80808.9
20.020	80802.9
20.025	80819.8
20.030	80858.8
20.035	80885.8
20.040	80907.8
20.045	80913.8
20.050	80918.7
20.055	80946.7
20.060	80974.7
20.065	80989.7
20.070	81006.7
20.075	81006.7
20.080	81004.7
20.085	80963.7
20.090	80982.7
20.095	80994.7
20.100	81019.6
20.105	81015.6
20.110	81010.7
20.115	81014.6
20.120	81028.6
20.125	81022.6
20.130	81021.6
20.135	81031.6
20.140	81049.6
20.145	81033.6
20.150	81006.6
20.155	80987.6
20.160	80986.6
20.165	80999.6
20.170	80998.6
20.175	80989.6
20.180	80984.6
20.185	80977.6
20.190	80966.6
20.195	80969.6
20.200	80983.6
20.205	80979.6
20.210	80949.6
20.215	80913.7
20.220	80897.7
20.225	80913.7
20.230	80940.6
20.235	80944.6
20.240	80953.6
20.245	80949.6
20.250	80952.6
20.255	80941.6
20.260	80931.6
20.265	80923.6
20.270	80930.6
20.275	80929.6
20.280	80919.6
20.285	80883.7
20.290	80872.7
20.295	80874.7
20.300	80890.6
20.305	80878.7
20.310	80876.6
20.315	80856.7
20.320	80848.7
20.325	80830.7
20.330	80819.7
20.335	80796.7
20.340	80781.7
20.345	80766.7
20.350	80727.7
20.355	80701.8
20.360	80678.8
20.365	80688.8
20.370	80668.8
20.375	80660.8
20.380	80641.8
20.385	80602.8
20.390	80603.8
20.395	80606.8
20.400	80639.8
20.405	80647.8
20.410	80667.7
20.415	80647.8
20.420	80629.8
20.425	80629.8
20.430	80661.7
20.435	80666.7
20.440	80670.7
20.445	80643.7
20.450	80632.7
20.455	80622.8
20.460	80613.8
20.465	80595.8
20.470	80577.8
20.475	80577.8
20.480	80567.8
20.485	80515.8
20.490	80496.8
20.495	80472.8
20.500	80424.9
20.505	80370.9
20.510	80344.9
20.515	80319.9
20.520	80303.9
20.525	80275.0
20.530	80249.0
20.535	80224.0
20.540	80235.0
20.545	80257.0
20.550	80236.0
20.555	80234.0
20.560	80265.9
20.565	80288.9
20.570	80305.9
20.575	80318.9
20.580	80317.9
20.585	80336.9
20.590	80371.8
20.595	80389.8
20.600	80399.8
20.605	80386.8
20.610	80366.8
20.615	80320.8
20.620	80304.9
20.625	80310.8
20.630	80304.8
20.635	80278.9
20.640	80262.9
20.645	80283.8
20.650	80291.8
20.655	80263.9
20.660	80229.9
20.665	80202.9
20.670	80164.9
20.675	80080.0
20.680	80027.0
20.685	79943.1
20.690	79904.1
20.695	79902.1
20.700	79913.1
20.705	79874.1
20.710	79859.1
20.715	79858.1
20.720	79839.1
20.725	79808.1
20.730	79784.2
20.735	79754.2
20.740	79767.2
20.745	79813.1
20.750	79820.1
20.755	79831.1
20.760	79874.0
20.765	79894.0
20.770	79913.0
20.775	79919.0
20.780	79926.0
20.785	79913.0
20.790	79910.0
20.795	79850.0
20.800	79807.0
20.805	79769.1
20.810	79732.1
20.815	79651.1
20.820	79599.2
20.825	79532.2
20.830	79517.2
20.835	79438.3
20.840	79375.3
20.845	79365.3
20.850	79387.3
20.855	79371.3
20.860	79371.3
20.865	79344.3
20.870	79289.4
20.875	79211.4
20.880	79100.5
20.885	78995.6
20.890	79021.5
20.895	79100.5
20.900	79144.4
20.905	79180.4
20.910	79206.3
20.915	79225.3
20.920	79228.3
20.925	79267.3
20.930	79311.2
20.935	79313.2
20.940	79334.2
20.945	79334.2
20.950	79296.2
20.955	79279.2
20.960	79307.2
20.965	79346.1
20.970	79356.1
20.975	79331.1
20.980	79316.1
20.985	79313.1
20.990	79304.1
20.995	79291.1
21.000	79259.1
21.005	79190.2
21.010	79074.2
21.015	78969.3
21.020	78860.4
21.025	78758.5
21.030	78677.5
21.035	78592.6
21.040	78480.6
21.045	78422.7
21.050	78435.7
21.055	78452.6
21.060	78446.6
21.065	78526.6
21.070	78678.4
21.075	78863.3
21.080	78990.1
21.085	78944.2
21.090	78919.2
21.095	78851.2
21.100	78703.3
21.105	78437.5
21.110	78196.7
21.115	78044.8
21.120	78033.8
21.125	78117.7
21.130	78388.5
21.135	78627.3
21.140	78711.2
21.145	78835.1
21.150	78994.9
21.155	79245.7
21.160	79400.6
21.165	79481.5
21.170	79508.4
21.175	79422.5
21.180	79230.6
21.185	79029.8
21.190	79049.7
21.195	79153.6
21.200	79239.5
21.205	79334.4
21.210	79431.3
21.215	79345.4
21.220	79108.5
21.225	78988.6
21.230	79017.5
21.235	79021.5
21.240	79001.5
21.245	78809.6
21.250	78259.0
21.255	77785.3
21.260	77329.7
21.265	76705.1
21.270	76437.3
21.275	76733.0
21.280	76899.9
21.285	76614.1
21.290	76719.0
21.295	77720.2
21.300	78542.4
21.305	78299.6
21.310	78007.7
21.315	78043.7
21.320	77951.7
21.325	77692.8
21.330	77672.8
21.335	77843.6
21.340	77459.8
21.345	75695.2
21.350	73112.2
21.355	72362.7
21.360	73712.5
21.365	74131.1
21.370	73355.7
21.375	73436.5
21.380	75745.4
21.385	77261.2
21.390	76973.3
21.395	76280.7
21.400	75796.0
21.405	75376.3
21.410	74990.5
21.415	74576.8
21.420	74177.2
21.425	74158.2
21.430	74561.0
21.435	74833.9
21.440	74839.1
21.445	74819.4
21.450	75031.6
21.455	75592.5
21.460	76424.3
21.465	77296.0
21.470	78145.7
21.475	78996.6
21.480	79882.4
21.485	80701.2
21.490	81424.0
21.495	81976.8
21.500	82343.7
21.505	82538.6
21.510	82654.5
21.515	82706.5
21.520	82739.5
21.525	82754.5
21.530	82766.5
21.535	82768.5
21.540	82774.5
21.545	82782.5
21.550	82743.5
21.555	82751.5
21.560	82768.5
21.565	82784.5
21.570	82775.5
21.575	82776.5
21.580	82779.5
21.585	82768.5
21.590	82784.5
21.595	82773.5
21.600	82779.5
21.605	82770.5
21.610	82781.5
21.615	82756.5
21.620	82748.5
21.625	82749.5
21.630	82785.5
21.635	82790.5
21.640	82789.5
21.645	82780.5
21.650	82785.5
21.655	82789.5
21.660	82790.5
21.665	82793.5
21.670	82793.5
21.675	82788.5
21.680	82785.5
21.685	82754.5
21.690	82768.5
21.695	82795.5
21.700	82800.5
21.705	82785.5
21.710	82784.5
21.715	82786.5
21.720	82781.5
21.725	82785.5
21.730	82793.5
21.735	82785.5
21.740	82786.5
21.745	82789.5
21.750	82751.5
21.755	82752.5
21.760	82778.5
21.765	82797.5
21.770	82803.5
21.775	82789.5
21.780	82790.5
21.785	82791.5
21.790	82799.5
21.795	82797.5
21.800	82802.5
21.805	82795.5
21.810	82796.5
21.815	82771.5
21.820	82760.5
21.825	82785.5
21.830	82811.5
21.835	82795.5
21.840	82787.5
21.845	82789.5
21.850	82784.5
21.855	82782.5
21.860	82796.5
21.865	82792.5
21.870	82793.5
21.875	82796.5
21.880	82787.5
21.885	82759.5
21.890	82774.5
21.895	82788.5
21.900	82808.5
21.905	82793.5
21.910	82805.5
21.915	82795.5
21.920	82807.5
21.925	82797.5
21.930	82806.5
21.935	82805.5
21.940	82804.5
21.945	82800.5
21.950	82763.5
21.955	82773.5
21.960	82800.5
21.965	82806.5
21.970	82797.5
21.975	82790.5
21.980	82789.5
21.985	82795.5
21.990	82801.5
21.995	82791.5
22.000	82791.5
22.005	82789.5
22.010	82798.5
22.015	82764.5
22.020	82765.5
22.025	82776.5
22.030	82809.5
22.035	82799.5
22.040	82810.5
22.045	82793.5
22.050	82802.5
22.055	82799.5
22.060	82809.5
22.065	82809.5
22.070	82817.5
22.075	82809.5
22.080	82793.5
22.085	82772.5
22.090	82789.5
22.095	82805.5
22.100	82811.5
22.105	82796.5
22.110	82793.5
22.115	82800.5
22.120	82793.5
22.125	82793.5
22.130	82803.5
22.135	82798.5
22.140	82798.5
22.145	82791.5
22.150	82760.5
22.155	82764.5
22.160	82791.5
22.165	82800.5
22.170	82805.5
22.175	82806.5
22.180	82808.5
22.185	82802.5
22.190	82810.5
22.195	82804.5
22.200	82808.5
22.205	82806.5
22.210	82808.5
22.215	82771.5
22.220	82776.5
22.225	82790.5
22.230	82806.5
22.235	82806.5
22.240	82800.5
22.245	82806.5
22.250	82800.5
22.255	82804.5
22.260	82800.5
22.265	82801.5
22.270	82805.5
22.275	82805.5
22.280	82790.5
22.285	82758.5
22.290	82779.5
22.295	82799.5
22.300	82812.5
22.305	82801.5
22.310	82801.5
22.315	82799.5
22.320	82804.5
22.325	82798.5
22.330	82810.5
22.335	82806.5
22.340	82801.5
22.345	82804.5
22.350	82769.5
22.355	82778.5
22.360	82803.5
22.365	82805.5
22.370	82801.5
22.375	82797.5
22.380	82799.5
22.385	82785.5
22.390	82793.5
22.395	82800.5
22.400	82801.5
22.405	82806.5
22.410	82807.5
22.415	82774.5
22.420	82770.5
22.425	82782.5
22.430	82810.5
22.435	82801.5
22.440	82803.5
22.445	82805.5
22.450	82807.5
22.455	82804.5
22.460	82813.5
22.465	82805.5
22.470	82806.5
22.475	82809.5
22.480	82785.5
22.485	82769.5
22.490	82794.5
22.495	82814.5
22.500	82811.5
22.505	82807.5
22.510	82802.5
22.515	82804.5
22.520	82799.5
22.525	82807.5
22.530	82806.5
22.535	82803.5
22.540	82800.5
22.545	82807.5
22.550	82776.5
22.555	82766.5
22.560	82801.5
22.565	82814.5
22.570	82818.5
22.575	82803.5
22.580	82814.5
22.585	82809.5
22.590	82818.5
22.595	82811.5
22.600	82817.5
22.605	82802.5
22.610	82811.5
22.615	82790.5
22.620	82783.5
22.625	82798.5
22.630	82816.5
22.635	82814.5
22.640	82800.5
22.645	82797.5
22.650	82801.5
22.655	82799.5
22.660	82802.5
22.665	82809.5
22.670	82803.5
22.675	82805.5
22.680	82796.5
22.685	82774.5
22.690	82784.5
22.695	82800.5
22.700	82818.5
22.705	82803.5
22.710	82809.5
22.715	82812.5
22.720	82816.5
22.725	82819.5
22.730	82815.5
22.735	82817.5
22.740	82818.5
22.745	82811.5
22.750	82781.5
22.755	82783.5
22.760	82811.5
22.765	82817.5
22.770	82808.5
22.775	82805.5
22.780	82810.5
22.785	82804.5
22.790	82812.5
22.795	82809.5
22.800	82806.5
22.805	82814.5
22.810	82812.5
22.815	82776.5
22.820	82774.5
22.825	82789.5
22.830	82811.5
22.835	82800.5
22.840	82813.5
22.845	82810.5
22.850	82814.5
22.855	82813.5
22.860	82821.5
22.865	82811.5
22.870	82817.5
22.875	82811.5
22.880	82796.5
22.885	82779.5
22.890	82798.5
22.895	82816.5
22.900	82819.5
22.905	82803.5
22.910	82804.5
22.915	82809.5
22.920	82805.5
22.925	82801.5
22.930	82792.5
22.935	82805.5
22.940	82812.5
22.945	82810.5
22.950	82777.5
22.955	82777.5
22.960	82798.5
22.965	82813.5
22.970	82821.5
22.975	82813.5
22.980	82811.5
22.985	82813.5
22.990	82810.5
22.995	82813.5
23.000	82819.5
23.005	82811.5
23.010	82817.5
23.015	82774.5
23.020	82775.5
23.025	82804.5
23.030	82817.5
23.035	82813.5
23.040	82809.5
23.045	82798.5
23.050	82796.5
23.055	82804.5
23.060	82810.5
23.065	82802.5
23.070	82809.5
23.075	82814.5
23.080	82796.5
23.085	82771.5
23.090	82787.5
23.095	82814.5
23.100	82818.5
23.105	82815.5
23.110	82813.5
23.115	82814.5
23.120	82812.5
23.125	82815.5
23.130	82816.5
23.135	82815.5
23.140	82813.5
23.145	82804.5
23.150	82781.5
23.155	82797.5
23.160	82819.5
23.165	82810.5
23.170	82810.5
23.175	82806.5
23.180	82808.5
23.185	82803.5
23.190	82801.5
23.195	82803.5
23.200	82805.5
23.205	82801.5
23.210	82812.5
23.215	82780.5
23.220	82774.5
23.225	82789.5
23.230	82813.5
23.235	82806.5
23.240	82813.5
23.245	82816.5
23.250	82811.5
23.255	82807.5
23.260	82813.5
23.265	82812.5
23.270	82812.5
23.275	82807.5
23.280	82794.5
23.285	82784.5
23.290	82794.5
23.295	82807.5
23.300	82815.5
23.305	82806.5
23.310	82808.5
23.315	82806.5
23.320	82802.5
23.325	82804.5
23.330	82795.5
23.335	82809.5
23.340	82809.5
23.345	82803.5
23.350	82776.5
23.355	82771.5
23.360	82809.5
23.365	82805.5
23.370	82810.5
23.375	82809.5
23.380	82811.5
23.385	82813.5
23.390	82817.5
23.395	82812.5
23.400	82815.5
23.405	82809.5
23.410	82815.5
23.415	82781.5
23.420	82783.5
23.425	82800.5
23.430	82817.5
23.435	82802.5
23.440	82810.5
23.445	82808.5
23.450	82811.5
23.455	82805.5
23.460	82804.5
23.465	82801.5
23.470	82804.5
23.475	82806.5
23.480	82788.5
23.485	82778.5
23.490	82787.5
23.495	82812.5
23.500	82815.5
23.505	82802.5
23.510	82810.5
23.515	82815.5
23.520	82816.5
23.525	82811.5
23.530	82817.5
23.535	82812.5
23.540	82822.5
23.545	82799.5
23.550	82775.5
23.555	82797.5
23.560	82819.5
23.565	82814.5
23.570	82812.5
23.575	82804.5
23.580	82805.5
23.585	82800.5
23.590	82805.5
23.595	82807.5
23.600	82812.5
23.605	82812.5
23.610	82815.5
23.615	82778.5
23.620	82776.5
23.625	82795.5
23.630	82810.5
23.635	82815.5
23.640	82810.5
23.645	82803.5
23.650	82810.5
23.655	82819.5
23.660	82824.5
23.665	82815.5
23.670	82817.5
23.675	82811.5
23.680	82792.5
23.685	82778.5
23.690	82800.5
23.695	82821.5
23.700	82815.5
23.705	82804.5
23.710	82813.5
23.715	82806.5
23.720	82808.5
23.725	82813.5
23.730	82814.5
23.735	82812.5
23.740	82814.5
23.745	82800.5
23.750	82774.5
23.755	82788.5
23.760	82820.5
23.765	82814.5
23.770	82814.5
23.775	82808.5
23.780	82802.5
23.785	82818.5
23.790	82814.5
23.795	82816.5
23.800	82831.5
23.805	82813.5
23.810	82820.5
23.815	82777.5
23.820	82781.5
23.825	82804.5
23.830	82825.5
23.835	82811.5
23.840	82810.5
23.845	82806.5
23.850	82810.5
23.855	82810.5
23.860	82809.5
23.865	82807.5
23.870	82811.5
23.875	82809.5
23.880	82782.5
23.885	82775.5
23.890	82793.5
23.895	82813.5
23.900	82816.5
23.905	82815.5
23.910	82813.5
23.915	82812.5
23.920	82815.5
23.925	82815.5
23.930	82812.5
23.935	82813.5
23.940	82818.5
23.945	82805.5
23.950	82786.5
23.955	82790.5
23.960	82809.5
23.965	82815.5
23.970	82817.5
23.975	82800.5
23.980	82812.5
23.985	82801.5
23.990	82816.5
23.995	82809.5
24.000	82809.5
24.005	82805.5
24.010	82802.5
24.015	82777.5
24.020	82778.5
24.025	82795.5
24.030	82810.5
24.035	82809.5
24.040	82809.5
24.045	82808.5
24.050	82810.5
24.055	82808.5
24.060	82819.5
24.065	82817.5
24.070	82817.5
24.075	82814.5
24.080	82791.5
24.085	82775.5
24.090	82800.5
24.095	82819.5
24.100	82806.5
24.105	82808.5
24.110	82802.5
24.115	82805.5
24.120	82812.5
24.125	82801.5
24.130	82803.5
24.135	82809.5
24.140	82808.5
24.145	82790.5
24.150	82766.5
24.155	82773.5
24.160	82809.5
24.165	82805.5
24.170	82806.5
24.175	82814.5
24.180	82813.5
24.185	82807.5
24.190	82810.5
24.195	82813.5
24.200	82810.5
24.205	82809.5
24.210	82808.5
24.215	82771.5
24.220	82788.5
24.225	82803.5
24.230	82812.5
24.235	82808.5
24.240	82799.5
24.245	82792.5
24.250	82804.5
24.255	82798.5
24.260	82806.5
24.265	82791.5
24.270	82799.5
24.275	82801.5
24.280	82780.5
24.285	82761.5
24.290	82782.5
24.295	82814.5
24.300	82811.5
24.305	82809.5
24.310	82804.5
24.315	82801.5
24.320	82807.5
24.325	82808.5
24.330	82811.5
24.335	82807.5
24.340	82805.5
24.345	82786.5
24.350	82766.5
24.355	82786.5
24.360	82816.5
24.365	82811.5
24.370	82799.5
24.375	82800.5
24.380	82798.5
24.385	82787.5
24.390	82794.5
24.395	82796.5
24.400	82800.5
24.405	82802.5
24.410	82799.5
24.415	82758.5
24.420	82764.5
24.425	82786.5
24.430	82810.5
24.435	82802.5
24.440	82804.5
24.445	82808.5
24.450	82800.5
24.455	82805.5
24.460	82810.5
24.465	82810.5
24.470	82809.5
24.475	82813.5
24.480	82779.5
24.485	82761.5
24.490	82789.5
24.495	82808.5
24.500	82800.5
24.505	82791.5
24.510	82798.5
24.515	82790.5
24.520	82791.5
24.525	82795.5
24.530	82794.5
24.535	82793.5
24.540	82797.5
24.545	82790.5
24.550	82761.5
24.555	82767.5
24.560	82798.5
24.565	82804.5
24.570	82799.5
24.575	82796.5
24.580	82808.5
24.585	82795.5
24.590	82797.5
24.595	82806.5
24.600	82806.5
24.605	82805.5
24.610	82794.5
24.615	82765.5
24.620	82769.5
24.625	82789.5
24.630	82809.5
24.635	82793.5
24.640	82792.5
24.645	82785.5
24.650	82790.5
24.655	82784.5
24.660	82794.5
24.665	82799.5
24.670	82798.5
24.675	82788.5
24.680	82772.5
24.685	82751.5
24.690	82774.5
24.695	82797.5
24.700	82797.5
24.705	82800.5
24.710	82799.5
24.715	82798.5
24.720	82797.5
24.725	82798.5
24.730	82813.5
24.735	82798.5
24.740	82798.5
24.745	82784.5
24.750	82753.5
24.755	82772.5
24.760	82802.5
24.765	82805.5
24.770	82797.5
24.775	82791.5
24.780	82786.5
24.785	82783.5
24.790	82786.5
24.795	82792.5
24.800	82795.5
24.805	82797.5
24.810	82790.5
24.815	82762.5
24.820	82772.5
24.825	82783.5
24.830	82804.5
24.835	82804.5
24.840	82806.5
24.845	82793.5
24.850	82803.5
24.855	82798.5
24.860	82801.5
24.865	82805.5
24.870	82805.5
24.875	82800.5
24.880	82768.5
24.885	82764.5
24.890	82784.5
24.895	82801.5
24.900	82796.5
24.905	82796.5
24.910	82793.5
24.915	82785.5
24.920	82797.5
24.925	82787.5
24.930	82801.5
24.935	82806.5
24.940	82806.5
24.945	82777.5
24.950	82762.5
24.955	82765.5
24.960	82804.5
24.965	82789.5
24.970	82803.5
24.975	82800.5
24.980	82804.5
24.985	82794.5
24.990	82801.5
24.995	82799.5
25.000	82811.5
25.005	82798.5
25.010	82794.5
25.015	82761.5
25.020	82778.5
25.025	82793.5
25.030	82801.5
25.035	82796.5
25.040	82792.5
25.045	82790.5
25.050	82795.5
25.055	82790.5
25.060	82786.5
25.065	82799.5
25.070	82795.5
25.075	82795.5
25.080	82769.5
25.085	82756.5
25.090	82781.5
25.095	82799.5
25.100	82807.5
25.105	82801.5
25.110	82800.5
25.115	82797.5
25.120	82801.5
25.125	82800.5
25.130	82806.5
25.135	82806.5
25.140	82811.5
25.145	82774.5
25.150	82777.5
25.155	82774.5
25.160	82806.5
25.165	82801.5
25.170	82792.5
25.175	82790.5
25.180	82794.5
25.185	82796.5
25.190	82785.5
25.195	82795.5
25.200	82797.5
25.205	82801.5
25.210	82797.5
25.215	82762.5
25.220	82769.5
25.225	82792.5
25.230	82798.5
25.235	82795.5
25.240	82803.5
25.245	82793.5
25.250	82801.5
25.255	82799.5
25.260	82803.5
25.265	82810.5
25.270	82806.5
25.275	82805.5
25.280	82769.5
25.285	82773.5
25.290	82786.5
25.295	82807.5
25.300	82803.5
25.305	82793.5
25.310	82800.5
25.315	82782.5
25.320	82787.5
25.325	82795.5
25.330	82796.5
25.335	82795.5
25.340	82802.5
25.345	82776.5
25.350	82763.5
25.355	82773.5
25.360	82798.5
25.365	82795.5
25.370	82799.5
25.375	82806.5
25.380	82797.5
25.385	82798.5
25.390	82808.5
25.395	82801.5
25.400	82810.5
25.405	82808.5
25.410	82796.5
25.415	82766.5
25.420	82781.5
25.425	82804.5
25.430	82810.5
25.435	82798.5
25.440	82795.5
25.445	82801.5
25.450	82788.5
25.455	82791.5
25.460	82801.5
25.465	82799.5
25.470	82797.5
25.475	82806.5
25.480	82765.5
25.485	82761.5
25.490	82792.5
25.495	82811.5
25.500	82800.5
25.505	82800.5
25.510	82809.5
25.515	82796.5
25.520	82804.5
25.525	82807.5
25.530	82815.5
25.535	82805.5
25.540	82804.5
25.545	82784.5
25.550	82767.5
25.555	82789.5
25.560	82816.5
25.565	82803.5
25.570	82802.5
25.575	82798.5
25.580	82789.5
25.585	82794.5
25.590	82793.5
25.595	82787.5
25.600	82799.5
25.605	82801.5
25.610	82798.5
25.615	82769.5
25.620	82775.5
25.625	82785.5
25.630	82805.5
25.635	82801.5
25.640	82809.5
25.645	82800.5
25.650	82807.5
25.655	82801.5
25.660	82815.5
25.665	82810.5
25.670	82810.5
25.675	82806.5
25.680	82776.5
25.685	82773.5
25.690	82801.5
25.695	82810.5
25.700	82806.5
25.705	82797.5
25.710	82801.5
25.715	82800.5
25.720	82798.5
25.725	82793.5
25.730	82810.5
25.735	82802.5
25.740	82805.5
25.745	82782.5
25.750	82777.5
25.755	82789.5
25.760	82813.5
25.765	82813.5
25.770	82805.5
25.775	82801.5
25.780	82814.5
25.785	82813.5
25.790	82816.5
25.795	82806.5
25.800	82811.5
25.805	82816.5
25.810	82800.5
25.815	82776.5
25.820	82798.5
25.825	82806.5
25.830	82810.5
25.835	82808.5
25.840	82809.5
25.845	82803.5
25.850	82804.5
25.855	82800.5
25.860	82810.5
25.865	82799.5
25.870	82802.5
25.875	82810.5
25.880	82786.5
25.885	82768.5
25.890	82796.5
25.895	82816.5
25.900	82813.5
25.905	82814.5
25.910	82812.5
25.915	82821.5
25.920	82810.5
25.925	82807.5
25.930	82820.5
25.935	82816.5
25.940	82820.5
25.945	82785.5
25.950	82783.5
25.955	82799.5
25.960	82815.5
25.965	82815.5
25.970	82812.5
25.975	82802.5
25.980	82806.5
25.985	82803.5
25.990	82803.5
25.995	82809.5
26.000	82807.5
26.005	82815.5
26.010	82799.5
26.015	82773.5
26.020	82783.5
26.025	82803.5
26.030	82820.5
26.035	82818.5
26.040	82815.5
26.045	82816.5
26.050	82822.5
26.055	82813.5
26.060	82816.5
26.065	82817.5
26.070	82819.5
26.075	82809.5
26.080	82787.5
26.085	82787.5
26.090	82811.5
26.095	82821.5
26.100	82819.5
26.105	82806.5
26.110	82806.5
26.115	82808.5
26.120	82808.5
26.125	82814.5
26.130	82814.5
26.135	82810.5
26.140	82810.5
26.145	82794.5
26.150	82772.5
26.155	82791.5
26.160	82818.5
26.165	82815.5
26.170	82809.5
26.175	82818.5
26.180	82817.5
26.185	82819.5
26.190	82821.5
26.195	82823.5
26.200	82818.5
26.205	82820.5
26.210	82810.5
26.215	82786.5
26.220	82796.5
26.225	82815.5
26.230	82816.5
26.235	82802.5
26.240	82808.5
26.245	82803.5
26.250	82807.5
26.255	82813.5
26.260	82801.5
26.265	82812.5
26.270	82814.5
26.275	82811.5
26.280	82779.5
26.285	82774.5
26.290	82794.5
26.295	82812.5
26.300	82818.5
26.305	82823.5
26.310	82823.5
26.315	82819.5
26.320	82821.5
26.325	82825.5
26.330	82824.5
26.335	82823.5
26.340	82826.5
26.345	82788.5
26.350	82786.5
26.355	82802.5
26.360	82817.5
26.365	82813.5
26.370	82814.5
26.375	82810.5
26.380	82812.5
26.385	82807.5
26.390	82809.5
26.395	82807.5
26.400	82807.5
26.405	82819.5
26.410	82803.5
26.415	82771.5
26.420	82794.5
26.425	82814.5
26.430	82807.5
26.435	82813.5
26.440	82818.5
26.445	82812.5
26.450	82813.5
26.455	82817.5
26.460	82816.5
