PK2650 Power Data
Z Position (mm)	110.000	W Position (deg)	0.00
Preform ID	Diameter (mm)	Time Stamp	Start Time	Operator	Serial Number
Test 1	25	03-Nov-22 18:05:01	03-Nov-22 18:07:35	[no user]	266007708
Radius (mm)	Power
-26.360	83090.9
-26.355	83095.9
-26.350	83094.9
-26.345	83093.9
-26.340	83092.0
-26.335	83097.9
-26.330	83090.0
-26.325	83093.0
-26.320	83082.0
-26.315	83063.0
-26.310	83060.0
-26.305	83089.0
-26.300	83107.9
-26.295	83114.9
-26.290	83098.9
-26.285	83097.9
-26.280	83094.9
-26.275	83090.0
-26.270	83099.9
-26.265	83111.9
-26.260	83112.9
-26.255	83129.9
-26.250	83111.9
-26.245	83093.9
-26.240	83090.0
-26.235	83133.9
-26.230	83128.9
-26.225	83131.9
-26.220	83134.9
-26.215	83136.9
-26.210	83124.9
-26.205	83130.9
-26.200	83133.9
-26.195	83135.9
-26.190	83123.9
-26.185	83122.9
-26.180	83097.9
-26.175	83110.9
-26.170	83146.9
-26.165	83145.9
-26.160	83140.9
-26.155	83148.9
-26.150	83133.9
-26.145	83121.9
-26.140	83118.9
-26.135	83126.9
-26.130	83128.9
-26.125	83142.9
-26.120	83141.9
-26.115	83120.9
-26.110	83100.9
-26.105	83146.9
-26.100	83149.9
-26.095	83151.9
-26.090	83152.9
-26.085	83148.9
-26.080	83152.9
-26.075	83152.9
-26.070	83152.9
-26.065	83154.9
-26.060	83144.9
-26.055	83149.9
-26.050	83119.9
-26.045	83111.9
-26.040	83138.9
-26.035	83165.9
-26.030	83160.9
-26.025	83163.9
-26.020	83162.9
-26.015	83153.9
-26.010	83144.9
-26.005	83151.9
-26.000	83147.9
-25.995	83158.9
-25.990	83161.9
-25.985	83165.9
-25.980	83139.9
-25.975	83134.9
-25.970	83166.9
-25.965	83161.9
-25.960	83162.9
-25.955	83160.9
-25.950	83155.9
-25.945	83158.9
-25.940	83154.9
-25.935	83164.9
-25.930	83156.9
-25.925	83167.9
-25.920	83148.9
-25.915	83129.9
-25.910	83125.9
-25.905	83159.9
-25.900	83167.9
-25.895	83170.9
-25.890	83162.9
-25.885	83166.9
-25.880	83151.9
-25.875	83152.9
-25.870	83149.9
-25.865	83148.9
-25.860	83165.9
-25.855	83173.9
-25.850	83141.9
-25.845	83137.9
-25.840	83147.9
-25.835	83177.9
-25.830	83177.9
-25.825	83175.9
-25.820	83155.9
-25.815	83173.9
-25.810	83157.9
-25.805	83170.9
-25.800	83174.9
-25.795	83176.9
-25.790	83167.9
-25.785	83143.9
-25.780	83129.9
-25.775	83133.9
-25.770	83157.9
-25.765	83164.9
-25.760	83164.9
-25.755	83165.9
-25.750	83163.9
-25.745	83160.9
-25.740	83151.9
-25.735	83152.9
-25.730	83152.9
-25.725	83168.9
-25.720	83162.9
-25.715	83149.9
-25.710	83134.9
-25.705	83171.9
-25.700	83179.9
-25.695	83178.9
-25.690	83171.9
-25.685	83168.9
-25.680	83164.9
-25.675	83167.9
-25.670	83153.9
-25.665	83165.9
-25.660	83162.9
-25.655	83168.9
-25.650	83137.9
-25.645	83130.9
-25.640	83143.9
-25.635	83171.9
-25.630	83160.9
-25.625	83173.9
-25.620	83162.9
-25.615	83164.9
-25.610	83158.9
-25.605	83165.9
-25.600	83159.9
-25.595	83168.9
-25.590	83163.9
-25.585	83148.9
-25.580	83131.9
-25.575	83150.9
-25.570	83170.9
-25.565	83180.9
-25.560	83181.9
-25.555	83175.9
-25.550	83164.9
-25.545	83164.9
-25.540	83157.9
-25.535	83172.9
-25.530	83163.9
-25.525	83175.9
-25.520	83160.9
-25.515	83141.9
-25.510	83130.9
-25.505	83169.9
-25.500	83166.9
-25.495	83164.9
-25.490	83161.9
-25.485	83159.9
-25.480	83160.9
-25.475	83158.9
-25.470	83160.9
-25.465	83157.9
-25.460	83162.9
-25.455	83169.9
-25.450	83145.9
-25.445	83144.9
-25.440	83152.9
-25.435	83183.9
-25.430	83183.9
-25.425	83185.9
-25.420	83171.9
-25.415	83163.9
-25.410	83153.9
-25.405	83163.9
-25.400	83158.9
-25.395	83168.9
-25.390	83170.9
-25.385	83155.9
-25.380	83130.9
-25.375	83146.9
-25.370	83169.9
-25.365	83177.9
-25.360	83164.9
-25.355	83170.9
-25.350	83159.9
-25.345	83162.9
-25.340	83166.9
-25.335	83176.9
-25.330	83166.9
-25.325	83169.9
-25.320	83166.9
-25.315	83133.9
-25.310	83128.9
-25.305	83179.9
-25.300	83179.9
-25.295	83179.9
-25.290	83181.9
-25.285	83185.9
-25.280	83165.9
-25.275	83162.9
-25.270	83154.9
-25.265	83161.9
-25.260	83168.9
-25.255	83176.9
-25.250	83142.9
-25.245	83134.9
-25.240	83152.9
-25.235	83171.9
-25.230	83168.9
-25.225	83168.9
-25.220	83157.9
-25.215	83156.9
-25.210	83158.9
-25.205	83164.9
-25.200	83158.9
-25.195	83170.9
-25.190	83177.9
-25.185	83150.9
-25.180	83128.9
-25.175	83138.9
-25.170	83162.9
-25.165	83178.9
-25.160	83176.9
-25.155	83181.9
-25.150	83169.9
-25.145	83163.9
-25.140	83154.9
-25.135	83149.9
-25.130	83148.9
-25.125	83167.9
-25.120	83151.9
-25.115	83136.9
-25.110	83127.9
-25.105	83170.9
-25.100	83168.9
-25.095	83156.9
-25.090	83156.9
-25.085	83152.9
-25.080	83140.9
-25.075	83156.9
-25.070	83147.9
-25.065	83158.9
-25.060	83169.9
-25.055	83163.9
-25.050	83137.9
-25.045	83127.9
-25.040	83133.9
-25.035	83159.9
-25.030	83163.9
-25.025	83165.9
-25.020	83164.9
-25.015	83167.9
-25.010	83146.9
-25.005	83150.9
-25.000	83138.9
-24.995	83142.9
-24.990	83145.9
-24.985	83122.9
-24.980	83114.9
-24.975	83130.9
-24.970	83154.9
-24.965	83151.9
-24.960	83140.9
-24.955	83138.9
-24.950	83126.9
-24.945	83128.9
-24.940	83130.9
-24.935	83139.9
-24.930	83136.9
-24.925	83149.9
-24.920	83129.9
-24.915	83117.9
-24.910	83103.9
-24.905	83141.9
-24.900	83135.9
-24.895	83145.9
-24.890	83142.9
-24.885	83141.9
-24.880	83137.9
-24.875	83132.9
-24.870	83127.9
-24.865	83120.9
-24.860	83120.9
-24.855	83125.9
-24.850	83092.0
-24.845	83099.9
-24.840	83119.9
-24.835	83132.9
-24.830	83126.9
-24.825	83121.9
-24.820	83111.9
-24.815	83113.9
-24.810	83109.9
-24.805	83114.9
-24.800	83108.9
-24.795	83127.9
-24.790	83127.9
-24.785	83113.9
-24.780	83091.0
-24.775	83095.9
-24.770	83115.9
-24.765	83120.9
-24.760	83121.9
-24.755	83121.9
-24.750	83121.9
-24.745	83118.9
-24.740	83109.9
-24.735	83111.9
-24.730	83103.9
-24.725	83107.9
-24.720	83083.0
-24.715	83077.0
-24.710	83078.0
-24.705	83107.9
-24.700	83109.9
-24.695	83112.9
-24.690	83103.9
-24.685	83103.9
-24.680	83085.0
-24.675	83088.0
-24.670	83075.0
-24.665	83094.0
-24.660	83100.9
-24.655	83113.9
-24.650	83091.0
-24.645	83075.0
-24.640	83089.0
-24.635	83105.9
-24.630	83098.9
-24.625	83097.9
-24.620	83098.9
-24.615	83101.9
-24.610	83100.9
-24.605	83104.9
-24.600	83094.0
-24.595	83089.0
-24.590	83088.0
-24.585	83062.0
-24.580	83051.0
-24.575	83079.0
-24.570	83098.9
-24.565	83104.9
-24.560	83087.0
-24.555	83089.0
-24.550	83079.0
-24.545	83075.0
-24.540	83074.0
-24.535	83077.0
-24.530	83075.0
-24.525	83097.0
-24.520	83083.0
-24.515	83073.0
-24.510	83062.0
-24.505	83090.0
-24.500	83091.0
-24.495	83083.0
-24.490	83085.0
-24.485	83083.0
-24.480	83096.0
-24.475	83092.0
-24.470	83084.0
-24.465	83080.0
-24.460	83084.0
-24.455	83071.0
-24.450	83045.0
-24.445	83048.0
-24.440	83071.0
-24.435	83087.0
-24.430	83085.0
-24.425	83088.0
-24.420	83075.0
-24.415	83070.0
-24.410	83054.0
-24.405	83053.0
-24.400	83069.0
-24.395	83082.0
-24.390	83076.0
-24.385	83073.0
-24.380	83050.0
-24.375	83070.0
-24.370	83079.0
-24.365	83082.0
-24.360	83072.0
-24.355	83078.0
-24.350	83077.0
-24.345	83080.0
-24.340	83083.0
-24.335	83080.0
-24.330	83081.0
-24.325	83076.0
-24.320	83052.0
-24.315	83035.0
-24.310	83046.0
-24.305	83080.0
-24.300	83075.0
-24.295	83084.0
-24.290	83077.0
-24.285	83080.0
-24.280	83074.0
-24.275	83068.0
-24.270	83053.0
-24.265	83073.0
-24.260	83072.0
-24.255	83070.0
-24.250	83057.0
-24.245	83057.0
-24.240	83086.0
-24.235	83085.0
-24.230	83079.0
-24.225	83079.0
-24.220	83072.0
-24.215	83077.0
-24.210	83070.0
-24.205	83078.0
-24.200	83079.0
-24.195	83085.0
-24.190	83081.0
-24.185	83048.0
-24.180	83030.0
-24.175	83060.0
-24.170	83084.0
-24.165	83082.0
-24.160	83086.0
-24.155	83084.0
-24.150	83076.0
-24.145	83085.0
-24.140	83071.0
-24.135	83069.0
-24.130	83074.0
-24.125	83089.0
-24.120	83069.0
-24.115	83059.0
-24.110	83063.0
-24.105	83091.0
-24.100	83093.0
-24.095	83090.0
-24.090	83075.0
-24.085	83078.0
-24.080	83077.0
-24.075	83085.0
-24.070	83073.0
-24.065	83091.0
-24.060	83091.0
-24.055	83078.0
-24.050	83059.0
-24.045	83044.0
-24.040	83074.0
-24.035	83087.0
-24.030	83078.0
-24.025	83075.0
-24.020	83085.0
-24.015	83085.0
-24.010	83082.0
-24.005	83090.0
-24.000	83077.0
-23.995	83086.0
-23.990	83085.0
-23.985	83068.0
-23.980	83058.0
-23.975	83090.0
-23.970	83103.9
-23.965	83104.9
-23.960	83101.9
-23.955	83108.9
-23.950	83090.9
-23.945	83092.0
-23.940	83085.0
-23.935	83099.9
-23.930	83099.0
-23.925	83107.9
-23.920	83082.0
-23.915	83072.0
-23.910	83072.0
-23.905	83112.9
-23.900	83110.9
-23.895	83106.9
-23.890	83109.9
-23.885	83107.9
-23.880	83106.9
-23.875	83108.9
-23.870	83105.9
-23.865	83113.9
-23.860	83111.9
-23.855	83109.9
-23.850	83078.0
-23.845	83090.0
-23.840	83122.9
-23.835	83133.9
-23.830	83130.9
-23.825	83128.9
-23.820	83115.9
-23.815	83108.9
-23.810	83109.9
-23.805	83110.9
-23.800	83111.9
-23.795	83126.9
-23.790	83115.9
-23.785	83100.9
-23.780	83082.0
-23.775	83103.9
-23.770	83116.9
-23.765	83114.9
-23.760	83110.9
-23.755	83120.9
-23.750	83113.9
-23.745	83117.9
-23.740	83116.9
-23.735	83124.9
-23.730	83121.9
-23.725	83126.9
-23.720	83106.9
-23.715	83091.9
-23.710	83099.9
-23.705	83139.9
-23.700	83140.9
-23.695	83136.9
-23.690	83137.9
-23.685	83136.9
-23.680	83118.9
-23.675	83119.9
-23.670	83119.9
-23.665	83125.9
-23.660	83121.9
-23.655	83120.9
-23.650	83102.9
-23.645	83105.9
-23.640	83122.9
-23.635	83138.9
-23.630	83125.9
-23.625	83126.9
-23.620	83122.9
-23.615	83120.9
-23.610	83120.9
-23.605	83126.9
-23.600	83136.9
-23.595	83144.9
-23.590	83134.9
-23.585	83116.9
-23.580	83099.9
-23.575	83121.9
-23.570	83143.9
-23.565	83159.9
-23.560	83143.9
-23.555	83155.9
-23.550	83145.9
-23.545	83145.9
-23.540	83131.9
-23.535	83136.9
-23.530	83134.9
-23.525	83145.9
-23.520	83129.9
-23.515	83120.9
-23.510	83123.9
-23.505	83168.9
-23.500	83148.9
-23.495	83135.9
-23.490	83134.9
-23.485	83139.9
-23.480	83133.9
-23.475	83152.9
-23.470	83147.9
-23.465	83153.9
-23.460	83158.9
-23.455	83150.9
-23.450	83121.9
-23.445	83118.9
-23.440	83154.9
-23.435	83164.9
-23.430	83168.9
-23.425	83176.9
-23.420	83171.9
-23.415	83168.9
-23.410	83165.9
-23.405	83157.9
-23.400	83145.9
-23.395	83159.9
-23.390	83153.9
-23.385	83138.9
-23.380	83145.9
-23.375	83174.9
-23.370	83173.9
-23.365	83175.9
-23.360	83159.9
-23.355	83161.9
-23.350	83145.9
-23.345	83165.9
-23.340	83161.9
-23.335	83165.9
-23.330	83174.9
-23.325	83183.9
-23.320	83160.9
-23.315	83142.9
-23.310	83146.9
-23.305	83168.9
-23.300	83175.9
-23.295	83186.9
-23.290	83187.9
-23.285	83188.9
-23.280	83182.9
-23.275	83187.9
-23.270	83172.9
-23.265	83171.9
-23.260	83168.9
-23.255	83157.9
-23.250	83138.9
-23.245	83158.9
-23.240	83190.9
-23.235	83188.9
-23.230	83179.9
-23.225	83178.9
-23.220	83174.9
-23.215	83160.9
-23.210	83166.9
-23.205	83174.9
-23.200	83181.9
-23.195	83194.9
-23.190	83186.9
-23.185	83167.9
-23.180	83147.9
-23.175	83169.9
-23.170	83185.9
-23.165	83179.9
-23.160	83184.9
-23.155	83189.9
-23.150	83181.9
-23.145	83186.9
-23.140	83184.9
-23.135	83189.9
-23.130	83174.9
-23.125	83183.9
-23.120	83144.9
-23.115	83156.9
-23.110	83157.9
-23.105	83200.9
-23.100	83186.9
-23.095	83195.9
-23.090	83187.9
-23.085	83185.9
-23.080	83171.9
-23.075	83177.9
-23.070	83169.9
-23.065	83175.9
-23.060	83191.9
-23.055	83191.9
-23.050	83163.9
-23.045	83160.9
-23.040	83186.9
-23.035	83191.9
-23.030	83182.9
-23.025	83187.9
-23.020	83187.9
-23.015	83196.9
-23.010	83192.9
-23.005	83193.9
-23.000	83181.9
-22.995	83193.9
-22.990	83171.9
-22.985	83155.9
-22.980	83155.9
-22.975	83183.9
-22.970	83199.9
-22.965	83200.9
-22.960	83194.9
-22.955	83186.9
-22.950	83174.9
-22.945	83183.9
-22.940	83171.9
-22.935	83177.9
-22.930	83191.9
-22.925	83194.9
-22.920	83170.9
-22.915	83165.9
-22.910	83172.9
-22.905	83199.9
-22.900	83188.9
-22.895	83193.9
-22.890	83190.9
-22.885	83194.9
-22.880	83189.9
-22.875	83194.9
-22.870	83186.9
-22.865	83198.9
-22.860	83202.9
-22.855	83170.9
-22.850	83151.9
-22.845	83157.9
-22.840	83181.9
-22.835	83198.9
-22.830	83190.9
-22.825	83198.9
-22.820	83185.9
-22.815	83177.9
-22.810	83171.9
-22.805	83169.9
-22.800	83182.9
-22.795	83192.9
-22.790	83193.9
-22.785	83177.9
-22.780	83162.9
-22.775	83189.9
-22.770	83201.9
-22.765	83195.9
-22.760	83188.9
-22.755	83195.9
-22.750	83184.9
-22.745	83187.9
-22.740	83184.9
-22.735	83202.9
-22.730	83189.9
-22.725	83193.9
-22.720	83165.9
-22.715	83154.9
-22.710	83160.9
-22.705	83187.9
-22.700	83194.9
-22.695	83193.9
-22.690	83193.9
-22.685	83190.9
-22.680	83182.9
-22.675	83182.9
-22.670	83176.9
-22.665	83190.9
-22.660	83188.9
-22.655	83183.9
-22.650	83174.9
-22.645	83182.9
-22.640	83207.9
-22.635	83205.9
-22.630	83195.9
-22.625	83195.9
-22.620	83180.9
-22.615	83191.9
-22.610	83186.9
-22.605	83193.9
-22.600	83193.9
-22.595	83194.9
-22.590	83187.9
-22.585	83160.9
-22.580	83156.9
-22.575	83174.9
-22.570	83192.9
-22.565	83190.9
-22.560	83196.9
-22.555	83201.9
-22.550	83190.9
-22.545	83193.9
-22.540	83183.9
-22.535	83188.9
-22.530	83183.9
-22.525	83196.9
-22.520	83169.9
-22.515	83163.9
-22.510	83187.9
-22.505	83218.8
-22.500	83204.9
-22.495	83207.9
-22.490	83197.9
-22.485	83191.9
-22.480	83177.9
-22.475	83180.9
-22.470	83188.9
-22.465	83195.9
-22.460	83194.9
-22.455	83178.9
-22.450	83160.9
-22.445	83165.9
-22.440	83188.9
-22.435	83191.9
-22.430	83189.9
-22.425	83187.9
-22.420	83187.9
-22.415	83193.9
-22.410	83181.9
-22.405	83189.9
-22.400	83181.9
-22.395	83191.9
-22.390	83178.9
-22.385	83169.9
-22.380	83158.9
-22.375	83189.9
-22.370	83200.9
-22.365	83212.9
-22.360	83203.9
-22.355	83189.9
-22.350	83186.9
-22.345	83185.9
-22.340	83173.9
-22.335	83190.9
-22.330	83194.9
-22.325	83190.9
-22.320	83167.9
-22.315	83155.9
-22.310	83164.9
-22.305	83184.9
-22.300	83183.9
-22.295	83175.9
-22.290	83176.9
-22.285	83177.9
-22.280	83179.9
-22.275	83179.9
-22.270	83179.9
-22.265	83188.9
-22.260	83173.9
-22.255	83164.9
-22.250	83139.9
-22.245	83157.9
-22.240	83188.9
-22.235	83203.9
-22.230	83195.9
-22.225	83197.9
-22.220	83187.9
-22.215	83168.9
-22.210	83169.9
-22.205	83172.9
-22.200	83174.9
-22.195	83178.9
-22.190	83166.9
-22.185	83151.9
-22.180	83153.9
-22.175	83179.9
-22.170	83172.9
-22.165	83169.9
-22.160	83155.9
-22.155	83170.9
-22.150	83164.9
-22.145	83178.9
-22.140	83167.9
-22.135	83166.9
-22.130	83174.9
-22.125	83175.9
-22.120	83147.9
-22.115	83132.9
-22.110	83154.9
-22.105	83178.9
-22.100	83179.9
-22.095	83189.9
-22.090	83183.9
-22.085	83176.9
-22.080	83163.9
-22.075	83166.9
-22.070	83164.9
-22.065	83167.9
-22.060	83180.9
-22.055	83152.9
-22.050	83142.9
-22.045	83161.9
-22.040	83173.9
-22.035	83177.9
-22.030	83161.9
-22.025	83167.9
-22.020	83158.9
-22.015	83163.9
-22.010	83157.9
-22.005	83163.9
-22.000	83165.9
-21.995	83166.9
-21.990	83159.9
-21.985	83141.9
-21.980	83133.9
-21.975	83171.9
-21.970	83168.9
-21.965	83179.9
-21.960	83170.9
-21.955	83178.9
-21.950	83165.9
-21.945	83162.9
-21.940	83157.9
-21.935	83157.9
-21.930	83145.9
-21.925	83156.9
-21.920	83128.9
-21.915	83126.9
-21.910	83156.9
-21.905	83166.9
-21.900	83169.9
-21.895	83149.9
-21.890	83153.9
-21.885	83155.9
-21.880	83145.9
-21.875	83152.9
-21.870	83150.9
-21.865	83162.9
-21.860	83167.9
-21.855	83152.9
-21.850	83122.9
-21.845	83139.9
-21.840	83158.9
-21.835	83160.9
-21.830	83162.9
-21.825	83167.9
-21.820	83155.9
-21.815	83159.9
-21.810	83146.9
-21.805	83150.9
-21.800	83150.9
-21.795	83153.9
-21.790	83132.9
-21.785	83128.9
-21.780	83125.9
-21.775	83164.9
-21.770	83157.9
-21.765	83159.9
-21.760	83153.9
-21.755	83141.9
-21.750	83130.9
-21.745	83142.9
-21.740	83136.9
-21.735	83147.9
-21.730	83153.9
-21.725	83168.9
-21.720	83132.9
-21.715	83125.9
-21.710	83141.9
-21.705	83165.9
-21.700	83157.9
-21.695	83156.9
-21.690	83158.9
-21.685	83157.9
-21.680	83153.9
-21.675	83151.9
-21.670	83149.9
-21.665	83151.9
-21.660	83145.9
-21.655	83132.9
-21.650	83111.9
-21.645	83131.9
-21.640	83153.9
-21.635	83154.9
-21.630	83151.9
-21.625	83148.9
-21.620	83133.9
-21.615	83133.9
-21.610	83135.9
-21.605	83142.9
-21.600	83151.9
-21.595	83160.9
-21.590	83157.9
-21.585	83141.9
-21.580	83122.9
-21.575	83154.9
-21.570	83147.9
-21.565	83150.9
-21.560	83146.9
-21.555	83151.9
-21.550	83152.9
-21.545	83153.9
-21.540	83144.9
-21.535	83152.9
-21.530	83138.9
-21.525	83141.9
-21.520	83114.9
-21.515	83117.9
-21.510	83136.9
-21.505	83152.9
-21.500	83147.9
-21.495	83146.9
-21.490	83139.9
-21.485	83124.9
-21.480	83123.9
-21.475	83117.9
-21.470	83113.9
-21.465	83107.9
-21.460	83107.0
-21.455	83063.0
-21.450	83013.0
-21.445	82977.1
-21.440	82903.2
-21.435	82790.3
-21.430	82631.5
-21.425	82418.7
-21.420	82132.1
-21.415	81778.4
-21.410	81347.9
-21.405	80877.5
-21.400	80414.0
-21.395	79971.6
-21.390	79485.2
-21.385	78943.9
-21.380	78341.7
-21.375	77768.5
-21.370	77173.3
-21.365	76572.1
-21.360	75847.0
-21.355	74959.0
-21.350	74021.0
-21.345	73490.7
-21.340	73317.2
-21.335	72924.6
-21.330	72877.5
-21.325	73602.0
-21.320	73735.8
-21.315	73675.6
-21.310	74489.9
-21.305	75527.1
-21.300	76460.4
-21.295	76915.0
-21.290	76532.2
-21.285	75260.0
-21.280	74665.2
-21.275	75447.6
-21.270	75991.1
-21.265	75590.3
-21.260	76147.9
-21.255	76439.6
-21.250	74945.5
-21.245	75254.3
-21.240	77118.9
-21.235	77941.3
-21.230	78197.0
-21.225	78102.1
-21.220	77716.3
-21.215	76582.1
-21.210	75409.9
-21.205	76244.2
-21.200	77285.5
-21.195	77437.4
-21.190	77824.0
-21.185	78502.4
-21.180	78556.3
-21.175	77671.0
-21.170	76010.1
-21.165	75446.5
-21.160	77042.3
-21.155	78175.5
-21.150	76744.5
-21.145	74732.0
-21.140	75121.6
-21.135	77413.9
-21.130	78629.0
-21.125	78543.1
-21.120	77985.4
-21.115	77845.5
-21.110	78066.3
-21.105	77899.4
-21.100	77722.5
-21.095	78150.2
-21.090	78745.7
-21.085	79044.5
-21.080	78964.5
-21.075	78796.6
-21.070	78662.7
-21.065	78579.7
-21.060	78561.8
-21.055	78483.8
-21.050	78512.8
-21.045	78909.5
-21.040	79373.1
-21.035	79565.0
-21.030	79511.0
-21.025	79254.1
-21.020	78784.5
-21.015	78381.8
-21.010	78371.8
-21.005	78602.6
-21.000	78880.4
-20.995	79084.2
-20.990	79076.2
-20.985	79048.2
-20.980	79141.1
-20.975	79298.0
-20.970	79382.9
-20.965	79352.9
-20.960	79261.0
-20.955	79211.0
-20.950	79153.0
-20.945	79176.0
-20.940	79249.9
-20.935	79341.8
-20.930	79437.8
-20.925	79475.7
-20.920	79426.7
-20.915	79374.8
-20.910	79327.8
-20.905	79248.8
-20.900	79188.9
-20.895	79105.9
-20.890	78953.0
-20.885	78874.1
-20.880	78932.0
-20.875	78997.0
-20.870	79070.9
-20.865	79155.8
-20.860	79229.8
-20.855	79277.7
-20.850	79292.7
-20.845	79283.7
-20.840	79262.7
-20.835	79261.7
-20.830	79306.7
-20.825	79378.6
-20.820	79445.5
-20.815	79478.5
-20.810	79505.5
-20.805	79588.4
-20.800	79641.4
-20.795	79728.3
-20.790	79763.3
-20.785	79786.2
-20.780	79852.2
-20.775	79932.1
-20.770	79947.1
-20.765	79976.1
-20.760	79991.0
-20.755	80020.0
-20.750	80043.0
-20.745	80059.0
-20.740	80084.9
-20.735	80098.9
-20.730	80077.9
-20.725	80054.9
-20.720	80003.0
-20.715	79977.0
-20.710	80000.0
-20.705	79986.0
-20.700	79950.0
-20.695	79942.0
-20.690	79949.0
-20.685	80003.9
-20.680	80029.9
-20.675	80046.9
-20.670	80085.9
-20.665	80089.8
-20.660	80062.9
-20.655	80057.9
-20.650	80056.9
-20.645	80089.8
-20.640	80063.8
-20.635	80050.8
-20.630	80034.9
-20.625	80034.8
-20.620	80054.8
-20.615	80090.8
-20.610	80150.7
-20.605	80219.7
-20.600	80280.6
-20.595	80348.6
-20.590	80338.6
-20.585	80357.6
-20.580	80420.5
-20.575	80475.5
-20.570	80492.4
-20.565	80511.4
-20.560	80497.4
-20.555	80508.4
-20.550	80522.4
-20.545	80539.4
-20.540	80540.4
-20.535	80544.4
-20.530	80554.4
-20.525	80559.4
-20.520	80517.4
-20.515	80517.4
-20.510	80558.3
-20.505	80569.3
-20.500	80569.3
-20.495	80574.3
-20.490	80547.3
-20.485	80522.4
-20.480	80505.4
-20.475	80510.4
-20.470	80515.4
-20.465	80523.3
-20.460	80507.3
-20.455	80471.4
-20.450	80431.4
-20.445	80442.4
-20.440	80458.4
-20.435	80469.3
-20.430	80449.4
-20.425	80414.4
-20.420	80394.4
-20.415	80385.4
-20.410	80381.4
-20.405	80369.4
-20.400	80347.4
-20.395	80328.4
-20.390	80310.4
-20.385	80301.4
-20.380	80307.4
-20.375	80364.4
-20.370	80389.4
-20.365	80433.3
-20.360	80448.3
-20.355	80487.3
-20.350	80520.3
-20.345	80557.2
-20.340	80587.2
-20.335	80627.2
-20.330	80644.1
-20.325	80664.1
-20.320	80664.1
-20.315	80694.1
-20.310	80758.0
-20.305	80775.0
-20.300	80787.0
-20.295	80795.0
-20.290	80789.0
-20.285	80786.0
-20.280	80781.0
-20.275	80773.0
-20.270	80749.0
-20.265	80749.0
-20.260	80756.0
-20.255	80744.0
-20.250	80700.1
-20.245	80703.0
-20.240	80705.0
-20.235	80721.0
-20.230	80735.0
-20.225	80739.0
-20.220	80724.0
-20.215	80723.0
-20.210	80733.0
-20.205	80760.0
-20.200	80766.0
-20.195	80779.0
-20.190	80754.0
-20.185	80751.0
-20.180	80781.0
-20.175	80800.9
-20.170	80809.9
-20.165	80818.9
-20.160	80810.9
-20.155	80806.9
-20.150	80819.9
-20.145	80840.9
-20.140	80854.9
-20.135	80876.9
-20.130	80908.8
-20.125	80917.8
-20.120	80908.8
-20.115	80923.8
-20.110	80965.8
-20.105	80971.8
-20.100	80961.8
-20.095	80973.8
-20.090	80973.8
-20.085	80954.8
-20.080	80930.8
-20.075	80943.8
-20.070	80916.8
-20.065	80873.8
-20.060	80823.9
-20.055	80813.9
-20.050	80807.9
-20.045	80845.8
-20.040	80889.8
-20.035	80942.8
-20.030	80950.8
-20.025	80947.7
-20.020	80975.7
-20.015	81000.7
-20.010	81003.7
-20.005	81023.7
-20.000	81031.7
-19.995	81060.6
-19.990	81046.7
-19.985	81038.7
-19.980	81050.6
-19.975	81070.6
-19.970	81054.6
-19.965	81041.7
-19.960	81025.7
-19.955	81026.7
-19.950	81020.7
-19.945	81021.7
-19.940	81019.7
-19.935	81003.7
-19.930	80984.7
-19.925	80947.7
-19.920	80905.7
-19.915	80895.7
-19.910	80907.7
-19.905	80908.7
-19.900	80893.7
-19.895	80885.7
-19.890	80864.7
-19.885	80843.8
-19.880	80833.8
-19.875	80822.8
-19.870	80814.8
-19.865	80809.8
-19.860	80785.8
-19.855	80739.8
-19.850	80717.8
-19.845	80744.8
-19.840	80761.8
-19.835	80778.8
-19.830	80768.8
-19.825	80746.8
-19.820	80738.8
-19.815	80748.8
-19.810	80768.8
-19.805	80781.8
-19.800	80778.8
-19.795	80792.8
-19.790	80760.8
-19.785	80747.8
-19.780	80761.8
-19.775	80793.7
-19.770	80779.8
-19.765	80777.8
-19.760	80769.8
-19.755	80766.8
-19.750	80771.8
-19.745	80773.7
-19.740	80770.8
-19.735	80777.7
-19.730	80772.7
-19.725	80759.8
-19.720	80751.8
-19.715	80763.7
-19.710	80784.7
-19.705	80777.7
-19.700	80776.7
-19.695	80768.7
-19.690	80743.7
-19.685	80753.7
-19.680	80765.7
-19.675	80783.7
-19.670	80785.7
-19.665	80780.7
-19.660	80761.7
-19.655	80723.7
-19.650	80711.8
-19.645	80752.7
-19.640	80751.7
-19.635	80745.7
-19.630	80730.7
-19.625	80741.7
-19.620	80751.7
-19.615	80761.7
-19.610	80780.7
-19.605	80792.7
-19.600	80808.7
-19.595	80832.7
-19.590	80847.6
-19.585	80866.6
-19.580	80919.6
-19.575	80959.6
-19.570	80957.6
-19.565	80948.6
-19.560	80936.6
-19.555	80958.5
-19.550	80974.5
-19.545	80987.5
-19.540	80996.5
-19.535	81013.5
-19.530	81017.5
-19.525	81018.5
-19.520	81025.5
-19.515	81055.5
-19.510	81100.4
-19.505	81111.4
-19.500	81113.4
-19.495	81127.4
-19.490	81112.4
-19.485	81104.4
-19.480	81100.4
-19.475	81106.4
-19.470	81094.4
-19.465	81103.4
-19.460	81079.4
-19.455	81058.4
-19.450	81032.5
-19.445	81065.4
-19.440	81065.4
-19.435	81057.4
-19.430	81034.5
-19.425	81019.5
-19.420	81007.5
-19.415	80999.5
-19.410	80996.5
-19.405	80996.5
-19.400	80988.5
-19.395	81001.5
-19.390	80957.5
-19.385	80930.5
-19.380	80932.5
-19.375	80941.5
-19.370	80939.5
-19.365	80953.5
-19.360	80956.5
-19.355	80972.5
-19.350	80966.5
-19.345	80961.5
-19.340	80959.5
-19.335	80991.5
-19.330	81035.4
-19.325	81026.4
-19.320	81011.4
-19.315	81025.4
-19.310	81073.4
-19.305	81102.4
-19.300	81135.3
-19.295	81171.3
-19.290	81193.3
-19.285	81216.3
-19.280	81226.3
-19.275	81247.3
-19.270	81259.3
-19.265	81289.2
-19.260	81287.2
-19.255	81278.2
-19.250	81282.2
-19.245	81333.2
-19.240	81361.2
-19.235	81368.2
-19.230	81359.2
-19.225	81366.2
-19.220	81366.2
-19.215	81367.2
-19.210	81357.2
-19.205	81360.2
-19.200	81349.2
-19.195	81350.2
-19.190	81322.2
-19.185	81299.2
-19.180	81314.2
-19.175	81331.2
-19.170	81313.2
-19.165	81301.2
-19.160	81286.2
-19.155	81266.2
-19.150	81245.2
-19.145	81240.2
-19.140	81241.2
-19.135	81224.3
-19.130	81219.3
-19.125	81192.3
-19.120	81163.3
-19.115	81166.3
-19.110	81191.3
-19.105	81207.3
-19.100	81212.2
-19.095	81225.2
-19.090	81226.2
-19.085	81217.2
-19.080	81208.3
-19.075	81222.2
-19.070	81212.2
-19.065	81228.2
-19.060	81230.2
-19.055	81198.2
-19.050	81186.3
-19.045	81231.2
-19.040	81246.2
-19.035	81249.2
-19.030	81250.2
-19.025	81261.2
-19.020	81245.2
-19.015	81237.2
-19.010	81223.2
-19.005	81216.2
-19.000	81215.2
-18.995	81208.2
-18.990	81177.3
-18.985	81176.2
-18.980	81194.2
-18.975	81220.2
-18.970	81215.2
-18.965	81205.2
-18.960	81220.2
-18.955	81218.2
-18.950	81218.2
-18.945	81219.2
-18.940	81215.2
-18.935	81221.2
-18.930	81202.2
-18.925	81184.2
-18.920	81170.2
-18.915	81177.2
-18.910	81201.2
-18.905	81211.2
-18.900	81204.2
-18.895	81187.2
-18.890	81165.2
-18.885	81178.2
-18.880	81173.2
-18.875	81167.2
-18.870	81179.2
-18.865	81198.2
-18.860	81193.2
-18.855	81177.2
-18.850	81165.2
-18.845	81205.2
-18.840	81201.2
-18.835	81206.2
-18.830	81197.2
-18.825	81191.2
-18.820	81194.2
-18.815	81217.2
-18.810	81237.2
-18.805	81261.1
-18.800	81277.1
-18.795	81295.1
-18.790	81295.1
-18.785	81313.1
-18.780	81349.1
-18.775	81381.0
-18.770	81391.0
-18.765	81394.0
-18.760	81407.0
-18.755	81424.0
-18.750	81433.0
-18.745	81440.0
-18.740	81425.0
-18.735	81421.0
-18.730	81442.0
-18.725	81414.0
-18.720	81415.0
-18.715	81451.0
-18.710	81481.0
-18.705	81480.0
-18.700	81471.0
-18.695	81486.0
-18.690	81477.0
-18.685	81481.0
-18.680	81488.0
-18.675	81508.9
-18.670	81510.9
-18.665	81537.9
-18.660	81533.9
-18.655	81520.9
-18.650	81515.9
-18.645	81557.9
-18.640	81557.9
-18.635	81568.9
-18.630	81569.9
-18.625	81584.9
-18.620	81588.9
-18.615	81573.9
-18.610	81590.9
-18.605	81590.9
-18.600	81585.9
-18.595	81572.9
-18.590	81548.9
-18.585	81540.9
-18.580	81570.9
-18.575	81604.8
-18.570	81602.8
-18.565	81605.8
-18.560	81594.9
-18.555	81591.9
-18.550	81579.9
-18.545	81586.9
-18.540	81597.8
-18.535	81602.8
-18.530	81607.8
-18.525	81587.9
-18.520	81573.9
-18.515	81576.9
-18.510	81590.8
-18.505	81598.8
-18.500	81591.8
-18.495	81586.8
-18.490	81590.8
-18.485	81601.8
-18.480	81589.8
-18.475	81582.8
-18.470	81593.8
-18.465	81597.8
-18.460	81567.9
-18.455	81572.9
-18.450	81573.8
-18.445	81601.8
-18.440	81614.8
-18.435	81620.8
-18.430	81616.8
-18.425	81613.8
-18.420	81605.8
-18.415	81593.8
-18.410	81594.8
-18.405	81606.8
-18.400	81617.8
-18.395	81632.8
-18.390	81600.8
-18.385	81589.8
-18.380	81602.8
-18.375	81624.8
-18.370	81615.8
-18.365	81625.8
-18.360	81615.8
-18.355	81624.8
-18.350	81612.8
-18.345	81624.8
-18.340	81627.8
-18.335	81633.8
-18.330	81640.8
-18.325	81604.8
-18.320	81598.8
-18.315	81617.8
-18.310	81627.8
-18.305	81644.8
-18.300	81645.8
-18.295	81641.8
-18.290	81637.8
-18.285	81637.8
-18.280	81640.8
-18.275	81635.8
-18.270	81638.8
-18.265	81649.8
-18.260	81632.8
-18.255	81616.8
-18.250	81613.8
-18.245	81636.8
-18.240	81627.8
-18.235	81611.8
-18.230	81602.8
-18.225	81604.8
-18.220	81584.8
-18.215	81573.8
-18.210	81569.8
-18.205	81570.8
-18.200	81562.8
-18.195	81552.8
-18.190	81510.9
-18.185	81486.9
-18.180	81506.9
-18.175	81516.8
-18.170	81501.9
-18.165	81485.9
-18.160	81485.9
-18.155	81493.9
-18.150	81488.9
-18.145	81482.9
-18.140	81482.9
-18.135	81470.9
-18.130	81455.9
-18.125	81421.9
-18.120	81389.9
-18.115	81403.9
-18.110	81427.9
-18.105	81422.9
-18.100	81404.9
-18.095	81418.9
-18.090	81403.9
-18.085	81389.9
-18.080	81391.9
-18.075	81401.9
-18.070	81385.9
-18.065	81402.9
-18.060	81390.9
-18.055	81390.9
-18.050	81405.9
-18.045	81448.9
-18.040	81448.9
-18.035	81449.9
-18.030	81449.9
-18.025	81465.9
-18.020	81469.9
-18.015	81486.9
-18.010	81487.9
-18.005	81501.8
-18.000	81498.8
-17.995	81510.8
-17.990	81501.8
-17.985	81501.8
-17.980	81545.8
-17.975	81556.8
-17.970	81551.8
-17.965	81557.8
-17.960	81553.8
-17.955	81559.8
-17.950	81556.8
-17.945	81575.8
-17.940	81572.8
-17.935	81580.8
-17.930	81563.8
-17.925	81556.8
-17.920	81540.8
-17.915	81576.8
-17.910	81585.8
-17.905	81591.8
-17.900	81584.8
-17.895	81582.8
-17.890	81586.8
-17.885	81583.8
-17.880	81590.8
-17.875	81577.8
-17.870	81583.8
-17.865	81599.8
-17.860	81584.8
-17.855	81565.8
-17.850	81581.8
-17.845	81618.7
-17.840	81615.7
-17.835	81621.7
-17.830	81619.7
-17.825	81617.7
-17.820	81600.7
-17.815	81599.7
-17.810	81596.8
-17.805	81614.7
-17.800	81611.7
-17.795	81619.7
-17.790	81605.7
-17.785	81612.7
-17.780	81643.7
-17.775	81652.7
-17.770	81651.7
-17.765	81646.7
-17.760	81643.7
-17.755	81663.7
-17.750	81656.7
-17.745	81675.7
-17.740	81671.7
-17.735	81687.7
-17.730	81688.7
-17.725	81671.7
-17.720	81655.7
-17.715	81681.7
-17.710	81694.7
-17.705	81693.7
-17.700	81707.7
-17.695	81715.6
-17.690	81707.6
-17.685	81706.6
-17.680	81705.6
-17.675	81702.6
-17.670	81689.7
-17.665	81694.7
-17.660	81664.7
-17.655	81659.7
-17.650	81673.7
-17.645	81701.6
-17.640	81677.7
-17.635	81676.7
-17.630	81668.7
-17.625	81656.7
-17.620	81659.7
-17.615	81661.7
-17.610	81652.7
-17.605	81655.7
-17.600	81660.7
-17.595	81655.7
-17.590	81642.7
-17.585	81640.7
-17.580	81658.7
-17.575	81675.7
-17.570	81676.7
-17.565	81678.7
-17.560	81670.7
-17.555	81681.7
-17.550	81666.7
-17.545	81674.7
-17.540	81671.7
-17.535	81677.7
-17.530	81673.7
-17.525	81648.7
-17.520	81633.7
-17.515	81673.6
-17.510	81696.6
-17.505	81703.6
-17.500	81677.6
-17.495	81678.6
-17.490	81686.6
-17.485	81710.6
-17.480	81707.6
-17.475	81728.6
-17.470	81733.6
-17.465	81736.6
-17.460	81712.6
-17.455	81697.6
-17.450	81696.6
-17.445	81743.6
-17.440	81727.6
-17.435	81740.6
-17.430	81730.6
-17.425	81733.6
-17.420	81730.6
-17.415	81736.6
-17.410	81745.6
-17.405	81743.6
-17.400	81737.6
-17.395	81725.6
-17.390	81706.6
-17.385	81723.6
-17.380	81759.6
-17.375	81773.6
-17.370	81771.6
-17.365	81771.6
-17.360	81764.6
-17.355	81771.6
-17.350	81768.6
-17.345	81779.6
-17.340	81787.6
-17.335	81801.5
-17.330	81804.5
-17.325	81791.5
-17.320	81773.6
-17.315	81790.5
-17.310	81808.5
-17.305	81820.5
-17.300	81823.5
-17.295	81823.5
-17.290	81818.5
-17.285	81826.5
-17.280	81812.5
-17.275	81823.5
-17.270	81817.5
-17.265	81815.5
-17.260	81793.5
-17.255	81777.5
-17.250	81793.5
-17.245	81826.5
-17.240	81831.5
-17.235	81836.5
-17.230	81829.5
-17.225	81817.5
-17.220	81815.5
-17.215	81815.5
-17.210	81789.5
-17.205	81807.5
-17.200	81801.5
-17.195	81793.5
-17.190	81762.5
-17.185	81763.5
-17.180	81792.5
-17.175	81805.5
-17.170	81806.5
-17.165	81795.5
-17.160	81798.5
-17.155	81798.5
-17.150	81809.5
-17.145	81795.5
-17.140	81798.5
-17.135	81793.5
-17.130	81798.5
-17.125	81775.5
-17.120	81765.5
-17.115	81796.5
-17.110	81821.5
-17.105	81828.5
-17.100	81829.5
-17.095	81821.5
-17.090	81811.5
-17.085	81818.5
-17.080	81807.5
-17.075	81811.5
-17.070	81826.5
-17.065	81836.5
-17.060	81828.5
-17.055	81813.5
-17.050	81831.5
-17.045	81849.5
-17.040	81844.5
-17.035	81847.5
-17.030	81845.5
-17.025	81847.5
-17.020	81837.5
-17.015	81841.5
-17.010	81837.5
-17.005	81843.5
-17.000	81844.5
-16.995	81829.5
-16.990	81798.5
-16.985	81801.5
-16.980	81831.5
-16.975	81833.5
-16.970	81837.5
-16.965	81833.5
-16.960	81830.5
-16.955	81824.5
-16.950	81824.5
-16.945	81824.5
-16.940	81825.5
-16.935	81842.5
-16.930	81838.5
-16.925	81820.5
-16.920	81800.5
-16.915	81827.5
-16.910	81827.5
-16.905	81829.5
-16.900	81822.5
-16.895	81832.5
-16.890	81815.5
-16.885	81826.5
-16.880	81802.5
-16.875	81808.5
-16.870	81787.5
-16.865	81796.5
-16.860	81763.5
-16.855	81746.5
-16.850	81741.5
-16.845	81769.5
-16.840	81751.5
-16.835	81750.5
-16.830	81738.5
-16.825	81737.5
-16.820	81734.5
-16.815	81742.5
-16.810	81744.5
-16.805	81745.5
-16.800	81745.5
-16.795	81731.5
-16.790	81716.6
-16.785	81720.5
-16.780	81752.5
-16.775	81753.5
-16.770	81748.5
-16.765	81761.5
-16.760	81746.5
-16.755	81755.5
-16.750	81750.5
-16.745	81746.5
-16.740	81740.5
-16.735	81741.5
-16.730	81731.5
-16.725	81718.5
-16.720	81710.5
-16.715	81736.5
-16.710	81732.5
-16.705	81749.5
-16.700	81756.5
-16.695	81747.5
-16.690	81746.5
-16.685	81749.5
-16.680	81739.5
-16.675	81739.5
-16.670	81733.5
-16.665	81737.5
-16.660	81718.5
-16.655	81698.6
-16.650	81706.5
-16.645	81738.5
-16.640	81738.5
-16.635	81738.5
-16.630	81725.5
-16.625	81718.5
-16.620	81711.5
-16.615	81714.5
-16.610	81707.5
-16.605	81722.5
-16.600	81708.5
-16.595	81691.5
-16.590	81672.6
-16.585	81689.6
-16.580	81709.5
-16.575	81712.5
-16.570	81715.5
-16.565	81715.5
-16.560	81708.5
-16.555	81706.5
-16.550	81702.5
-16.545	81704.5
-16.540	81701.5
-16.535	81709.5
-16.530	81694.5
-16.525	81681.6
-16.520	81672.6
-16.515	81698.5
-16.510	81704.5
-16.505	81715.5
-16.500	81711.5
-16.495	81730.5
-16.490	81722.5
-16.485	81730.5
-16.480	81726.5
-16.475	81739.5
-16.470	81737.5
-16.465	81741.5
-16.460	81726.5
-16.455	81706.5
-16.450	81725.5
-16.445	81751.5
-16.440	81748.5
-16.435	81756.5
-16.430	81765.5
-16.425	81768.5
-16.420	81765.5
-16.415	81765.5
-16.410	81764.5
-16.405	81777.5
-16.400	81780.5
-16.395	81763.5
-16.390	81747.5
-16.385	81754.5
-16.380	81786.5
-16.375	81796.5
-16.370	81802.5
-16.365	81792.5
-16.360	81786.5
-16.355	81798.5
-16.350	81800.5
-16.345	81808.4
-16.340	81810.4
-16.335	81812.4
-16.330	81799.5
-16.325	81774.5
-16.320	81768.5
-16.315	81801.4
-16.310	81797.5
-16.305	81803.4
-16.300	81798.5
-16.295	81799.5
-16.290	81793.5
-16.285	81796.5
-16.280	81805.4
-16.275	81804.4
-16.270	81807.4
-16.265	81804.4
-16.260	81783.5
-16.255	81749.5
-16.250	81770.5
-16.245	81787.5
-16.240	81786.5
-16.235	81768.5
-16.230	81765.5
-16.225	81766.5
-16.220	81757.5
-16.215	81763.5
-16.210	81757.5
-16.205	81753.5
-16.200	81751.5
-16.195	81739.5
-16.190	81718.5
-16.185	81713.5
-16.180	81726.5
-16.175	81709.5
-16.170	81700.5
-16.165	81700.5
-16.160	81693.5
-16.155	81682.5
-16.150	81684.5
-16.145	81669.5
-16.140	81668.5
-16.135	81661.5
-16.130	81659.5
-16.125	81631.6
-16.120	81615.6
-16.115	81641.6
-16.110	81621.6
-16.105	81618.6
-16.100	81628.6
-16.095	81626.6
-16.090	81623.6
-16.085	81615.6
-16.080	81613.6
-16.075	81615.6
-16.070	81614.6
-16.065	81626.6
-16.060	81599.6
-16.055	81597.6
-16.050	81626.6
-16.045	81634.6
-16.040	81624.6
-16.035	81628.6
-16.030	81614.6
-16.025	81621.6
-16.020	81614.6
-16.015	81629.6
-16.010	81624.6
-16.005	81635.6
-16.000	81650.5
-15.995	81638.6
-15.990	81625.6
-15.985	81635.6
-15.980	81687.5
-15.975	81680.5
-15.970	81681.5
-15.965	81678.5
-15.960	81702.5
-15.955	81696.5
-15.950	81689.5
-15.945	81694.5
-15.940	81700.5
-15.935	81718.5
-15.930	81707.5
-15.925	81700.5
-15.920	81688.5
-15.915	81733.5
-15.910	81745.5
-15.905	81747.5
-15.900	81738.5
-15.895	81741.5
-15.890	81746.5
-15.885	81755.5
-15.880	81761.4
-15.875	81778.4
-15.870	81796.4
-15.865	81793.4
-15.860	81768.4
-15.855	81765.4
-15.850	81786.4
-15.845	81814.4
-15.840	81814.4
-15.835	81828.4
-15.830	81828.4
-15.825	81833.4
-15.820	81833.4
-15.815	81834.4
-15.810	81830.4
-15.805	81834.4
-15.800	81829.4
-15.795	81808.4
-15.790	81799.4
-15.785	81817.4
-15.780	81844.4
-15.775	81836.4
-15.770	81832.4
-15.765	81822.4
-15.760	81823.4
-15.755	81823.4
-15.750	81819.4
-15.745	81829.4
-15.740	81831.4
-15.735	81834.4
-15.730	81830.4
-15.725	81807.4
-15.720	81788.4
-15.715	81823.4
-15.710	81821.4
-15.705	81828.4
-15.700	81820.4
-15.695	81817.4
-15.690	81824.4
-15.685	81821.4
-15.680	81809.4
-15.675	81802.4
-15.670	81791.4
-15.665	81789.4
-15.660	81767.4
-15.655	81762.4
-15.650	81778.4
-15.645	81797.4
-15.640	81792.4
-15.635	81784.4
-15.630	81777.4
-15.625	81777.4
-15.620	81762.4
-15.615	81754.4
-15.610	81751.4
-15.605	81771.4
-15.600	81778.4
-15.595	81757.4
-15.590	81738.4
-15.585	81748.4
-15.580	81769.4
-15.575	81767.4
-15.570	81774.4
-15.565	81776.4
-15.560	81765.4
-15.555	81773.4
-15.550	81768.4
-15.545	81767.4
-15.540	81752.4
-15.535	81766.4
-15.530	81744.4
-15.525	81716.5
-15.520	81724.5
-15.515	81758.4
-15.510	81755.4
-15.505	81758.4
-15.500	81746.4
-15.495	81741.4
-15.490	81733.4
-15.485	81727.5
-15.480	81721.5
-15.475	81738.4
-15.470	81743.4
-15.465	81765.4
-15.460	81739.4
-15.455	81726.4
-15.450	81751.4
-15.445	81772.4
-15.440	81759.4
-15.435	81769.4
-15.430	81762.4
-15.425	81748.4
-15.420	81761.4
-15.415	81760.4
-15.410	81758.4
-15.405	81761.4
-15.400	81759.4
-15.395	81739.4
-15.390	81730.4
-15.385	81756.4
-15.380	81775.4
-15.375	81789.4
-15.370	81776.4
-15.365	81783.4
-15.360	81769.4
-15.355	81767.4
-15.350	81751.4
-15.345	81763.4
-15.340	81762.4
-15.335	81780.4
-15.330	81761.4
-15.325	81743.4
-15.320	81733.4
-15.315	81772.4
-15.310	81777.4
-15.305	81782.4
-15.300	81764.4
-15.295	81753.4
-15.290	81758.4
-15.285	81749.4
-15.280	81740.4
-15.275	81748.4
-15.270	81724.4
-15.265	81711.4
-15.260	81671.5
-15.255	81673.5
-15.250	81684.5
-15.245	81701.5
-15.240	81704.5
-15.235	81708.4
-15.230	81687.5
-15.225	81676.5
-15.220	81658.5
-15.215	81652.5
-15.210	81621.5
-15.205	81627.5
-15.200	81611.5
-15.195	81580.5
-15.190	81562.6
-15.185	81561.6
-15.180	81573.5
-15.175	81558.6
-15.170	81530.6
-15.165	81512.6
-15.160	81488.6
-15.155	81468.6
-15.150	81455.6
-15.145	81451.6
-15.140	81450.6
-15.135	81440.6
-15.130	81417.7
-15.125	81402.7
-15.120	81396.7
-15.115	81430.6
-15.110	81424.7
-15.105	81424.7
-15.100	81421.7
-15.095	81425.6
-15.090	81412.7
-15.085	81419.7
-15.080	81428.7
-15.075	81426.7
-15.070	81422.7
-15.065	81415.7
-15.060	81385.7
-15.055	81384.7
-15.050	81413.7
-15.045	81435.6
-15.040	81426.6
-15.035	81427.6
-15.030	81416.7
-15.025	81424.7
-15.020	81421.7
-15.015	81439.6
-15.010	81447.6
-15.005	81467.6
-15.000	81469.6
-14.995	81462.6
-14.990	81450.6
-14.985	81482.6
-14.980	81512.6
-14.975	81525.6
-14.970	81538.6
-14.965	81545.6
-14.960	81562.5
-14.955	81575.5
-14.950	81576.5
-14.945	81588.5
-14.940	81591.5
-14.935	81618.5
-14.930	81598.5
-14.925	81593.5
-14.920	81604.5
-14.915	81652.5
-14.910	81655.5
-14.905	81673.5
-14.900	81674.5
-14.895	81677.5
-14.890	81674.5
-14.885	81675.5
-14.880	81683.4
-14.875	81698.4
-14.870	81705.4
-14.865	81710.4
-14.860	81685.4
-14.855	81686.4
-14.850	81718.4
-14.845	81736.4
-14.840	81732.4
-14.835	81739.4
-14.830	81728.4
-14.825	81734.4
-14.820	81730.4
-14.815	81734.4
-14.810	81736.4
-14.805	81749.4
-14.800	81748.4
-14.795	81722.4
-14.790	81705.4
-14.785	81732.4
-14.780	81751.4
-14.775	81756.4
-14.770	81750.4
-14.765	81753.4
-14.760	81742.4
-14.755	81738.4
-14.750	81717.4
-14.745	81717.4
-14.740	81713.4
-14.735	81727.4
-14.730	81689.4
-14.725	81692.4
-14.720	81687.4
-14.715	81727.4
-14.710	81719.4
-14.705	81722.4
-14.700	81718.4
-14.695	81713.4
-14.690	81707.4
-14.685	81694.4
-14.680	81697.4
-14.675	81710.4
-14.670	81714.4
-14.665	81711.4
-14.660	81686.4
-14.655	81678.4
-14.650	81693.4
-14.645	81711.4
-14.640	81713.4
-14.635	81727.4
-14.630	81706.4
-14.625	81720.4
-14.620	81710.4
-14.615	81716.4
-14.610	81707.4
-14.605	81712.4
-14.600	81715.4
-14.595	81698.4
-14.590	81695.4
-14.585	81728.4
-14.580	81732.4
-14.575	81736.4
-14.570	81739.4
-14.565	81741.4
-14.560	81739.4
-14.555	81737.4
-14.550	81736.4
-14.545	81754.4
-14.540	81760.4
-14.535	81766.4
-14.530	81746.4
-14.525	81731.4
-14.520	81729.4
-14.515	81766.4
-14.510	81763.4
-14.505	81776.4
-14.500	81781.4
-14.495	81790.4
-14.490	81773.4
-14.485	81784.4
-14.480	81777.4
-14.475	81784.4
-14.470	81785.4
-14.465	81778.4
-14.460	81759.4
-14.455	81764.4
-14.450	81792.3
-14.445	81806.3
-14.440	81806.3
-14.435	81816.3
-14.430	81814.3
-14.425	81811.3
-14.420	81813.3
-14.415	81811.3
-14.410	81823.3
-14.405	81842.3
-14.400	81837.3
-14.395	81814.3
-14.390	81811.3
-14.385	81822.3
-14.380	81843.3
-14.375	81836.3
-14.370	81835.3
-14.365	81844.3
-14.360	81837.3
-14.355	81830.3
-14.350	81834.3
-14.345	81843.3
-14.340	81840.3
-14.335	81851.3
-14.330	81822.3
-14.325	81809.3
-14.320	81822.3
-14.315	81858.3
-14.310	81847.3
-14.305	81849.3
-14.300	81836.3
-14.295	81837.3
-14.290	81832.3
-14.285	81826.3
-14.280	81831.3
-14.275	81836.3
-14.270	81843.3
-14.265	81843.3
-14.260	81824.3
-14.255	81816.3
-14.250	81838.3
-14.245	81833.3
-14.240	81819.3
-14.235	81804.3
-14.230	81790.3
-14.225	81788.3
-14.220	81811.3
-14.215	81836.3
-14.210	81834.3
-14.205	81839.3
-14.200	81838.3
-14.195	81814.3
-14.190	81803.3
-14.185	81836.3
-14.180	81848.3
-14.175	81852.3
-14.170	81849.3
-14.165	81849.3
-14.160	81846.3
-14.155	81832.3
-14.150	81841.3
-14.145	81842.3
-14.140	81843.3
-14.135	81855.3
-14.130	81824.3
-14.125	81819.3
-14.120	81823.3
-14.115	81855.3
-14.110	81853.3
-14.105	81859.3
-14.100	81858.3
-14.095	81857.3
-14.090	81852.3
-14.085	81856.3
-14.080	81856.3
-14.075	81855.3
-14.070	81856.3
-14.065	81839.3
-14.060	81818.3
-14.055	81817.3
-14.050	81855.3
-14.045	81867.3
-14.040	81850.3
-14.035	81861.3
-14.030	81865.3
-14.025	81867.3
-14.020	81859.3
-14.015	81869.3
-14.010	81857.3
-14.005	81865.3
-14.000	81871.3
-13.995	81854.3
-13.990	81831.3
-13.985	81854.3
-13.980	81867.3
-13.975	81869.3
-13.970	81864.3
-13.965	81878.3
-13.960	81875.3
-13.955	81865.3
-13.950	81856.3
-13.945	81870.3
-13.940	81851.3
-13.935	81858.3
-13.930	81847.3
-13.925	81838.3
-13.920	81834.3
-13.915	81871.3
-13.910	81862.3
-13.905	81861.3
-13.900	81851.3
-13.895	81844.3
-13.890	81835.3
-13.885	81855.3
-13.880	81844.3
-13.875	81858.3
-13.870	81865.3
-13.865	81854.3
-13.860	81832.3
-13.855	81836.3
-13.850	81873.3
-13.845	81879.2
-13.840	81871.3
-13.835	81884.2
-13.830	81879.3
-13.825	81881.3
-13.820	81873.3
-13.815	81879.2
-13.810	81870.3
-13.805	81880.2
-13.800	81869.3
-13.795	81848.3
-13.790	81854.3
-13.785	81883.2
-13.780	81897.2
-13.775	81886.2
-13.770	81882.2
-13.765	81892.2
-13.760	81883.2
-13.755	81895.2
-13.750	81887.2
-13.745	81893.2
-13.740	81893.2
-13.735	81911.2
-13.730	81889.2
-13.725	81884.2
-13.720	81885.2
-13.715	81913.2
-13.710	81905.2
-13.705	81913.2
-13.700	81919.2
-13.695	81913.2
-13.690	81916.2
-13.685	81929.2
-13.680	81919.2
-13.675	81924.2
-13.670	81916.2
-13.665	81901.2
-13.660	81882.2
-13.655	81891.2
-13.650	81918.2
-13.645	81931.2
-13.640	81911.2
-13.635	81910.2
-13.630	81906.2
-13.625	81897.2
-13.620	81889.2
-13.615	81903.2
-13.610	81887.2
-13.605	81906.2
-13.600	81894.2
-13.595	81874.2
-13.590	81854.3
-13.585	81886.2
-13.580	81889.2
-13.575	81895.2
-13.570	81873.2
-13.565	81883.2
-13.560	81874.2
-13.555	81880.2
-13.550	81864.2
-13.545	81869.2
-13.540	81852.3
-13.535	81847.3
-13.530	81812.3
-13.525	81803.3
-13.520	81820.3
-13.515	81843.3
-13.510	81828.3
-13.505	81827.3
-13.500	81818.3
-13.495	81803.3
-13.490	81798.3
-13.485	81791.3
-13.480	81777.3
-13.475	81793.3
-13.470	81783.3
-13.465	81772.3
-13.460	81736.3
-13.455	81738.3
-13.450	81749.3
-13.445	81752.3
-13.440	81731.3
-13.435	81739.3
-13.430	81730.3
-13.425	81723.3
-13.420	81718.4
-13.415	81721.4
-13.410	81711.4
-13.405	81719.3
-13.400	81707.4
-13.395	81689.4
-13.390	81672.4
-13.385	81719.3
-13.380	81719.3
-13.375	81725.3
-13.370	81725.3
-13.365	81721.3
-13.360	81707.4
-13.355	81706.4
-13.350	81718.4
-13.345	81720.3
-13.340	81711.4
-13.335	81727.3
-13.330	81722.3
-13.325	81705.4
-13.320	81716.4
-13.315	81748.3
-13.310	81749.3
-13.305	81754.3
-13.300	81751.3
-13.295	81756.3
-13.290	81743.3
-13.285	81759.3
-13.280	81767.3
-13.275	81765.3
-13.270	81759.3
-13.265	81737.3
-13.260	81729.3
-13.255	81731.3
-13.250	81764.3
-13.245	81780.3
-13.240	81772.3
-13.235	81760.3
-13.230	81775.3
-13.225	81772.3
-13.220	81773.3
-13.215	81760.3
-13.210	81773.3
-13.205	81788.3
-13.200	81786.3
-13.195	81766.3
-13.190	81777.3
-13.185	81798.3
-13.180	81809.3
-13.175	81816.3
-13.170	81806.3
-13.165	81801.3
-13.160	81804.3
-13.155	81808.3
-13.150	81813.3
-13.145	81813.3
-13.140	81809.3
-13.135	81809.3
-13.130	81782.3
-13.125	81782.3
-13.120	81800.3
-13.115	81820.3
-13.110	81816.3
-13.105	81810.3
-13.100	81806.3
-13.095	81807.3
-13.090	81804.3
-13.085	81796.3
-13.080	81795.3
-13.075	81798.3
-13.070	81805.3
-13.065	81795.3
-13.060	81776.3
-13.055	81786.3
-13.050	81813.3
-13.045	81809.3
-13.040	81806.3
-13.035	81803.3
-13.030	81793.3
-13.025	81791.3
-13.020	81795.3
-13.015	81807.3
-13.010	81794.3
-13.005	81797.3
-13.000	81777.3
-12.995	81759.3
-12.990	81754.3
-12.985	81780.3
-12.980	81780.3
-12.975	81785.3
-12.970	81782.3
-12.965	81791.3
-12.960	81777.3
-12.955	81783.3
-12.950	81784.3
-12.945	81781.3
-12.940	81769.3
-12.935	81792.3
-12.930	81759.3
-12.925	81756.3
-12.920	81788.3
-12.915	81791.3
-12.910	81792.3
-12.905	81789.3
-12.900	81779.3
-12.895	81776.3
-12.890	81774.3
-12.885	81784.3
-12.880	81783.3
-12.875	81790.3
-12.870	81799.3
-12.865	81772.3
-12.860	81750.3
-12.855	81788.3
-12.850	81809.3
-12.845	81809.3
-12.840	81799.3
-12.835	81800.3
-12.830	81802.3
-12.825	81811.3
-12.820	81800.3
-12.815	81804.3
-12.810	81810.3
-12.805	81819.3
-12.800	81816.3
-12.795	81791.3
-12.790	81796.3
-12.785	81839.2
-12.780	81843.2
-12.775	81832.2
-12.770	81830.2
-12.765	81836.2
-12.760	81841.2
-12.755	81831.2
-12.750	81825.2
-12.745	81838.2
-12.740	81831.2
-12.735	81833.2
-12.730	81801.3
-12.725	81801.3
-12.720	81812.3
-12.715	81833.2
-12.710	81829.2
-12.705	81828.2
-12.700	81831.2
-12.695	81839.2
-12.690	81835.2
-12.685	81844.2
-12.680	81842.2
-12.675	81847.2
-12.670	81846.2
-12.665	81845.2
-12.660	81818.2
-12.655	81847.2
-12.650	81871.2
-12.645	81879.2
-12.640	81875.2
-12.635	81872.2
-12.630	81872.2
-12.625	81865.2
-12.620	81853.2
-12.615	81858.2
-12.610	81853.2
-12.605	81848.2
-12.600	81844.2
-12.595	81837.2
-12.590	81835.2
-12.585	81872.2
-12.580	81864.2
-12.575	81872.2
-12.570	81853.2
-12.565	81861.2
-12.560	81856.2
-12.555	81866.2
-12.550	81856.2
-12.545	81870.2
-12.540	81870.2
-12.535	81870.2
-12.530	81848.2
-12.525	81841.2
-12.520	81862.2
-12.515	81879.2
-12.510	81873.2
-12.505	81883.2
-12.500	81875.2
-12.495	81878.2
-12.490	81866.2
-12.485	81858.2
-12.480	81856.2
-12.475	81863.2
-12.470	81864.2
-12.465	81855.2
-12.460	81835.2
-12.455	81853.2
-12.450	81878.2
-12.445	81874.2
-12.440	81873.2
-12.435	81871.2
-12.430	81870.2
-12.425	81883.2
-12.420	81879.2
-12.415	81878.2
-12.410	81888.2
-12.405	81891.2
-12.400	81868.2
-12.395	81857.2
-12.390	81852.2
-12.385	81891.2
-12.380	81888.2
-12.375	81902.2
-12.370	81901.2
-12.365	81897.2
-12.360	81883.2
-12.355	81886.2
-12.350	81885.2
-12.345	81879.2
-12.340	81889.2
-12.335	81896.2
-12.330	81865.2
-12.325	81866.2
-12.320	81889.2
-12.315	81907.2
-12.310	81895.2
-12.305	81905.2
-12.300	81892.2
-12.295	81900.2
-12.290	81900.2
-12.285	81905.2
-12.280	81886.2
-12.275	81912.2
-12.270	81915.2
-12.265	81907.2
-12.260	81882.2
-12.255	81887.2
-12.250	81920.2
-12.245	81922.1
-12.240	81930.1
-12.235	81932.1
-12.230	81925.2
-12.225	81929.1
-12.220	81919.2
-12.215	81926.1
-12.210	81914.2
-12.205	81928.1
-12.200	81911.2
-12.195	81902.2
-12.190	81903.2
-12.185	81945.1
-12.180	81938.1
-12.175	81940.1
-12.170	81933.1
-12.165	81938.1
-12.160	81938.1
-12.155	81932.1
-12.150	81942.1
-12.145	81946.1
-12.140	81951.1
-12.135	81959.1
-12.130	81937.1
-12.125	81932.1
-12.120	81944.1
-12.115	81956.1
-12.110	81966.1
-12.105	81974.1
-12.100	81974.1
-12.095	81981.1
-12.090	81972.1
-12.085	81969.1
-12.080	81977.1
-12.075	81978.1
-12.070	81975.1
-12.065	81955.1
-12.060	81939.1
-12.055	81962.1
-12.050	81998.1
-12.045	81994.1
-12.040	81994.1
-12.035	81982.1
-12.030	81978.1
-12.025	81985.1
-12.020	81982.1
-12.015	81985.1
-12.010	81993.1
-12.005	82015.1
-12.000	82000.1
-11.995	81971.1
-11.990	81971.1
-11.985	82013.1
-11.980	82005.1
-11.975	82010.1
-11.970	82005.1
-11.965	82008.1
-11.960	81998.1
-11.955	82000.1
-11.950	81997.1
-11.945	82009.1
-11.940	82007.1
-11.935	81998.1
-11.930	81968.1
-11.925	81977.1
-11.920	82004.1
-11.915	82012.1
-11.910	82018.1
-11.905	82015.1
-11.900	82021.1
-11.895	82008.1
-11.890	82015.1
-11.885	82009.1
-11.880	82006.1
-11.875	82025.1
-11.870	82026.1
-11.865	82016.1
-11.860	81987.1
-11.855	82006.1
-11.850	82022.1
-11.845	82029.1
-11.840	82017.1
-11.835	82032.1
-11.830	82022.1
-11.825	82029.1
-11.820	82019.1
-11.815	82020.1
-11.810	82023.1
-11.805	82015.1
-11.800	81994.1
-11.795	81979.1
-11.790	81988.1
-11.785	82011.1
-11.780	82016.1
-11.775	82016.1
-11.770	82004.1
-11.765	82001.1
-11.760	81992.1
-11.755	81998.1
-11.750	81994.1
-11.745	81999.1
-11.740	81997.1
-11.735	82005.1
-11.730	81978.1
-11.725	81962.1
-11.720	81994.1
-11.715	82002.1
-11.710	81987.1
-11.705	81993.1
-11.700	81982.1
-11.695	81985.1
-11.690	81983.1
-11.685	81979.1
-11.680	81979.1
-11.675	81976.1
-11.670	81979.1
-11.665	81961.1
-11.660	81944.1
-11.655	81960.1
-11.650	81976.1
-11.645	81974.1
-11.640	81966.1
-11.635	81972.1
-11.630	81960.1
-11.625	81964.1
-11.620	81963.1
-11.615	81957.1
-11.610	81961.1
-11.605	81984.1
-11.600	81959.1
-11.595	81945.1
-11.590	81946.1
-11.585	81973.1
-11.580	81972.1
-11.575	81977.1
-11.570	81971.1
-11.565	81971.1
-11.560	81964.1
-11.555	81960.1
-11.550	81939.1
-11.545	81964.1
-11.540	81944.1
-11.535	81938.1
-11.530	81928.1
-11.525	81913.1
-11.520	81941.1
-11.515	81941.1
-11.510	81944.1
-11.505	81929.1
-11.500	81941.1
-11.495	81943.1
-11.490	81932.1
-11.485	81934.1
-11.480	81934.1
-11.475	81941.1
-11.470	81950.1
-11.465	81932.1
-11.460	81914.1
-11.455	81923.1
-11.450	81946.1
-11.445	81955.1
-11.440	81939.1
-11.435	81947.1
-11.430	81939.1
-11.425	81945.1
-11.420	81943.1
-11.415	81947.1
-11.410	81940.1
-11.405	81942.1
-11.400	81915.1
-11.395	81906.1
-11.390	81920.1
-11.385	81953.1
-11.380	81953.1
-11.375	81951.1
-11.370	81954.1
-11.365	81957.1
-11.360	81950.1
-11.355	81953.1
-11.350	81939.1
-11.345	81941.1
-11.340	81951.1
-11.335	81939.1
-11.330	81914.1
-11.325	81913.1
-11.320	81952.1
-11.315	81951.1
-11.310	81958.1
-11.305	81960.1
-11.300	81950.1
-11.295	81949.1
-11.290	81945.1
-11.285	81950.1
-11.280	81948.1
-11.275	81947.1
-11.270	81940.1
-11.265	81922.1
-11.260	81899.1
-11.255	81920.1
-11.250	81941.1
-11.245	81942.1
-11.240	81937.1
-11.235	81950.1
-11.230	81936.1
-11.225	81933.1
-11.220	81936.1
-11.215	81939.1
-11.210	81936.1
-11.205	81948.1
-11.200	81937.1
-11.195	81911.1
-11.190	81920.1
-11.185	81960.1
-11.180	81950.1
-11.175	81958.1
-11.170	81946.1
-11.165	81953.1
-11.160	81941.1
-11.155	81939.1
-11.150	81934.1
-11.145	81945.1
-11.140	81944.1
-11.135	81930.1
-11.130	81900.1
-11.125	81916.1
-11.120	81943.1
-11.115	81945.1
-11.110	81936.1
-11.105	81944.1
-11.100	81937.1
-11.095	81945.1
-11.090	81930.1
-11.085	81935.1
-11.080	81932.1
-11.075	81942.1
-11.070	81944.1
-11.065	81926.1
-11.060	81908.1
-11.055	81938.1
-11.050	81953.1
-11.045	81951.1
-11.040	81940.1
-11.035	81944.1
-11.030	81947.1
-11.025	81944.1
-11.020	81939.1
-11.015	81947.1
-11.010	81946.1
-11.005	81954.1
-11.000	81926.1
-10.995	81919.1
-10.990	81928.1
-10.985	81950.1
-10.980	81949.1
-10.975	81952.1
-10.970	81936.1
-10.965	81944.1
-10.960	81937.1
-10.955	81957.1
-10.950	81951.1
-10.945	81959.1
-10.940	81967.1
-10.935	81964.1
-10.930	81938.1
-10.925	81942.1
-10.920	81981.1
-10.915	81984.1
-10.910	81985.1
-10.905	81988.1
-10.900	81982.1
-10.895	81984.1
-10.890	81992.1
-10.885	81987.1
-10.880	81985.1
-10.875	81996.0
-10.870	81984.1
-10.865	81964.1
-10.860	81947.1
-10.855	81984.1
-10.850	81991.0
-10.845	81992.0
-10.840	81990.1
-10.835	82000.0
-10.830	81991.1
-10.825	81991.0
-10.820	81999.0
-10.815	82003.0
-10.810	82002.0
-10.805	82012.0
-10.800	81994.0
-10.795	81977.1
-10.790	81987.1
-10.785	82023.0
-10.780	82016.0
-10.775	82031.0
-10.770	82015.0
-10.765	82025.0
-10.760	82018.0
-10.755	82016.0
-10.750	82005.0
-10.745	82013.0
-10.740	82016.0
-10.735	81996.0
-10.730	81982.1
-10.725	81988.0
-10.720	82022.0
-10.715	82017.0
-10.710	82022.0
-10.705	82027.0
-10.700	82012.0
-10.695	82010.0
-10.690	82000.0
-10.685	82006.0
-10.680	82001.0
-10.675	82026.0
-10.670	82004.0
-10.665	81987.0
-10.660	81969.1
-10.655	81999.0
-10.650	82006.0
-10.645	82014.0
-10.640	82019.0
-10.635	82016.0
-10.630	82008.0
-10.625	81996.0
-10.620	81998.0
-10.615	81993.0
-10.610	81993.0
-10.605	81997.0
-10.600	81969.1
-10.595	81956.1
-10.590	81962.1
-10.585	81994.0
-10.580	81978.0
-10.575	81967.1
-10.570	81959.1
-10.565	81962.1
-10.560	81942.1
-10.555	81950.1
-10.550	81949.1
-10.545	81966.1
-10.540	81975.1
-10.535	81965.1
-10.530	81936.1
-10.525	81920.1
-10.520	81960.1
-10.515	81959.1
-10.510	81956.1
-10.505	81965.1
-10.500	81943.1
-10.495	81947.1
-10.490	81949.1
-10.485	81960.1
-10.480	81959.1
-10.475	81957.1
-10.470	81952.1
-10.465	81928.1
-10.460	81922.1
-10.455	81960.1
-10.450	81964.1
-10.445	81962.1
-10.440	81958.1
-10.435	81958.1
-10.430	81948.1
-10.425	81950.1
-10.420	81955.1
-10.415	81968.1
-10.410	81980.0
-10.405	81981.0
-10.400	81961.1
-10.395	81940.1
-10.390	81948.1
-10.385	81980.0
-10.380	81975.0
-10.375	81974.0
-10.370	81969.0
-10.365	81969.1
-10.360	81958.1
-10.355	81963.1
-10.350	81955.1
-10.345	81962.1
-10.340	81967.1
-10.335	81945.1
-10.330	81923.1
-10.325	81931.1
-10.320	81975.0
-10.315	81977.0
-10.310	81985.0
-10.305	81980.0
-10.300	81973.0
-10.295	81975.0
-10.290	81974.0
-10.285	81980.0
-10.280	81982.0
-10.275	81994.0
-10.270	81983.0
-10.265	81961.1
-10.260	81947.1
-10.255	81976.0
-10.250	81986.0
-10.245	82000.0
-10.240	81996.0
-10.235	81996.0
-10.230	81988.0
-10.225	81981.0
-10.220	81976.0
-10.215	81986.0
-10.210	81980.0
-10.205	81979.0
-10.200	81952.1
-10.195	81938.1
-10.190	81957.0
-10.185	81991.0
-10.180	81991.0
-10.175	81997.0
-10.170	81990.0
-10.165	81979.0
-10.160	81972.0
-10.155	81967.0
-10.150	81981.0
-10.145	81995.0
-10.140	82002.0
-10.135	81987.0
-10.130	81962.0
-10.125	81970.0
-10.120	81986.0
-10.115	81993.0
-10.110	81993.0
-10.105	82003.0
-10.100	81999.0
-10.095	81997.0
-10.090	81991.0
-10.085	81987.0
-10.080	81988.0
-10.075	81994.0
-10.070	81973.0
-10.065	81955.1
-10.060	81961.0
-10.055	81990.0
-10.050	82001.0
-10.045	82003.0
-10.040	82003.0
-10.035	82002.0
-10.030	82001.0
-10.025	81984.0
-10.020	81983.0
-10.015	81990.0
-10.010	81995.0
-10.005	81995.0
-10.000	81975.0
-9.995	81960.0
-9.990	81965.0
-9.985	81991.0
-9.980	81983.0
-9.975	81987.0
-9.970	81990.0
-9.965	81992.0
-9.960	81987.0
-9.955	81989.0
-9.950	81985.0
-9.945	81991.0
-9.940	81989.0
-9.935	81970.0
-9.930	81942.1
-9.925	81950.1
-9.920	81977.0
-9.915	81981.0
-9.910	81982.0
-9.905	81980.0
-9.900	81975.0
-9.895	81969.0
-9.890	81966.0
-9.885	81966.0
-9.880	81968.0
-9.875	81973.0
-9.870	81975.0
-9.865	81943.1
-9.860	81937.1
-9.855	81974.0
-9.850	81969.0
-9.845	81982.0
-9.840	81971.0
-9.835	81971.0
-9.830	81967.0
-9.825	81971.0
-9.820	81967.0
-9.815	81971.0
-9.810	81962.0
-9.805	81965.0
-9.800	81935.1
-9.795	81932.1
-9.790	81955.0
-9.785	81976.0
-9.780	81966.0
-9.775	81971.0
-9.770	81970.0
-9.765	81968.0
-9.760	81963.0
-9.755	81960.0
-9.750	81958.0
-9.745	81963.0
-9.740	81972.0
-9.735	81957.0
-9.730	81943.1
-9.725	81948.1
-9.720	81963.0
-9.715	81969.0
-9.710	81968.0
-9.705	81973.0
-9.700	81975.0
-9.695	81968.0
-9.690	81961.0
-9.685	81963.0
-9.680	81964.0
-9.675	81977.0
-9.670	81953.0
-9.665	81935.1
-9.660	81926.1
-9.655	81965.0
-9.650	81961.0
-9.645	81965.0
-9.640	81958.0
-9.635	81953.0
-9.630	81957.0
-9.625	81962.0
-9.620	81963.0
-9.615	81956.0
-9.610	81957.0
-9.605	81962.0
-9.600	81943.0
-9.595	81938.0
-9.590	81956.0
-9.585	81977.0
-9.580	81972.0
-9.575	81966.0
-9.570	81946.0
-9.565	81921.0
-9.560	81880.0
-9.555	81850.0
-9.550	81795.9
-9.545	81706.9
-9.540	81624.8
-9.535	81483.7
-9.530	81380.5
-9.525	81272.3
-9.520	81167.0
-9.515	81023.8
-9.510	80833.5
-9.505	80615.3
-9.500	80402.0
-9.495	80256.6
-9.490	80171.2
-9.485	80044.9
-9.480	79795.6
-9.475	79527.5
-9.470	79344.3
-9.465	79373.2
-9.460	79569.1
-9.455	79870.2
-9.450	80113.4
-9.445	80322.7
-9.440	80416.1
-9.435	80335.5
-9.430	80084.1
-9.425	79791.6
-9.420	79556.0
-9.415	79000.7
-9.410	78440.3
-9.405	78467.4
-9.400	78382.6
-9.395	77929.1
-9.390	77792.4
-9.385	78387.9
-9.380	79449.9
-9.375	80495.9
-9.370	81154.3
-9.365	81437.0
-9.360	81544.0
-9.355	81587.0
-9.350	81578.0
-9.345	81610.0
-9.340	81516.2
-9.335	81485.2
-9.330	81531.2
-9.325	81478.3
-9.320	81390.5
-9.315	81377.5
-9.310	81449.5
-9.305	81541.4
-9.300	81591.4
-9.295	81617.4
-9.290	81627.4
-9.285	81652.4
-9.280	81675.4
-9.275	81702.4
-9.270	81696.4
-9.265	81685.5
-9.260	81676.5
-9.255	81723.5
-9.250	81714.5
-9.245	81717.5
-9.240	81710.5
-9.235	81714.6
-9.230	81715.6
-9.225	81722.6
-9.220	81713.6
-9.215	81655.7
-9.210	81600.7
-9.205	81477.8
-9.200	81409.9
-9.195	81465.9
-9.190	81602.8
-9.185	81692.7
-9.180	81732.7
-9.175	81746.7
-9.170	81749.7
-9.165	81751.7
-9.160	81739.8
-9.155	81752.8
-9.150	81739.8
-9.145	81755.8
-9.140	81762.8
-9.135	81739.8
-9.130	81722.8
-9.125	81741.8
-9.120	81759.8
-9.115	81740.9
-9.110	81735.9
-9.105	81731.9
-9.100	81723.9
-9.095	81725.9
-9.090	81728.9
-9.085	81736.9
-9.080	81734.9
-9.075	81730.9
-9.070	81713.0
-9.065	81684.0
-9.060	81660.0
-9.055	81696.0
-9.050	81697.0
-9.045	81597.1
-9.040	81347.3
-9.035	81387.3
-9.030	81612.1
-9.025	81695.1
-9.020	81698.1
-9.015	81688.1
-9.010	81693.1
-9.005	81693.1
-9.000	81688.1
-8.995	81686.1
-8.990	81715.1
-8.985	81725.1
-8.980	81710.1
-8.975	81720.1
-8.970	81711.1
-8.965	81728.1
-8.960	81736.1
-8.955	81739.1
-8.950	81732.1
-8.945	81757.1
-8.940	81766.1
-8.935	81763.1
-8.930	81771.1
-8.925	81804.1
-8.920	81819.1
-8.915	81810.1
-8.910	81826.1
-8.905	81825.1
-8.900	81833.1
-8.895	81835.1
-8.890	81831.1
-8.885	81822.1
-8.880	81811.1
-8.875	81799.1
-8.870	81761.2
-8.865	81698.2
-8.860	81736.2
-8.855	81822.1
-8.850	81834.1
-8.845	81828.1
-8.840	81826.1
-8.835	81834.1
-8.830	81831.2
-8.825	81831.2
-8.820	81843.1
-8.815	81852.1
-8.810	81854.1
-8.805	81866.1
-8.800	81845.2
-8.795	81841.2
-8.790	81841.2
-8.785	81852.2
-8.780	81876.2
-8.775	81884.2
-8.770	81875.2
-8.765	81878.2
-8.760	81867.2
-8.755	81854.2
-8.750	81855.2
-8.745	81848.2
-8.740	81836.2
-8.735	81817.2
-8.730	81814.2
-8.725	81844.2
-8.720	81881.2
-8.715	81886.2
-8.710	81872.2
-8.705	81855.2
-8.700	81836.2
-8.695	81847.2
-8.690	81843.3
-8.685	81846.3
-8.680	81848.3
-8.675	81846.3
-8.670	81820.3
-8.665	81792.3
-8.660	81788.3
-8.655	81812.3
-8.650	81802.3
-8.645	81814.3
-8.640	81815.3
-8.635	81813.3
-8.630	81801.3
-8.625	81774.3
-8.620	81704.4
-8.615	81671.4
-8.610	81709.4
-8.605	81777.4
-8.600	81840.3
-8.595	81895.3
-8.590	81936.2
-8.585	81951.2
-8.580	81949.2
-8.575	81952.2
-8.570	81944.3
-8.565	81941.3
-8.560	81930.3
-8.555	81943.3
-8.550	81945.3
-8.545	81967.2
-8.540	81980.2
-8.535	81959.2
-8.530	81933.3
-8.525	81940.3
-8.520	81962.3
-8.515	81952.3
-8.510	81950.3
-8.505	81957.3
-8.500	81972.3
-8.495	82006.2
-8.490	82016.2
-8.485	82030.2
-8.480	82026.2
-8.475	82030.2
-8.470	81993.3
-8.465	81986.3
-8.460	81999.3
-8.455	82030.2
-8.450	82032.2
-8.445	82028.2
-8.440	82023.2
-8.435	82015.3
-8.430	82004.3
-8.425	82012.3
-8.420	82019.3
-8.415	82040.2
-8.410	82035.2
-8.405	82038.2
-8.400	82010.3
-8.395	82016.3
-8.390	82036.3
-8.385	82037.3
-8.380	82038.3
-8.375	82039.3
-8.370	82030.3
-8.365	82031.3
-8.360	82027.3
-8.355	82032.3
-8.350	82032.3
-8.345	82034.3
-8.340	82030.3
-8.335	81992.3
-8.330	81978.3
-8.325	82006.3
-8.320	82020.3
-8.315	82027.3
-8.310	82011.3
-8.305	82014.3
-8.300	82007.3
-8.295	82003.3
-8.290	81982.3
-8.285	81996.3
-8.280	81994.3
-8.275	82004.3
-8.270	81992.3
-8.265	81977.3
-8.260	81991.3
-8.255	82026.3
-8.250	82020.3
-8.245	82012.3
-8.240	82003.3
-8.235	82000.3
-8.230	81986.3
-8.225	81994.3
-8.220	81991.3
-8.215	81995.4
-8.210	81990.4
-8.205	81981.4
-8.200	81955.4
-8.195	81938.4
-8.190	81970.4
-8.185	81986.4
-8.180	81975.4
-8.175	81971.4
-8.170	81969.4
-8.165	81961.4
-8.160	81958.4
-8.155	81956.4
-8.150	81941.4
-8.145	81953.4
-8.140	81967.4
-8.135	81940.4
-8.130	81928.4
-8.125	81963.4
-8.120	81981.4
-8.115	81983.4
-8.110	81968.4
-8.105	81965.4
-8.100	81961.4
-8.095	81961.4
-8.090	81958.4
-8.085	81947.4
-8.080	81951.4
-8.075	81952.4
-8.070	81918.4
-8.065	81915.4
-8.060	81932.4
-8.055	81957.4
-8.050	81953.4
-8.045	81961.4
-8.040	81964.4
-8.035	81969.4
-8.030	81971.4
-8.025	81961.4
-8.020	81949.4
-8.015	81948.4
-8.010	81968.4
-8.005	81956.4
-8.000	81938.5
-7.995	81956.4
-7.990	81991.4
-7.985	81996.4
-7.980	81996.4
-7.975	82006.4
-7.970	82000.4
-7.965	82001.4
-7.960	81993.4
-7.955	82009.4
-7.950	82004.4
-7.945	82020.4
-7.940	82021.4
-7.935	82003.4
-7.930	81987.4
-7.925	82028.4
-7.920	82022.4
-7.915	82024.4
-7.910	82023.4
-7.905	82023.4
-7.900	82023.4
-7.895	82030.4
-7.890	82023.4
-7.885	82029.4
-7.880	82023.4
-7.875	82036.4
-7.870	81999.4
-7.865	81987.4
-7.860	82004.4
-7.855	82033.4
-7.850	82029.4
-7.845	82031.4
-7.840	82033.4
-7.835	82023.4
-7.830	82033.4
-7.825	82027.4
-7.820	82031.4
-7.815	82027.4
-7.810	82030.4
-7.805	82015.4
-7.800	81991.4
-7.795	82003.4
-7.790	82029.4
-7.785	82033.4
-7.780	82020.4
-7.775	82034.4
-7.770	82023.4
-7.765	82031.4
-7.760	82023.4
-7.755	82028.4
-7.750	82029.4
-7.745	82035.4
-7.740	82030.4
-7.735	82015.4
-7.730	81987.5
-7.725	82024.4
-7.720	82035.4
-7.715	82042.4
-7.710	82032.4
-7.705	82028.4
-7.700	82036.4
-7.695	82034.4
-7.690	82022.4
-7.685	82032.4
-7.680	82030.4
-7.675	82034.4
-7.670	82012.5
-7.665	82010.5
-7.660	82014.5
-7.655	82046.4
-7.650	82036.4
-7.645	82037.4
-7.640	82014.5
-7.635	82018.5
-7.630	82013.5
-7.625	81995.5
-7.620	81982.5
-7.615	81963.5
-7.610	81945.5
-7.605	81904.5
-7.600	81865.6
-7.595	81867.6
-7.590	81888.6
-7.585	81852.6
-7.580	81791.6
-7.575	81767.7
-7.570	81772.7
-7.565	81797.6
-7.560	81814.6
-7.555	81873.6
-7.550	81914.5
-7.545	81931.5
-7.540	81965.5
-7.535	81976.5
-7.530	81968.5
-7.525	82012.5
-7.520	82019.5
-7.515	82001.5
-7.510	81998.5
-7.505	82001.5
-7.500	81982.5
-7.495	81974.5
-7.490	81951.5
-7.485	81952.5
-7.480	81931.6
-7.475	81922.6
-7.470	81880.6
-7.465	81866.6
-7.460	81871.6
-7.455	81894.6
-7.450	81904.6
-7.445	81902.6
-7.440	81902.6
-7.435	81923.6
-7.430	81936.5
-7.425	81957.5
-7.420	81971.5
-7.415	81990.5
-7.410	82002.5
-7.405	82001.5
-7.400	81991.5
-7.395	82004.5
-7.390	82046.5
-7.385	82047.5
-7.380	82043.5
-7.375	82049.5
-7.370	82044.5
-7.365	82045.5
-7.360	82049.5
-7.355	82057.5
-7.350	82062.5
-7.345	82080.5
-7.340	82083.4
-7.335	82055.5
-7.330	82037.5
-7.325	82076.5
-7.320	82093.4
-7.315	82096.4
-7.310	82092.4
-7.305	82108.4
-7.300	82099.4
-7.295	82101.4
-7.290	82100.4
-7.285	82111.4
-7.280	82107.4
-7.275	82107.4
-7.270	82084.5
-7.265	82070.5
-7.260	82086.5
-7.255	82104.4
-7.250	82111.4
-7.245	82111.4
-7.240	82109.4
-7.235	82103.4
-7.230	82090.5
-7.225	82105.5
-7.220	82102.5
-7.215	82115.4
-7.210	82117.4
-7.205	82114.4
-7.200	82092.5
-7.195	82096.5
-7.190	82123.4
-7.185	82131.4
-7.180	82141.4
-7.175	82138.4
-7.170	82133.4
-7.165	82136.4
-7.160	82142.4
-7.155	82136.4
-7.150	82130.4
-7.145	82131.4
-7.140	82134.4
-7.135	82103.5
-7.130	82104.5
-7.125	82139.4
-7.120	82141.4
-7.115	82142.4
-7.110	82144.4
-7.105	82141.4
-7.100	82141.4
-7.095	82145.4
-7.090	82141.4
-7.085	82145.4
-7.080	82148.4
-7.075	82148.4
-7.070	82124.4
-7.065	82114.5
-7.060	82125.5
-7.055	82153.4
-7.050	82144.4
-7.045	82139.4
-7.040	82141.4
-7.035	82133.4
-7.030	82140.4
-7.025	82143.4
-7.020	82140.4
-7.015	82134.4
-7.010	82142.4
-7.005	82120.5
-7.000	82105.5
-6.995	82108.5
-6.990	82137.4
-6.985	82144.4
-6.980	82126.5
-6.975	82124.5
-6.970	82130.5
-6.965	82133.5
-6.960	82119.5
-6.955	82119.5
-6.950	82117.5
-6.945	82121.5
-6.940	82105.5
-6.935	82090.5
-6.930	82085.5
-6.925	82114.5
-6.920	82118.5
-6.915	82120.5
-6.910	82117.5
-6.905	82123.5
-6.900	82114.5
-6.895	82118.5
-6.890	82108.5
-6.885	82104.5
-6.880	82104.5
-6.875	82120.5
-6.870	82096.5
-6.865	82069.5
-6.860	82091.5
-6.855	82119.5
-6.850	82106.5
-6.845	82095.5
-6.840	82099.5
-6.835	82098.5
-6.830	82091.5
-6.825	82098.5
-6.820	82092.5
-6.815	82096.5
-6.810	82094.5
-6.805	82077.5
-6.800	82058.5
-6.795	82070.5
-6.790	82093.5
-6.785	82097.5
-6.780	82091.5
-6.775	82088.5
-6.770	82077.5
-6.765	82090.5
-6.760	82069.5
-6.755	82067.5
-6.750	82063.5
-6.745	82069.5
-6.740	82050.5
-6.735	82038.5
-6.730	82046.5
-6.725	82068.5
-6.720	82074.5
-6.715	82061.5
-6.710	82046.5
-6.705	82054.5
-6.700	82041.5
-6.695	82044.5
-6.690	82048.5
-6.685	82057.5
-6.680	82052.5
-6.675	82063.5
-6.670	82036.5
-6.665	82029.6
-6.660	82046.5
-6.655	82058.5
-6.650	82057.5
-6.645	82056.5
-6.640	82050.5
-6.635	82049.5
-6.630	82047.5
-6.625	82049.5
-6.620	82047.5
-6.615	82048.5
-6.610	82044.5
-6.605	82016.6
-6.600	81996.6
-6.595	82018.6
-6.590	82041.5
-6.585	82042.5
-6.580	82032.6
-6.575	82033.6
-6.570	82031.6
-6.565	82029.6
-6.560	82029.6
-6.555	82037.6
-6.550	82033.6
-6.545	82042.5
-6.540	82032.6
-6.535	82013.6
-6.530	82014.6
-6.525	82045.5
-6.520	82045.5
-6.515	82055.5
-6.510	82047.5
-6.505	82048.5
-6.500	82057.5
-6.495	82058.5
-6.490	82040.6
-6.485	82047.5
-6.480	82049.5
-6.475	82051.5
-6.470	82010.6
-6.465	82001.6
-6.460	82032.6
-6.455	82044.5
-6.450	82037.6
-6.445	82041.6
-6.440	82034.6
-6.435	82033.6
-6.430	82026.6
-6.425	82039.6
-6.420	82032.6
-6.415	82039.6
-6.410	82041.6
-6.405	82017.6
-6.400	82007.6
-6.395	82013.6
-6.390	82042.6
-6.385	82053.5
-6.380	82044.6
-6.375	82041.6
-6.370	82047.6
-6.365	82048.6
-6.360	82050.6
-6.355	82051.6
-6.350	82048.6
-6.345	82041.6
-6.340	82028.6
-6.335	82018.6
-6.330	81998.6
-6.325	82050.6
-6.320	82043.6
-6.315	82035.6
-6.310	82030.6
-6.305	82036.6
-6.300	82029.6
-6.295	82028.6
-6.290	82037.6
-6.285	82023.6
-6.280	82032.6
-6.275	82027.6
-6.270	82007.6
-6.265	81989.6
-6.260	82030.6
-6.255	82047.6
-6.250	82047.6
-6.245	82040.6
-6.240	82036.6
-6.235	82039.6
-6.230	82028.6
-6.225	82029.6
-6.220	82030.6
-6.215	82041.6
-6.210	82035.6
-6.205	82017.6
-6.200	81988.6
-6.195	82012.6
-6.190	82034.6
-6.185	82033.6
-6.180	82026.6
-6.175	82026.6
-6.170	82034.6
-6.165	82022.6
-6.160	82021.6
-6.155	82025.6
-6.150	82032.6
-6.145	82034.6
-6.140	82026.6
-6.135	82006.6
-6.130	81998.6
-6.125	82043.6
-6.120	82041.6
-6.115	82043.6
-6.110	82044.6
-6.105	82046.6
-6.100	82043.6
-6.095	82048.6
-6.090	82044.6
-6.085	82031.6
-6.080	82042.6
-6.075	82038.6
-6.070	82004.6
-6.065	82007.6
-6.060	82026.6
-6.055	82042.6
-6.050	82047.6
-6.045	82047.6
-6.040	82032.6
-6.035	82051.6
-6.030	82044.6
-6.025	82047.6
-6.020	82053.6
-6.015	82054.6
-6.010	82052.6
-6.005	82028.6
-6.000	82013.6
-5.995	82028.6
-5.990	82062.6
-5.985	82069.6
-5.980	82067.6
-5.975	82068.6
-5.970	82063.6
-5.965	82067.6
-5.960	82057.6
-5.955	82063.6
-5.950	82055.6
-5.945	82078.6
-5.940	82053.6
-5.935	82040.6
-5.930	82040.6
-5.925	82072.6
-5.920	82065.6
-5.915	82071.6
-5.910	82068.6
-5.905	82058.6
-5.900	82053.6
-5.895	82060.6
-5.890	82050.6
-5.885	82056.6
-5.880	82066.6
-5.875	82066.6
-5.870	82035.6
-5.865	82029.6
-5.860	82059.6
-5.855	82063.6
-5.850	82066.6
-5.845	82067.6
-5.840	82067.6
-5.835	82062.6
-5.830	82051.6
-5.825	82055.6
-5.820	82050.6
-5.815	82046.6
-5.810	82044.6
-5.805	82026.6
-5.800	82006.6
-5.795	82027.6
-5.790	82047.6
-5.785	82052.6
-5.780	82025.6
-5.775	82038.6
-5.770	82029.6
-5.765	82037.6
-5.760	82023.6
-5.755	82024.6
-5.750	82027.5
-5.745	82041.5
-5.740	82023.5
-5.735	82000.5
-5.730	81998.5
-5.725	82038.5
-5.720	82049.5
-5.715	82042.5
-5.710	82037.5
-5.705	82045.5
-5.700	82046.5
-5.695	82047.5
-5.690	82040.5
-5.685	82043.5
-5.680	82033.5
-5.675	82026.5
-5.670	81989.6
-5.665	81991.6
-5.660	82008.6
-5.655	82014.6
-5.650	82017.6
-5.645	82001.6
-5.640	82009.6
-5.635	82004.7
-5.630	81999.7
-5.625	82003.7
-5.620	81990.7
-5.615	82006.7
-5.610	82007.7
-5.605	81991.7
-5.600	81958.7
-5.595	81970.7
-5.590	81993.7
-5.585	81999.7
-5.580	81994.7
-5.575	81998.7
-5.570	81998.7
-5.565	81990.7
-5.560	81980.7
-5.555	81983.7
-5.550	81977.7
-5.545	81975.7
-5.540	81958.7
-5.535	81948.7
-5.530	81950.7
-5.525	81994.7
-5.520	81985.7
-5.515	81983.7
-5.510	81974.7
-5.505	81963.7
-5.500	81960.7
-5.495	81958.7
-5.490	81957.7
-5.485	81968.7
-5.480	81970.7
-5.475	81958.7
-5.470	81932.7
-5.465	81917.7
-5.460	81940.7
-5.455	81941.7
-5.450	81935.8
-5.445	81919.9
-5.440	81895.0
-5.435	81868.1
-5.430	81813.4
-5.425	81764.7
-5.420	81688.0
-5.415	81608.5
-5.410	81531.0
-5.405	81409.5
-5.400	81321.1
-5.395	81290.7
-5.390	81194.4
-5.385	81061.1
-5.380	80990.8
-5.375	80968.4
-5.370	80887.1
-5.365	80800.8
-5.360	80784.3
-5.355	80891.5
-5.350	81091.3
-5.345	81322.8
-5.340	81490.3
-5.335	81599.7
-5.330	81691.3
-5.325	81819.8
-5.320	81876.5
-5.315	81910.2
-5.310	81928.9
-5.305	81941.7
-5.300	81962.5
-5.295	81976.3
-5.290	81961.2
-5.285	81955.1
-5.280	81942.0
-5.275	81938.9
-5.270	81912.8
-5.265	81927.7
-5.260	81976.6
-5.255	81998.5
-5.250	82006.4
-5.245	81994.3
-5.240	82010.3
-5.235	82009.2
-5.230	82015.1
-5.225	82017.1
-5.220	82015.0
-5.215	82018.0
-5.210	82017.9
-5.205	82002.9
-5.200	82003.8
-5.195	82040.8
-5.190	82077.7
-5.185	82102.6
-5.180	82116.6
-5.175	82110.5
-5.170	82111.5
-5.165	82114.4
-5.160	82105.4
-5.155	82095.4
-5.150	82101.3
-5.145	82111.3
-5.140	82096.3
-5.135	82085.2
-5.130	82096.2
-5.125	82130.2
-5.120	82127.1
-5.115	82122.1
-5.110	82135.1
-5.105	82149.1
-5.100	82160.0
-5.095	82155.0
-5.090	82149.0
-5.085	82159.0
-5.080	82163.9
-5.075	82172.9
-5.070	82165.9
-5.065	82148.9
-5.060	82176.9
-5.055	82180.9
-5.050	82163.9
-5.045	82162.8
-5.040	82160.8
-5.035	82169.8
-5.030	82178.7
-5.025	82214.7
-5.020	82206.7
-5.015	82200.7
-5.010	82198.7
-5.005	82180.7
-5.000	82185.6
-4.995	82219.6
-4.990	82235.6
-4.985	82235.6
-4.980	82231.5
-4.975	82212.5
-4.970	82208.5
-4.965	82209.5
-4.960	82200.5
-4.955	82207.5
-4.950	82214.4
-4.945	82234.4
-4.940	82226.4
-4.935	82227.4
-4.930	82213.4
-4.925	82249.4
-4.920	82235.4
-4.915	82241.4
-4.910	82243.3
-4.905	82231.3
-4.900	82230.3
-4.895	82233.3
-4.890	82230.3
-4.885	82242.3
-4.880	82236.3
-4.875	82227.3
-4.870	82204.3
-4.865	82210.3
-4.860	82241.3
-4.855	82242.3
-4.850	82230.3
-4.845	82233.3
-4.840	82236.3
-4.835	82237.2
-4.830	82232.2
-4.825	82225.2
-4.820	82212.2
-4.815	82218.2
-4.810	82225.2
-4.805	82202.2
-4.800	82202.2
-4.795	82220.1
-4.790	82236.1
-4.785	82233.1
-4.780	82221.1
-4.775	82214.1
-4.770	82201.1
-4.765	82208.1
-4.760	82216.1
-4.755	82210.1
-4.750	82204.1
-4.745	82206.1
-4.740	82166.1
-4.735	82171.1
-4.730	82172.1
-4.725	82207.1
-4.720	82200.1
-4.715	82200.1
-4.710	82176.1
-4.705	82188.1
-4.700	82194.1
-4.695	82190.1
-4.690	82186.1
-4.685	82192.0
-4.680	82197.0
-4.675	82202.0
-4.670	82173.0
-4.665	82163.0
-4.660	82201.0
-4.655	82206.0
-4.650	82202.0
-4.645	82196.0
-4.640	82194.9
-4.635	82198.9
-4.630	82186.9
-4.625	82193.9
-4.620	82191.9
-4.615	82192.9
-4.610	82193.9
-4.605	82168.9
-4.600	82163.9
-4.595	82204.9
-4.590	82193.9
-4.585	82201.9
-4.580	82203.9
-4.575	82205.9
-4.570	82189.9
-4.565	82198.9
-4.560	82203.9
-4.555	82195.9
-4.550	82202.9
-4.545	82208.9
-4.540	82183.9
-4.535	82169.9
-4.530	82179.9
-4.525	82213.9
-4.520	82212.8
-4.515	82212.8
-4.510	82206.8
-4.505	82194.8
-4.500	82186.8
-4.495	82186.8
-4.490	82177.8
-4.485	82203.8
-4.480	82200.8
-4.475	82195.8
-4.470	82170.8
-4.465	82179.8
-4.460	82218.8
-4.455	82209.8
-4.450	82200.8
-4.445	82209.8
-4.440	82210.8
-4.435	82214.7
-4.430	82207.7
-4.425	82205.7
-4.420	82200.7
-4.415	82207.7
-4.410	82208.7
-4.405	82189.7
-4.400	82178.7
-4.395	82212.7
-4.390	82221.7
-4.385	82232.7
-4.380	82223.7
-4.375	82226.7
-4.370	82223.7
-4.365	82211.7
-4.360	82210.7
-4.355	82220.7
-4.350	82212.7
-4.345	82206.7
-4.340	82177.7
-4.335	82168.7
-4.330	82189.7
-4.325	82219.6
-4.320	82194.7
-4.315	82189.7
-4.310	82172.7
-4.305	82165.7
-4.300	82153.7
-4.295	82150.7
-4.290	82136.7
-4.285	82153.7
-4.280	82162.7
-4.275	82139.7
-4.270	82110.7
-4.265	82122.7
-4.260	82159.6
-4.255	82169.6
-4.250	82164.6
-4.245	82149.6
-4.240	82125.7
-4.235	82116.7
-4.230	82104.7
-4.225	82106.7
-4.220	82088.7
-4.215	82087.7
-4.210	82086.7
-4.205	82072.7
-4.200	82062.7
-4.195	82087.7
-4.190	82105.7
-4.185	82104.7
-4.180	82101.6
-4.175	82087.6
-4.170	82076.6
-4.165	82063.6
-4.160	82061.6
-4.155	82073.6
-4.150	82065.6
-4.145	82042.5
-4.140	81996.5
-4.135	81993.4
-4.130	82001.2
-4.125	82012.0
-4.120	81984.8
-4.115	81962.5
-4.110	81924.1
-4.105	81865.7
-4.100	81795.3
-4.095	81728.8
-4.090	81670.2
-4.085	81620.6
-4.080	81583.0
-4.075	81511.4
-4.070	81448.8
-4.065	81408.2
-4.060	81392.6
-4.055	81343.1
-4.050	81335.8
-4.045	81384.6
-4.040	81424.5
-4.035	81481.7
-4.030	81534.0
-4.025	81607.4
-4.020	81667.8
-4.015	81727.2
-4.010	81841.5
-4.005	81927.7
-4.000	81953.0
-3.995	81999.2
-3.990	82013.4
-3.985	81995.6
-3.980	82002.7
-3.975	82003.9
-3.970	81995.0
-3.965	82018.1
-3.960	82026.2
-3.955	81999.3
-3.950	81973.4
-3.945	81963.5
-3.940	81891.7
-3.935	81831.8
-3.930	81819.9
-3.925	81854.9
-3.920	81834.0
-3.915	81791.0
-3.910	81784.1
-3.905	81803.1
-3.900	81820.2
-3.895	81844.2
-3.890	81844.3
-3.885	81818.3
-3.880	81814.4
-3.875	81835.4
-3.870	81802.5
-3.865	81769.5
-3.860	81761.6
-3.855	81733.6
-3.850	81716.7
-3.845	81754.7
-3.840	81767.7
-3.835	81730.8
-3.830	81698.8
-3.825	81716.9
-3.820	81752.9
-3.815	81794.9
-3.810	81800.9
-3.805	81793.9
-3.800	81819.9
-3.795	81879.9
-3.790	81905.9
-3.785	81931.9
-3.780	81931.9
-3.775	81919.0
-3.770	81911.0
-3.765	81924.0
-3.760	81919.0
-3.755	81924.1
-3.750	81936.1
-3.745	81970.1
-3.740	81928.1
-3.735	81913.1
-3.730	81931.2
-3.725	81964.1
-3.720	81977.2
-3.715	81977.2
-3.710	81973.2
-3.705	81960.2
-3.700	81942.3
-3.695	81937.3
-3.690	81921.3
-3.685	81920.3
-3.680	81898.3
-3.675	81881.4
-3.670	81867.4
-3.665	81873.4
-3.660	81898.4
-3.655	81887.4
-3.650	81884.4
-3.645	81873.5
-3.640	81869.5
-3.635	81853.5
-3.630	81825.5
-3.625	81832.5
-3.620	81814.6
-3.615	81842.6
-3.610	81825.6
-3.605	81798.6
-3.600	81777.7
-3.595	81825.6
-3.590	81830.7
-3.585	81827.7
-3.580	81813.7
-3.575	81803.8
-3.570	81786.8
-3.565	81770.9
-3.560	81755.9
-3.555	81772.9
-3.550	81805.0
-3.545	81866.0
-3.540	81906.0
-3.535	81975.0
-3.530	82038.0
-3.525	82069.0
-3.520	82068.1
-3.515	82065.2
-3.510	82029.3
-3.505	81992.4
-3.500	81959.5
-3.495	81933.5
-3.490	81878.7
-3.485	81878.7
-3.480	81904.8
-3.475	81929.8
-3.470	81936.8
-3.465	81984.8
-3.460	82034.8
-3.455	82031.8
-3.450	82041.8
-3.445	82048.8
-3.440	82042.8
-3.435	82042.8
-3.430	82039.8
-3.425	82058.8
-3.420	82072.8
-3.415	82098.8
-3.410	82100.8
-3.405	82075.9
-3.400	82033.0
-3.395	82027.0
-3.390	82039.1
-3.385	82132.1
-3.380	82208.1
-3.375	82227.2
-3.370	82167.3
-3.365	82083.5
-3.360	82057.6
-3.355	82088.7
-3.350	82150.8
-3.345	82185.9
-3.340	82147.0
-3.335	82105.0
-3.330	82085.0
-3.325	82096.0
-3.320	82089.0
-3.315	82107.9
-3.310	82107.8
-3.305	82106.8
-3.300	82095.8
-3.295	82093.8
-3.290	82076.8
-3.285	82075.7
-3.280	82069.7
-3.275	82047.7
-3.270	82042.7
-3.265	82037.7
-3.260	82066.7
-3.255	82078.7
-3.250	82084.7
-3.245	82098.7
-3.240	82094.7
-3.235	82089.7
-3.230	82086.7
-3.225	82080.7
-3.220	82080.7
-3.215	82075.7
-3.210	82070.7
-3.205	82050.8
-3.200	82061.8
-3.195	82088.8
-3.190	82095.8
-3.185	82083.8
-3.180	82071.8
-3.175	82070.8
-3.170	82069.9
-3.165	82078.9
-3.160	82084.9
-3.155	82101.9
-3.150	82084.9
-3.145	82079.9
-3.140	82045.9
-3.135	82037.9
-3.130	82045.9
-3.125	82063.9
-3.120	82066.9
-3.115	82093.9
-3.110	82092.9
-3.105	82092.9
-3.100	82079.0
-3.095	82067.0
-3.090	82056.0
-3.085	82058.0
-3.080	82085.0
-3.075	82079.0
-3.070	82065.0
-3.065	82068.0
-3.060	82098.0
-3.055	82104.0
-3.050	82087.0
-3.045	82083.0
-3.040	82073.1
-3.035	82074.1
-3.030	82074.1
-3.025	82086.1
-3.020	82076.1
-3.015	82082.1
-3.010	82057.1
-3.005	82031.1
-3.000	82018.2
-2.995	82029.2
-2.990	82022.2
-2.985	82041.2
-2.980	82045.2
-2.975	82069.2
-2.970	82060.2
-2.965	82046.2
-2.960	82022.2
-2.955	82016.2
-2.950	82009.3
-2.945	82023.3
-2.940	82022.3
-2.935	82035.3
-2.930	82091.2
-2.925	82125.2
-2.920	82129.2
-2.915	82133.2
-2.910	82113.3
-2.905	82110.3
-2.900	82116.3
-2.895	82122.3
-2.890	82116.3
-2.885	82121.3
-2.880	82131.3
-2.875	82125.3
-2.870	82109.3
-2.865	82112.3
-2.860	82118.4
-2.855	82128.4
-2.850	82119.4
-2.845	82131.4
-2.840	82142.4
-2.835	82145.4
-2.830	82146.4
-2.825	82153.4
-2.820	82145.4
-2.815	82146.4
-2.810	82132.4
-2.805	82103.4
-2.800	82107.4
-2.795	82147.4
-2.790	82156.4
-2.785	82169.4
-2.780	82167.4
-2.775	82183.4
-2.770	82179.4
-2.765	82176.4
-2.760	82156.4
-2.755	82144.4
-2.750	82126.5
-2.745	82126.5
-2.740	82110.5
-2.735	82118.5
-2.730	82161.5
-2.725	82180.5
-2.720	82169.5
-2.715	82150.5
-2.710	82118.5
-2.705	82120.6
-2.700	82102.6
-2.695	82113.6
-2.690	82124.6
-2.685	82147.6
-2.680	82125.6
-2.675	82090.6
-2.670	82066.6
-2.665	82082.6
-2.660	82107.6
-2.655	82129.6
-2.650	82132.6
-2.645	82135.6
-2.640	82126.7
-2.635	82129.7
-2.630	82112.7
-2.625	82101.7
-2.620	82090.7
-2.615	82110.7
-2.610	82101.7
-2.605	82099.7
-2.600	82091.7
-2.595	82125.7
-2.590	82104.7
-2.585	82095.7
-2.580	82087.7
-2.575	82086.7
-2.570	82075.7
-2.565	82065.7
-2.560	82042.8
-2.555	82028.8
-2.550	82020.8
-2.545	82020.8
-2.540	81999.8
-2.535	81986.8
-2.530	81985.8
-2.525	81988.8
-2.520	81982.8
-2.515	81980.8
-2.510	81945.9
-2.505	81925.9
-2.500	81926.9
-2.495	81946.9
-2.490	81953.9
-2.485	81946.9
-2.480	81949.9
-2.475	81947.9
-2.470	81949.9
-2.465	81974.9
-2.460	81990.9
-2.455	81995.9
-2.450	81993.9
-2.445	81981.9
-2.440	81962.9
-2.435	81967.9
-2.430	81967.9
-2.425	81992.9
-2.420	81998.9
-2.415	82019.9
-2.410	81997.9
-2.405	81985.9
-2.400	81973.9
-2.395	82033.9
-2.390	82042.9
-2.385	82047.9
-2.380	82053.9
-2.375	82066.9
-2.370	82075.9
-2.365	82084.9
-2.360	82105.9
-2.355	82122.9
-2.350	82142.8
-2.345	82159.8
-2.340	82136.9
-2.335	82133.9
-2.330	82149.9
-2.325	82155.9
-2.320	82137.9
-2.315	82137.9
-2.310	82129.9
-2.305	82131.9
-2.300	82117.9
-2.295	82130.9
-2.290	82138.9
-2.285	82157.9
-2.280	82146.9
-2.275	82115.9
-2.270	82088.9
-2.265	82102.9
-2.260	82125.8
-2.255	82128.8
-2.250	82124.8
-2.245	82137.8
-2.240	82140.8
-2.235	82165.8
-2.230	82177.8
-2.225	82188.8
-2.220	82196.8
-2.215	82199.8
-2.210	82161.8
-2.205	82140.8
-2.200	82141.9
-2.195	82166.8
-2.190	82169.9
-2.185	82166.9
-2.180	82158.9
-2.175	82142.9
-2.170	82138.9
-2.165	82140.9
-2.160	82140.9
-2.155	82139.9
-2.150	82138.9
-2.145	82131.9
-2.140	82098.9
-2.135	82112.9
-2.130	82155.8
-2.125	82175.8
-2.120	82175.8
-2.115	82168.8
-2.110	82168.8
-2.105	82163.8
-2.100	82151.8
-2.095	82173.8
-2.090	82182.8
-2.085	82190.8
-2.080	82177.8
-2.075	82158.9
-2.070	82154.9
-2.065	82182.8
-2.060	82211.8
-2.055	82205.8
-2.050	82205.8
-2.045	82196.9
-2.040	82173.9
-2.035	82160.9
-2.030	82144.9
-2.025	82146.9
-2.020	82156.9
-2.015	82180.8
-2.010	82178.9
-2.005	82177.9
-2.000	82163.9
-1.995	82194.9
-1.990	82182.9
-1.985	82186.9
-1.980	82174.9
-1.975	82166.9
-1.970	82144.9
-1.965	82130.9
-1.960	82107.9
-1.955	82099.9
-1.950	82096.9
-1.945	82096.9
-1.940	82079.9
-1.935	82087.9
-1.930	82126.8
-1.925	82151.8
-1.920	82151.8
-1.915	82150.8
-1.910	82158.8
-1.905	82155.8
-1.900	82153.8
-1.895	82153.8
-1.890	82150.8
-1.885	82147.8
-1.880	82151.8
-1.875	82127.8
-1.870	82106.8
-1.865	82132.8
-1.860	82143.8
-1.855	82158.8
-1.850	82156.8
-1.845	82167.8
-1.840	82165.8
-1.835	82165.8
-1.830	82155.8
-1.825	82167.8
-1.820	82151.8
-1.815	82162.8
-1.810	82132.8
-1.805	82119.8
-1.800	82122.8
-1.795	82154.8
-1.790	82145.8
-1.785	82146.8
-1.780	82135.8
-1.775	82137.8
-1.770	82135.8
-1.765	82141.8
-1.760	82149.8
-1.755	82153.7
-1.750	82163.7
-1.745	82174.7
-1.740	82151.7
-1.735	82143.7
-1.730	82164.7
-1.725	82154.7
-1.720	82157.7
-1.715	82160.7
-1.710	82154.7
-1.705	82158.7
-1.700	82152.7
-1.695	82145.7
-1.690	82134.7
-1.685	82135.7
-1.680	82137.7
-1.675	82134.7
-1.670	82117.7
-1.665	82141.7
-1.660	82161.7
-1.655	82179.7
-1.650	82184.7
-1.645	82181.7
-1.640	82170.7
-1.635	82159.7
-1.630	82153.7
-1.625	82144.7
-1.620	82140.7
-1.615	82159.7
-1.610	82130.7
-1.605	82116.7
-1.600	82127.7
-1.595	82163.7
-1.590	82160.7
-1.585	82171.7
-1.580	82170.7
-1.575	82180.6
-1.570	82163.6
-1.565	82166.6
-1.560	82148.6
-1.555	82157.6
-1.550	82160.6
-1.545	82155.6
-1.540	82120.6
-1.535	82128.6
-1.530	82148.6
-1.525	82154.6
-1.520	82144.6
-1.515	82160.6
-1.510	82156.6
-1.505	82171.6
-1.500	82186.5
-1.495	82190.5
-1.490	82192.5
-1.485	82200.5
-1.480	82207.5
-1.475	82190.5
-1.470	82175.5
-1.465	82190.5
-1.460	82203.5
-1.455	82214.4
-1.450	82219.4
-1.445	82232.4
-1.440	82227.4
-1.435	82248.4
-1.430	82253.4
-1.425	82260.4
-1.420	82266.4
-1.415	82276.4
-1.410	82245.4
-1.405	82232.4
-1.400	82231.4
-1.395	82262.4
-1.390	82247.4
-1.385	82238.4
-1.380	82231.4
-1.375	82229.4
-1.370	82216.4
-1.365	82214.4
-1.360	82221.4
-1.355	82222.4
-1.350	82222.4
-1.345	82209.4
-1.340	82176.4
-1.335	82172.4
-1.330	82196.4
-1.325	82213.3
-1.320	82210.3
-1.315	82206.3
-1.310	82206.3
-1.305	82200.3
-1.300	82205.3
-1.295	82220.3
-1.290	82211.3
-1.285	82204.3
-1.280	82196.3
-1.275	82169.3
-1.270	82155.3
-1.265	82193.3
-1.260	82193.3
-1.255	82192.3
-1.250	82186.2
-1.245	82180.2
-1.240	82183.2
-1.235	82178.2
-1.230	82173.2
-1.225	82184.2
-1.220	82199.2
-1.215	82201.2
-1.210	82176.2
-1.205	82169.2
-1.200	82175.2
-1.195	82191.2
-1.190	82210.2
-1.185	82200.2
-1.180	82197.3
-1.175	82179.3
-1.170	82162.3
-1.165	82155.3
-1.160	82146.3
-1.155	82151.3
-1.150	82133.3
-1.145	82119.3
-1.140	82092.3
-1.135	82096.3
-1.130	82121.3
-1.125	82127.3
-1.120	82122.2
-1.115	82121.2
-1.110	82106.2
-1.105	82103.2
-1.100	82081.2
-1.095	82080.2
-1.090	82071.2
-1.085	82071.2
-1.080	82063.2
-1.075	82050.2
-1.070	82038.2
-1.065	82073.2
-1.060	82083.2
-1.055	82101.1
-1.050	82096.1
-1.045	82098.1
-1.040	82102.1
-1.035	82096.1
-1.030	82089.1
-1.025	82094.1
-1.020	82080.1
-1.015	82086.1
-1.010	82058.1
-1.005	82037.1
-1.000	82043.1
-0.995	82063.1
-0.990	82060.1
-0.985	82072.1
-0.980	82056.1
-0.975	82068.1
-0.970	82060.1
-0.965	82075.1
-0.960	82069.1
-0.955	82073.1
-0.950	82082.0
-0.945	82080.0
-0.940	82049.0
-0.935	82052.0
-0.930	82073.0
-0.925	82069.0
-0.920	82067.0
-0.915	82065.0
-0.910	82061.0
-0.905	82056.0
-0.900	82057.0
-0.895	82066.0
-0.890	82069.0
-0.885	82068.0
-0.880	82048.0
-0.875	82018.1
-0.870	82006.1
-0.865	82025.1
-0.860	82028.1
-0.855	82025.1
-0.850	82023.1
-0.845	82016.1
-0.840	82022.1
-0.835	82024.0
-0.830	82022.0
-0.825	82031.0
-0.820	82033.0
-0.815	82040.0
-0.810	82013.0
-0.805	82006.0
-0.800	82022.9
-0.795	82048.9
-0.790	82048.9
-0.785	82049.9
-0.780	82041.9
-0.775	82033.8
-0.770	82017.8
-0.765	82021.8
-0.760	82014.8
-0.755	82023.8
-0.750	82027.8
-0.745	82013.8
-0.740	81995.8
-0.735	82010.7
-0.730	82038.7
-0.725	82047.7
-0.720	82051.7
-0.715	82039.7
-0.710	82031.7
-0.705	82016.7
-0.700	82001.7
-0.695	81991.7
-0.690	81975.7
-0.685	81987.7
-0.680	81982.7
-0.675	81961.7
-0.670	81945.8
-0.665	81982.7
-0.660	81977.7
-0.655	81970.7
-0.650	81974.7
-0.645	81979.7
-0.640	81969.7
-0.635	81970.7
-0.630	81971.7
-0.625	81981.7
-0.620	81998.7
-0.615	81998.7
-0.610	81973.7
-0.605	81972.7
-0.600	82000.7
-0.595	82023.6
-0.590	82011.6
-0.585	82010.6
-0.580	82010.6
-0.575	82002.6
-0.570	81993.6
-0.565	81998.6
-0.560	81985.6
-0.555	81986.6
-0.550	81982.6
-0.545	81982.6
-0.540	81962.6
-0.535	81978.6
-0.530	82015.5
-0.525	82033.5
-0.520	82029.5
-0.515	82025.5
-0.510	82003.5
-0.505	82010.5
-0.500	82016.5
-0.495	82034.5
-0.490	82054.5
-0.485	82077.4
-0.480	82068.4
-0.475	82051.4
-0.470	82046.4
-0.465	82083.4
-0.460	82085.4
-0.455	82101.4
-0.450	82098.4
-0.445	82109.4
-0.440	82088.4
-0.435	82084.4
-0.430	82062.4
-0.425	82062.4
-0.420	82043.4
-0.415	82042.4
-0.410	82010.4
-0.405	82002.4
-0.400	82035.4
-0.395	82075.3
-0.390	82100.3
-0.385	82100.3
-0.380	82082.3
-0.375	82060.3
-0.370	82042.3
-0.365	82033.3
-0.360	82024.3
-0.355	82024.3
-0.350	82030.3
-0.345	82018.3
-0.340	82000.3
-0.335	82007.3
-0.330	82055.3
-0.325	82066.2
-0.320	82072.2
-0.315	82072.2
-0.310	82074.2
-0.305	82081.2
-0.300	82079.2
-0.295	82069.2
-0.290	82053.2
-0.285	82067.2
-0.280	82061.2
-0.275	82039.2
-0.270	82010.2
-0.265	82042.2
-0.260	82041.2
-0.255	82043.2
-0.250	82025.2
-0.245	82045.1
-0.240	82049.1
-0.235	82053.1
-0.230	82053.1
-0.225	82068.1
-0.220	82060.1
-0.215	82057.1
-0.210	82035.1
-0.205	82017.1
-0.200	82025.1
-0.195	82034.1
-0.190	82037.1
-0.185	82045.0
-0.180	82062.0
-0.175	82044.0
-0.170	82024.0
-0.165	82009.0
-0.160	82003.0
-0.155	82029.0
-0.150	82044.0
-0.145	82014.0
-0.140	81974.0
-0.135	81979.0
-0.130	82031.0
-0.125	82040.0
-0.120	82054.9
-0.115	82048.9
-0.110	82038.9
-0.105	82048.9
-0.100	82060.9
-0.095	82056.9
-0.090	82042.0
-0.085	82039.0
-0.080	82009.0
-0.075	81986.1
-0.070	82002.1
-0.065	82075.0
-0.060	82094.0
-0.055	82101.0
-0.050	82073.0
-0.045	82058.0
-0.040	82049.9
-0.035	82034.9
-0.030	82033.8
-0.025	82060.7
-0.020	82062.7
-0.015	82047.6
-0.010	81997.5
-0.005	81971.4
0.000	81955.3
0.005	81896.3
0.010	81861.3
0.015	81922.3
0.020	82013.3
0.025	82025.3
0.030	82006.5
0.035	82041.6
0.040	82057.8
0.045	82027.0
0.050	81996.2
0.055	82023.3
0.060	82050.4
0.065	82048.4
0.070	81987.4
0.075	81918.4
0.080	81878.3
0.085	81869.1
0.090	81878.0
0.095	81901.8
0.100	81954.6
0.105	82006.5
0.110	82024.4
0.115	82019.3
0.120	81983.4
0.125	81953.4
0.130	81939.5
0.135	82000.5
0.140	82016.5
0.145	82021.5
0.150	81992.6
0.155	81955.6
0.160	81937.6
0.165	81950.6
0.170	81979.6
0.175	81986.6
0.180	81961.6
0.185	81937.6
0.190	81896.6
0.195	81899.6
0.200	81939.6
0.205	81970.5
0.210	81967.5
0.215	81958.5
0.220	81933.5
0.225	81915.5
0.230	81906.5
0.235	81898.5
0.240	81893.5
0.245	81901.5
0.250	81919.5
0.255	81909.5
0.260	81886.5
0.265	81903.5
0.270	81948.4
0.275	82000.4
0.280	82027.3
0.285	82022.3
0.290	82010.3
0.295	82000.3
0.300	82007.3
0.305	82025.3
0.310	82004.3
0.315	81988.3
0.320	81942.4
0.325	81926.4
0.330	81929.4
0.335	81955.3
0.340	81923.4
0.345	81905.4
0.350	81860.4
0.355	81833.4
0.360	81813.4
0.365	81777.4
0.370	81750.5
0.375	81736.5
0.380	81734.5
0.385	81726.5
0.390	81699.5
0.395	81679.5
0.400	81700.5
0.405	81742.4
0.410	81765.4
0.415	81785.4
0.420	81791.4
0.425	81791.4
0.430	81780.4
0.435	81775.4
0.440	81755.4
0.445	81760.4
0.450	81757.3
0.455	81747.4
0.460	81745.3
0.465	81786.3
0.470	81841.3
0.475	81867.2
0.480	81872.2
0.485	81889.2
0.490	81886.2
0.495	81903.2
0.500	81926.2
0.505	81939.2
0.510	81967.1
0.515	81999.1
0.520	82014.1
0.525	81995.1
0.530	81994.1
0.535	82036.1
0.540	82054.0
0.545	82058.0
0.550	82064.0
0.555	82062.0
0.560	82063.0
0.565	82057.0
0.570	82064.0
0.575	82078.0
0.580	82075.0
0.585	82078.0
0.590	82049.0
0.595	82051.0
0.600	82078.9
0.605	82091.9
0.610	82087.9
0.615	82077.9
0.620	82072.9
0.625	82086.8
0.630	82087.8
0.635	82088.8
0.640	82095.8
0.645	82106.8
0.650	82104.8
0.655	82082.8
0.660	82056.8
0.665	82064.7
0.670	82094.7
0.675	82085.7
0.680	82095.7
0.685	82088.7
0.690	82058.7
0.695	82047.7
0.700	82036.7
0.705	82022.7
0.710	82012.7
0.715	81997.7
0.720	81942.8
0.725	81924.8
0.730	81912.8
0.735	81947.8
0.740	81957.8
0.745	81949.8
0.750	81933.8
0.755	81933.8
0.760	81919.8
0.765	81915.8
0.770	81922.8
0.775	81928.8
0.780	81910.8
0.785	81898.8
0.790	81878.9
0.795	81870.9
0.800	81888.8
0.805	81905.8
0.810	81904.8
0.815	81900.8
0.820	81902.8
0.825	81912.7
0.830	81905.7
0.835	81901.7
0.840	81912.7
0.845	81910.7
0.850	81893.7
0.855	81859.7
0.860	81833.7
0.865	81838.7
0.870	81842.7
0.875	81851.7
0.880	81851.7
0.885	81864.7
0.890	81873.7
0.895	81880.7
0.900	81880.7
0.905	81886.7
0.910	81908.6
0.915	81921.6
0.920	81914.6
0.925	81907.6
0.930	81915.6
0.935	81943.6
0.940	81924.6
0.945	81892.6
0.950	81866.6
0.955	81848.6
0.960	81837.6
0.965	81832.6
0.970	81835.6
0.975	81827.6
0.980	81833.6
0.985	81838.5
0.990	81830.5
0.995	81832.5
1.000	81878.5
1.005	81905.5
1.010	81899.5
1.015	81898.4
1.020	81875.4
1.025	81878.4
1.030	81853.4
1.035	81849.4
1.040	81832.4
1.045	81851.4
1.050	81873.4
1.055	81854.4
1.060	81839.4
1.065	81857.4
1.070	81879.4
1.075	81872.4
1.080	81855.4
1.085	81840.4
1.090	81831.5
1.095	81831.5
1.100	81817.5
1.105	81807.5
1.110	81800.5
1.115	81797.5
1.120	81774.5
1.125	81753.5
1.130	81762.5
1.135	81797.5
1.140	81789.5
1.145	81786.5
1.150	81790.4
1.155	81789.4
1.160	81780.4
1.165	81780.4
1.170	81780.4
1.175	81801.4
1.180	81810.4
1.185	81821.3
1.190	81809.3
1.195	81808.3
1.200	81829.3
1.205	81847.3
1.210	81862.3
1.215	81867.3
1.220	81870.3
1.225	81869.3
1.230	81867.3
1.235	81876.3
1.240	81884.3
1.245	81900.2
1.250	81904.2
1.255	81882.2
1.260	81874.2
1.265	81899.2
1.270	81932.2
1.275	81940.2
1.280	81947.2
1.285	81949.2
1.290	81957.1
1.295	81968.1
1.300	81956.1
1.305	81960.1
1.310	81958.1
1.315	81967.1
1.320	81942.1
1.325	81932.1
1.330	81919.1
1.335	81956.1
1.340	81951.1
1.345	81953.1
1.350	81926.1
1.355	81921.1
1.360	81911.1
1.365	81914.1
1.370	81929.1
1.375	81945.1
1.380	81953.1
1.385	81944.1
1.390	81918.1
1.395	81924.1
1.400	81961.1
1.405	81981.1
1.410	81958.1
1.415	81982.0
1.420	81969.0
1.425	81977.0
1.430	81971.0
1.435	81967.0
1.440	81972.0
1.445	81983.0
1.450	82004.0
1.455	81984.0
1.460	81961.0
1.465	81976.0
1.470	81984.0
1.475	81977.0
1.480	81965.0
1.485	81963.0
1.490	81962.0
1.495	81979.0
1.500	81995.9
1.505	82003.9
1.510	82003.9
1.515	81981.9
1.520	81934.9
1.525	81926.9
1.530	81941.9
1.535	81976.9
1.540	81974.8
1.545	81950.9
1.550	81954.8
1.555	81947.8
1.560	81934.8
1.565	81955.8
1.570	81964.8
1.575	81964.8
1.580	81958.8
1.585	81943.8
1.590	81906.9
1.595	81887.9
1.600	81911.9
1.605	81936.8
1.610	81934.8
1.615	81940.8
1.620	81940.8
1.625	81947.8
1.630	81942.8
1.635	81923.8
1.640	81920.8
1.645	81906.8
1.650	81886.9
1.655	81861.9
1.660	81845.9
1.665	81882.9
1.670	81891.9
1.675	81904.9
1.680	81894.9
1.685	81884.9
1.690	81882.9
1.695	81881.9
1.700	81880.9
1.705	81868.9
1.710	81871.9
1.715	81872.9
1.720	81861.9
1.725	81845.9
1.730	81854.9
1.735	81887.8
1.740	81896.8
1.745	81912.8
1.750	81925.8
1.755	81939.7
1.760	81943.7
1.765	81932.7
1.770	81916.7
1.775	81914.7
1.780	81917.7
1.785	81911.7
1.790	81884.8
1.795	81900.7
1.800	81925.7
1.805	81918.7
1.810	81904.8
1.815	81912.8
1.820	81929.7
1.825	81947.7
1.830	81953.7
1.835	81954.7
1.840	81935.8
1.845	81935.8
1.850	81928.8
1.855	81918.8
1.860	81916.8
1.865	81934.8
1.870	81960.7
1.875	81970.7
1.880	81964.7
1.885	81974.7
1.890	81968.7
1.895	81938.7
1.900	81922.7
1.905	81908.7
1.910	81901.7
1.915	81918.7
1.920	81896.7
1.925	81880.7
1.930	81881.7
1.935	81892.7
1.940	81875.7
1.945	81870.7
1.950	81869.7
1.955	81866.7
1.960	81854.7
1.965	81853.7
1.970	81836.7
1.975	81838.7
1.980	81839.7
1.985	81827.7
1.990	81808.8
1.995	81804.8
2.000	81855.7
2.005	81883.7
2.010	81890.7
2.015	81873.7
2.020	81846.7
2.025	81828.8
2.030	81794.8
2.035	81808.8
2.040	81809.8
2.045	81825.8
2.050	81837.7
2.055	81816.8
2.060	81814.8
2.065	81829.7
2.070	81838.7
2.075	81824.7
2.080	81812.7
2.085	81824.7
2.090	81817.7
2.095	81826.7
2.100	81822.7
2.105	81814.7
2.110	81851.7
2.115	81844.7
2.120	81817.7
2.125	81795.7
2.130	81797.8
2.135	81831.7
2.140	81816.8
2.145	81821.8
2.150	81835.8
2.155	81850.8
2.160	81874.8
2.165	81864.8
2.170	81851.8
2.175	81826.8
2.180	81801.8
2.185	81779.8
2.190	81758.8
2.195	81774.8
2.200	81828.8
2.205	81816.8
2.210	81806.8
2.215	81818.8
2.220	81813.8
2.225	81807.7
2.230	81793.7
2.235	81769.8
2.240	81749.8
2.245	81765.8
2.250	81782.8
2.255	81788.8
2.260	81772.8
2.265	81775.8
2.270	81767.8
2.275	81756.8
2.280	81768.8
2.285	81793.8
2.290	81807.8
2.295	81807.8
2.300	81793.8
2.305	81806.8
2.310	81808.8
2.315	81796.8
2.320	81751.8
2.325	81716.8
2.330	81723.8
2.335	81756.8
2.340	81764.8
2.345	81762.8
2.350	81739.8
2.355	81759.8
2.360	81757.8
2.365	81747.8
2.370	81759.8
2.375	81755.8
2.380	81763.8
2.385	81765.8
2.390	81762.8
2.395	81785.8
2.400	81799.8
2.405	81777.8
2.410	81767.8
2.415	81746.8
2.420	81746.9
2.425	81759.9
2.430	81769.9
2.435	81781.9
2.440	81794.9
2.445	81817.9
2.450	81805.9
2.455	81779.9
2.460	81770.9
2.465	81803.9
2.470	81832.9
2.475	81855.8
2.480	81824.9
2.485	81808.9
2.490	81800.9
2.495	81812.9
2.500	81805.9
2.505	81797.9
2.510	81793.9
2.515	81770.9
2.520	81755.9
2.525	81747.9
2.530	81762.9
2.535	81806.9
2.540	81815.9
2.545	81817.9
2.550	81827.9
2.555	81844.9
2.560	81818.9
2.565	81807.9
2.570	81781.9
2.575	81776.9
2.580	81767.0
2.585	81769.0
2.590	81763.0
2.595	81792.0
2.600	81836.9
2.605	81852.9
2.610	81862.9
2.615	81872.9
2.620	81878.9
2.625	81894.9
2.630	81875.9
2.635	81827.9
2.640	81788.0
2.645	81761.0
2.650	81781.0
2.655	81753.0
2.660	81743.0
2.665	81784.0
2.670	81786.0
2.675	81784.0
2.680	81767.0
2.685	81742.1
2.690	81707.1
2.695	81716.1
2.700	81764.1
2.705	81809.1
2.710	81834.1
2.715	81869.1
2.720	81865.1
2.725	81858.1
2.730	81856.1
2.735	81864.1
2.740	81852.1
2.745	81832.1
2.750	81797.1
2.755	81792.1
2.760	81809.1
2.765	81835.1
2.770	81847.1
2.775	81867.1
2.780	81865.2
2.785	81826.2
2.790	81781.2
2.795	81755.2
2.800	81805.2
2.805	81832.2
2.810	81854.2
2.815	81859.2
2.820	81866.2
2.825	81896.2
2.830	81897.2
2.835	81891.2
2.840	81879.2
2.845	81893.2
2.850	81887.2
2.855	81855.2
2.860	81841.2
2.865	81862.2
2.870	81863.2
2.875	81862.2
2.880	81855.2
2.885	81855.2
2.890	81843.3
2.895	81852.3
2.900	81858.3
2.905	81883.3
2.910	81899.3
2.915	81896.3
2.920	81867.3
2.925	81853.3
2.930	81855.4
2.935	81883.3
2.940	81894.4
2.945	81883.4
2.950	81868.4
2.955	81867.4
2.960	81893.4
2.965	81892.4
2.970	81906.4
2.975	81928.4
2.980	81949.4
2.985	81937.4
2.990	81908.4
2.995	81905.4
3.000	81928.4
3.005	81917.4
3.010	81897.5
3.015	81893.5
3.020	81875.5
3.025	81885.5
3.030	81902.5
3.035	81935.5
3.040	81937.5
3.045	81948.5
3.050	81945.5
3.055	81928.5
3.060	81908.5
3.065	81940.5
3.070	81939.5
3.075	81933.6
3.080	81924.6
3.085	81931.6
3.090	81926.6
3.095	81920.6
3.100	81923.6
3.105	81942.6
3.110	81945.6
3.115	81939.6
3.120	81897.7
3.125	81872.7
3.130	81890.7
3.135	81910.7
3.140	81916.7
3.145	81922.7
3.150	81922.7
3.155	81918.7
3.160	81918.7
3.165	81919.7
3.170	81925.7
3.175	81922.7
3.180	81923.7
3.185	81914.8
3.190	81866.8
3.195	81884.8
3.200	81909.8
3.205	81927.8
3.210	81939.8
3.215	81966.8
3.220	81980.8
3.225	81974.8
3.230	81942.9
3.235	81924.9
3.240	81906.9
3.245	81890.9
3.250	81870.9
3.255	81868.9
3.260	81883.9
3.265	81926.9
3.270	81914.9
3.275	81913.9
3.280	81903.9
3.285	81892.9
3.290	81873.9
3.295	81859.9
3.300	81850.9
3.305	81873.9
3.310	81887.8
3.315	81891.8
3.320	81844.8
3.325	81841.8
3.330	81890.7
3.335	81936.7
3.340	81920.7
3.345	81876.7
3.350	81791.8
3.355	81748.8
3.360	81785.8
3.365	81864.8
3.370	81907.8
3.375	81932.9
3.380	81928.0
3.385	81903.1
3.390	81902.2
3.395	81894.4
3.400	81872.5
3.405	81899.6
3.410	81972.7
3.415	82006.7
3.420	81976.8
3.425	81966.8
3.430	81967.8
3.435	81995.8
3.440	82014.7
3.445	82026.7
3.450	82014.7
3.455	82009.7
3.460	82008.7
3.465	82055.7
3.470	82068.7
3.475	82070.7
3.480	82053.8
3.485	82049.8
3.490	82054.9
3.495	82051.9
3.500	82047.0
3.505	82058.0
3.510	82070.1
3.515	82065.2
3.520	82052.2
3.525	82044.3
3.530	82071.4
3.535	82079.4
3.540	82089.5
3.545	82099.6
3.550	82107.6
3.555	82106.7
3.560	82112.7
3.565	82104.8
3.570	82105.8
3.575	82097.9
3.580	82075.9
3.585	82060.0
3.590	82042.0
3.595	82055.0
3.600	82068.0
3.605	82068.0
3.610	82059.1
3.615	82050.1
3.620	82062.1
3.625	82072.1
3.630	82061.1
3.635	82071.1
3.640	82062.1
3.645	82059.2
3.650	82044.2
3.655	82037.2
3.660	82041.2
3.665	82077.2
3.670	82073.2
3.675	82091.2
3.680	82079.3
3.685	82081.3
3.690	82081.3
3.695	82082.3
3.700	82082.3
3.705	82094.3
3.710	82104.3
3.715	82111.3
3.720	82105.4
3.725	82080.4
3.730	82110.4
3.735	82120.4
3.740	82119.4
3.745	82125.4
3.750	82121.5
3.755	82131.5
3.760	82129.5
3.765	82136.5
3.770	82150.5
3.775	82152.5
3.780	82148.6
3.785	82132.6
3.790	82123.6
3.795	82144.7
3.800	82164.7
3.805	82170.7
3.810	82165.7
3.815	82153.8
3.820	82160.8
3.825	82163.8
3.830	82164.8
3.835	82169.9
3.840	82175.9
3.845	82178.9
3.850	82171.0
3.855	82149.0
3.860	82159.1
3.865	82200.1
3.870	82192.1
3.875	82199.1
3.880	82186.2
3.885	82198.2
3.890	82180.3
3.895	82161.4
3.900	82155.4
3.905	82143.5
3.910	82112.5
3.915	82103.6
3.920	82060.7
3.925	82049.8
3.930	82061.8
3.935	82055.9
3.940	82033.0
3.945	82015.0
3.950	81980.1
3.955	81953.3
3.960	81922.4
3.965	81886.5
3.970	81902.6
3.975	81941.7
3.980	81557.1
3.985	81020.6
3.990	81007.8
3.995	81478.7
4.000	81833.7
4.005	81968.8
4.010	82007.0
4.015	81914.4
4.020	81663.9
4.025	81495.3
4.030	81572.5
4.035	81694.6
4.040	81696.8
4.045	81661.0
4.050	81591.1
4.055	81542.1
4.060	81524.0
4.065	81495.8
4.070	81427.6
4.075	81405.2
4.080	81427.6
4.085	81471.0
4.090	81513.2
4.095	81582.3
4.100	81646.3
4.105	81727.5
4.110	81779.7
4.115	81820.1
4.120	81828.8
4.125	81836.5
4.130	81858.3
4.135	81864.2
4.140	81849.2
4.145	81840.1
4.150	81828.1
4.155	81834.1
4.160	81821.0
4.165	81823.0
4.170	81823.0
4.175	81831.0
4.180	81832.0
4.185	81820.0
4.190	81803.0
4.195	81823.0
4.200	81840.0
4.205	81840.0
4.210	81819.0
4.215	81819.0
4.220	81807.0
4.225	81823.0
4.230	81825.0
4.235	81848.9
4.240	81861.9
4.245	81874.9
4.250	81851.9
4.255	81824.9
4.260	81819.9
4.265	81842.9
4.270	81858.9
4.275	81879.9
4.280	81895.9
4.285	81891.9
4.290	81884.9
4.295	81876.9
4.300	81871.9
4.305	81869.9
4.310	81855.9
4.315	81844.9
4.320	81811.9
4.325	81814.9
4.330	81856.9
4.335	81867.8
4.340	81877.8
4.345	81874.8
4.350	81867.8
4.355	81864.8
4.360	81867.8
4.365	81869.8
4.370	81871.8
4.375	81905.8
4.380	81907.8
4.385	81881.8
4.390	81841.9
4.395	81868.8
4.400	81903.8
4.405	81913.8
4.410	81911.8
4.415	81901.8
4.420	81891.8
4.425	81866.8
4.430	81866.8
4.435	81871.8
4.440	81868.8
4.445	81881.8
4.450	81864.8
4.455	81862.8
4.460	81868.8
4.465	81903.7
4.470	81889.7
4.475	81884.7
4.480	81864.8
4.485	81872.7
4.490	81868.7
4.495	81880.7
4.500	81882.7
4.505	81900.7
4.510	81908.7
4.515	81901.7
4.520	81892.7
4.525	81893.7
4.530	81927.7
4.535	81932.6
4.540	81902.7
4.545	81895.7
4.550	81887.7
4.555	81878.6
4.560	81868.6
4.565	81871.6
4.570	81883.6
4.575	81884.6
4.580	81876.6
4.585	81841.7
4.590	81826.7
4.595	81853.6
4.600	81863.6
4.605	81864.6
4.610	81878.6
4.615	81880.6
4.620	81875.6
4.625	81890.6
4.630	81896.6
4.635	81913.6
4.640	81913.6
4.645	81912.6
4.650	81872.6
4.655	81845.6
4.660	81845.6
4.665	81880.5
4.670	81865.5
4.675	81861.5
4.680	81857.5
4.685	81870.5
4.690	81870.5
4.695	81867.5
4.700	81857.5
4.705	81857.5
4.710	81854.5
4.715	81849.5
4.720	81814.5
4.725	81806.5
4.730	81839.5
4.735	81865.5
4.740	81878.4
4.745	81884.4
4.750	81847.4
4.755	81839.5
4.760	81847.5
4.765	81848.4
4.770	81845.4
4.775	81853.4
4.780	81860.4
4.785	81841.4
4.790	81832.4
4.795	81844.4
4.800	81846.4
4.805	81849.4
4.810	81861.3
4.815	81864.3
4.820	81867.3
4.825	81870.3
4.830	81855.3
4.835	81853.3
4.840	81829.3
4.845	81826.3
4.850	81790.3
4.855	81784.3
4.860	81805.3
4.865	81864.2
4.870	81868.2
4.875	81854.2
4.880	81842.2
4.885	81811.2
4.890	81805.2
4.895	81807.2
4.900	81812.2
4.905	81828.2
4.910	81830.2
4.915	81816.2
4.920	81791.2
4.925	81793.2
4.930	81837.2
4.935	81849.1
4.940	81865.1
4.945	81861.1
4.950	81843.1
4.955	81849.1
4.960	81832.1
4.965	81826.0
4.970	81819.0
4.975	81830.0
4.980	81822.0
4.985	81796.0
4.990	81789.0
4.995	81816.0
5.000	81834.9
5.005	81829.9
5.010	81830.9
5.015	81833.9
5.020	81832.9
5.025	81808.9
5.030	81798.8
5.035	81780.8
5.040	81783.8
5.045	81807.8
5.050	81795.8
5.055	81804.7
5.060	81808.7
5.065	81812.7
5.070	81791.7
5.075	81801.7
5.080	81785.7
5.085	81782.6
5.090	81772.6
5.095	81790.6
5.100	81805.6
5.105	81799.5
5.110	81789.5
5.115	81787.5
5.120	81768.5
5.125	81781.5
5.130	81799.4
5.135	81817.4
5.140	81808.4
5.145	81787.3
5.150	81777.3
5.155	81800.3
5.160	81795.2
5.165	81785.2
5.170	81796.1
5.175	81825.1
5.180	81823.0
5.185	81803.0
5.190	81761.0
5.195	81791.9
5.200	81800.8
5.205	81786.8
5.210	81794.7
5.215	81789.7
5.220	81779.6
5.225	81789.6
5.230	81801.5
5.235	81806.4
5.240	81785.4
5.245	81785.3
5.250	81730.2
5.255	81709.2
5.260	81692.1
5.265	81713.0
5.270	81688.9
5.275	81685.8
5.280	81661.7
5.285	81653.5
5.290	81610.4
5.295	81589.2
5.300	81547.0
5.305	81511.8
5.310	81447.6
5.315	81391.4
5.320	81285.2
5.325	81190.0
5.330	81143.8
5.335	81054.7
5.340	81006.7
5.345	80944.6
5.350	80849.7
5.355	80823.8
5.360	80782.0
5.365	80763.2
5.370	80772.6
5.375	80818.1
5.380	80856.6
5.385	80860.2
5.390	80927.0
5.395	81107.8
5.400	81337.6
5.405	81572.1
5.410	81740.5
5.415	81833.8
5.420	81892.9
5.425	81931.9
5.430	81939.0
5.435	81962.9
5.440	81972.0
5.445	81977.0
5.450	81964.0
5.455	81947.0
5.460	81960.0
5.465	81987.9
5.470	81988.9
5.475	81987.9
5.480	81979.9
5.485	81980.9
5.490	81972.0
5.495	81989.9
5.500	81980.9
5.505	81993.9
5.510	81997.9
5.515	81993.9
5.520	81969.0
5.525	81985.9
5.530	82021.9
5.535	82013.9
5.540	82009.9
5.545	82006.9
5.550	82021.9
5.555	82024.9
5.560	82021.9
5.565	82029.9
5.570	82036.9
5.575	82034.9
5.580	82033.9
5.585	82012.9
5.590	81992.9
5.595	82030.9
5.600	82034.9
5.605	82044.9
5.610	82035.9
5.615	82035.9
5.620	82028.9
5.625	82034.9
5.630	82042.9
5.635	82040.9
5.640	82039.9
5.645	82054.9
5.650	82019.0
5.655	82020.0
5.660	82037.0
5.665	82064.0
5.670	82045.0
5.675	82048.0
5.680	82052.0
5.685	82049.1
5.690	82051.1
5.695	82047.1
5.700	82041.1
5.705	82041.1
5.710	82049.1
5.715	82037.1
5.720	82019.1
5.725	82010.1
5.730	82056.0
5.735	82065.0
5.740	82056.0
5.745	82055.0
5.750	82039.0
5.755	82026.0
5.760	82010.0
5.765	82004.0
5.770	81990.0
5.775	81993.0
5.780	81968.0
5.785	81950.0
5.790	81943.0
5.795	81982.0
5.800	81984.0
5.805	81974.0
5.810	81956.0
5.815	81947.0
5.820	81941.0
5.825	81937.0
5.830	81937.0
5.835	81933.0
5.840	81939.0
5.845	81934.0
5.850	81916.0
5.855	81892.0
5.860	81907.0
5.865	81928.0
5.870	81928.0
5.875	81943.0
5.880	81952.0
5.885	81965.0
5.890	81961.0
5.895	81958.0
5.900	81971.0
5.905	81976.0
5.910	81993.0
5.915	81972.0
5.920	81960.0
5.925	81976.0
5.930	82003.0
5.935	82007.0
5.940	82002.0
5.945	82009.0
5.950	81993.0
5.955	81992.0
5.960	81997.0
5.965	82012.0
5.970	82005.0
5.975	82016.0
5.980	82009.0
5.985	81979.0
5.990	81963.0
5.995	81985.0
6.000	81997.0
6.005	81999.0
6.010	81997.0
6.015	82000.0
6.020	81997.0
6.025	82004.0
6.030	81988.0
6.035	81984.0
6.040	81972.0
6.045	81968.0
6.050	81924.0
6.055	81911.0
6.060	81910.0
6.065	81911.0
6.070	81905.1
6.075	81889.1
6.080	81852.1
6.085	81821.1
6.090	81796.1
6.095	81783.1
6.100	81770.2
6.105	81777.2
6.110	81781.1
6.115	81764.2
6.120	81746.2
6.125	81763.2
6.130	81795.1
6.135	81803.1
6.140	81803.1
6.145	81825.1
6.150	81827.1
6.155	81849.1
6.160	81862.1
6.165	81887.1
6.170	81889.1
6.175	81899.1
6.180	81893.1
6.185	81887.1
6.190	81896.1
6.195	81937.0
6.200	81940.0
6.205	81942.0
6.210	81936.0
6.215	81947.0
6.220	81949.0
6.225	81955.0
6.230	81946.0
6.235	81952.0
6.240	81950.0
6.245	81961.0
6.250	81929.0
6.255	81924.1
6.260	81946.0
6.265	81964.0
6.270	81968.0
6.275	81969.0
6.280	81975.0
6.285	81976.0
6.290	81968.0
6.295	81975.0
6.300	81969.0
6.305	81977.0
6.310	81975.0
6.315	81959.0
6.320	81940.0
6.325	81947.0
6.330	81978.0
6.335	81993.0
6.340	81995.0
6.345	81987.0
6.350	81980.0
6.355	81980.0
6.360	81985.0
6.365	81981.0
6.370	81984.0
6.375	81994.0
6.380	81988.0
6.385	81976.0
6.390	81964.0
6.395	82001.0
6.400	82003.0
6.405	82008.0
6.410	82012.0
6.415	82013.0
6.420	82012.0
6.425	82005.0
6.430	82016.0
6.435	82013.0
6.440	82000.0
6.445	81994.0
6.450	81965.0
6.455	81958.0
6.460	81980.0
6.465	81996.0
6.470	81995.0
6.475	81984.0
6.480	81987.0
6.485	81993.0
6.490	82000.0
6.495	82008.0
6.500	82007.0
6.505	82028.0
6.510	82029.0
6.515	82023.0
6.520	82000.0
6.525	82020.0
6.530	82048.0
6.535	82057.0
6.540	82052.0
6.545	82061.0
6.550	82056.0
6.555	82066.0
6.560	82071.0
6.565	82072.0
6.570	82083.0
6.575	82078.0
6.580	82070.0
6.585	82053.0
6.590	82057.0
6.595	82107.9
6.600	82087.0
6.605	82087.0
6.610	82080.0
6.615	82071.0
6.620	82052.0
6.625	82049.0
6.630	82015.0
6.635	81992.0
6.640	81956.1
6.645	81920.1
6.650	81846.1
6.655	81787.2
6.660	81770.2
6.665	81761.2
6.670	81730.2
6.675	81683.3
6.680	81626.3
6.685	81540.4
6.690	81469.4
6.695	81438.5
6.700	81429.5
6.705	81452.4
6.710	81474.4
6.715	81488.4
6.720	81550.4
6.725	81633.3
6.730	81748.2
6.735	81826.2
6.740	81876.1
6.745	81935.1
6.750	81963.1
6.755	82019.0
6.760	82042.0
6.765	82070.0
6.770	82093.0
6.775	82110.0
6.780	82115.9
6.785	82109.0
6.790	82105.0
6.795	82155.9
6.800	82160.9
6.805	82156.9
6.810	82155.9
6.815	82151.9
6.820	82156.9
6.825	82150.9
6.830	82157.9
6.835	82157.9
6.840	82151.9
6.845	82151.9
6.850	82125.9
6.855	82119.9
6.860	82140.9
6.865	82160.9
6.870	82163.9
6.875	82153.9
6.880	82152.9
6.885	82149.9
6.890	82152.9
6.895	82150.9
6.900	82155.9
6.905	82152.9
6.910	82157.9
6.915	82143.9
6.920	82113.0
6.925	82128.9
6.930	82163.9
6.935	82169.9
6.940	82158.9
6.945	82165.9
6.950	82148.9
6.955	82158.9
6.960	82146.9
6.965	82164.9
6.970	82162.9
6.975	82164.9
6.980	82133.9
6.985	82100.0
6.990	82102.0
6.995	82138.9
7.000	82136.9
7.005	82132.9
7.010	82132.9
7.015	82133.9
7.020	82119.0
7.025	82125.0
7.030	82120.0
7.035	82122.0
7.040	82123.0
7.045	82119.0
7.050	82090.0
7.055	82082.0
7.060	82097.0
7.065	82110.0
7.070	82106.0
7.075	82116.0
7.080	82103.0
7.085	82102.0
7.090	82087.0
7.095	82094.0
7.100	82092.0
7.105	82096.0
7.110	82080.0
7.115	82065.0
7.120	82038.0
7.125	82053.0
7.130	82063.0
7.135	82074.0
7.140	82068.0
7.145	82063.0
7.150	82064.0
7.155	82051.0
7.160	82055.0
7.165	82055.0
7.170	82056.0
7.175	82066.0
7.180	82045.0
7.185	82026.0
7.190	82010.1
7.195	82052.0
7.200	82047.0
7.205	82048.0
7.210	82041.0
7.215	82043.0
7.220	82042.0
7.225	82045.0
7.230	82042.0
7.235	82046.0
7.240	82043.0
7.245	82030.0
7.250	82003.1
7.255	81998.1
7.260	82026.1
7.265	82039.0
7.270	82032.1
7.275	82020.1
7.280	82023.1
7.285	82022.1
7.290	82020.1
7.295	82039.1
7.300	82031.1
7.305	82032.1
7.310	82032.1
7.315	82009.1
7.320	81990.1
7.325	82004.1
7.330	82030.1
7.335	82035.1
7.340	82032.1
7.345	82038.1
7.350	82030.1
7.355	82039.1
7.360	82026.1
7.365	82032.1
7.370	82018.1
7.375	82026.1
7.380	82003.1
7.385	81992.1
7.390	81990.1
7.395	82026.1
7.400	82019.1
7.405	82013.1
7.410	82022.1
7.415	82027.1
7.420	82022.1
7.425	82020.1
7.430	82009.1
7.435	82021.1
7.440	82025.1
7.445	82021.1
7.450	82001.1
7.455	81990.1
7.460	82015.1
7.465	82020.1
7.470	82029.1
7.475	82034.1
7.480	82030.1
7.485	82022.1
7.490	82020.1
7.495	82028.1
7.500	82014.1
7.505	82026.1
7.510	82014.1
7.515	82002.1
7.520	81986.1
7.525	82001.1
7.530	82026.1
7.535	82032.1
7.540	82020.1
7.545	82022.1
7.550	82021.1
7.555	82020.1
7.560	82019.1
7.565	82019.1
7.570	82022.1
7.575	82033.1
7.580	82018.1
7.585	81996.1
7.590	81989.1
7.595	82028.1
7.600	82031.1
7.605	82027.1
7.610	82024.1
7.615	82034.1
7.620	82020.1
7.625	82019.1
7.630	82019.1
7.635	82019.1
7.640	82007.1
7.645	82002.1
7.650	81975.1
7.655	81963.2
7.660	81996.1
7.665	82005.1
7.670	81991.1
7.675	81991.1
7.680	81994.1
7.685	81988.1
7.690	81994.1
7.695	81989.1
7.700	81984.2
7.705	81996.1
7.710	81987.2
7.715	81958.2
7.720	81944.2
7.725	81963.2
7.730	81979.2
7.735	81982.2
7.740	81978.2
7.745	81978.2
7.750	81975.2
7.755	81981.2
7.760	81976.2
7.765	81978.2
7.770	81978.2
7.775	81982.2
7.780	81961.2
7.785	81946.2
7.790	81946.2
7.795	81992.2
7.800	81988.2
7.805	81998.2
7.810	81988.2
7.815	81991.2
7.820	81993.2
7.825	81997.2
7.830	82000.2
7.835	82008.2
7.840	82017.2
7.845	82018.2
7.850	82002.2
7.855	82007.2
7.860	82034.1
7.865	82035.1
7.870	82043.1
7.875	82050.1
7.880	82051.1
7.885	82056.1
7.890	82070.1
7.895	82083.1
7.900	82088.1
7.905	82094.1
7.910	82095.1
7.915	82065.1
7.920	82068.1
7.925	82089.1
7.930	82111.1
7.935	82120.1
7.940	82112.1
7.945	82115.1
7.950	82112.1
7.955	82118.1
7.960	82114.1
7.965	82117.1
7.970	82125.1
7.975	82125.1
7.980	82101.1
7.985	82081.1
7.990	82090.1
7.995	82136.1
8.000	82134.1
8.005	82144.1
8.010	82136.1
8.015	82136.1
8.020	82139.1
8.025	82135.1
8.030	82132.1
8.035	82132.1
8.040	82130.1
8.045	82114.1
8.050	82095.1
8.055	82096.1
8.060	82115.1
8.065	82126.1
8.070	82115.1
8.075	82113.1
8.080	82098.1
8.085	82092.2
8.090	82060.2
8.095	82039.2
8.100	82016.2
8.105	81999.2
8.110	81976.2
8.115	81950.3
8.120	81916.3
8.125	81938.3
8.130	81967.3
8.135	82013.2
8.140	82025.2
8.145	82042.2
8.150	82023.2
8.155	82028.2
8.160	82034.2
8.165	82032.2
8.170	82033.2
8.175	82032.2
8.180	82005.2
8.185	81982.3
8.190	82005.3
8.195	82052.2
8.200	82062.2
8.205	82082.2
8.210	82086.2
8.215	82111.2
8.220	82112.2
8.225	82122.2
8.230	82117.2
8.235	82135.2
8.240	82123.2
8.245	82122.2
8.250	82092.2
8.255	82089.2
8.260	82120.2
8.265	82122.2
8.270	82118.2
8.275	82119.2
8.280	82122.2
8.285	82122.2
8.290	82122.2
8.295	82127.2
8.300	82113.2
8.305	82114.2
8.310	82117.2
8.315	82092.2
8.320	82076.2
8.325	82105.2
8.330	82103.2
8.335	82110.2
8.340	82100.2
8.345	82101.2
8.350	82087.3
8.355	82096.2
8.360	82090.3
8.365	82081.3
8.370	82083.3
8.375	82095.3
8.380	82069.3
8.385	82046.3
8.390	82044.3
8.395	82073.3
8.400	82057.3
8.405	82067.3
8.410	82059.3
8.415	82064.3
8.420	82049.3
8.425	82048.3
8.430	82032.3
8.435	82033.3
8.440	82009.3
8.445	81978.4
8.450	81954.4
8.455	81939.4
8.460	81975.4
8.465	81981.4
8.470	81962.4
8.475	81962.4
8.480	81952.4
8.485	81940.4
8.490	81923.4
8.495	81907.4
8.500	81891.5
8.505	81895.5
8.510	81878.5
8.515	81866.5
8.520	81856.5
8.525	81883.5
8.530	81900.5
8.535	81915.5
8.540	81918.5
8.545	81928.5
8.550	81933.5
8.555	81932.5
8.560	81930.5
8.565	81942.5
8.570	81961.4
8.575	81988.4
8.580	81987.4
8.585	81991.4
8.590	82014.4
8.595	82056.4
8.600	82056.4
8.605	82052.4
8.610	82035.4
8.615	82041.4
8.620	82034.4
8.625	82029.4
8.630	82024.4
8.635	82036.4
8.640	82040.4
8.645	82037.4
8.650	82018.5
8.655	82011.5
8.660	82040.4
8.665	82025.5
8.670	82002.5
8.675	81964.5
8.680	81897.6
8.685	81775.7
8.690	81412.9
8.695	81069.2
8.700	81173.1
8.705	81568.8
8.710	81858.6
8.715	81960.5
8.720	81957.6
8.725	81967.5
8.730	81986.5
8.735	81998.5
8.740	82008.5
8.745	82005.5
8.750	81996.5
8.755	81985.6
8.760	81991.6
8.765	81986.6
8.770	81997.6
8.775	82008.6
8.780	81981.6
8.785	81957.6
8.790	81959.6
8.795	81916.6
8.800	81819.7
8.805	81821.7
8.810	81923.7
8.815	81981.6
8.820	81987.6
8.825	81986.6
8.830	81987.6
8.835	82002.6
8.840	81992.6
8.845	81974.6
8.850	81964.7
8.855	81973.7
8.860	81991.6
8.865	81991.7
8.870	81987.7
8.875	81991.7
8.880	81988.7
8.885	81992.7
8.890	81986.7
8.895	81991.7
8.900	81996.7
8.905	82018.7
8.910	82008.7
8.915	81991.7
8.920	81954.8
8.925	81927.8
8.930	81898.8
8.935	81964.7
8.940	82014.7
8.945	82017.7
8.950	82023.7
8.955	82019.8
8.960	82020.8
8.965	82029.8
8.970	82016.8
8.975	82020.8
8.980	81983.8
8.985	81980.8
8.990	81983.8
8.995	82016.8
9.000	82006.8
9.005	82006.8
9.010	82013.8
9.015	82017.8
9.020	82018.9
9.025	82031.9
9.030	82029.9
9.035	82038.9
9.040	82043.9
9.045	82021.9
9.050	81991.9
9.055	82007.9
9.060	82029.9
9.065	82040.9
9.070	82044.9
9.075	82043.0
9.080	82034.0
9.085	82054.0
9.090	82049.0
9.095	82055.0
9.100	82057.0
9.105	82066.0
9.110	82051.0
9.115	82033.1
9.120	82021.1
9.125	82045.1
9.130	82061.1
9.135	82061.1
9.140	82050.1
9.145	82051.1
9.150	82053.1
9.155	82059.2
9.160	82060.2
9.165	82067.2
9.170	82073.2
9.175	82084.2
9.180	82059.3
9.185	82046.3
9.190	82058.3
9.195	82092.3
9.200	82089.3
9.205	82086.3
9.210	82079.4
9.215	82101.4
9.220	82083.4
9.225	82086.5
9.230	82088.5
9.235	82089.5
9.240	82085.5
9.245	82065.6
9.250	82044.6
9.255	82065.7
9.260	82109.7
9.265	82110.7
9.270	82123.7
9.275	82125.8
9.280	82127.8
9.285	82130.9
9.290	82132.9
9.295	82124.0
9.300	82112.0
9.305	82119.1
9.310	82116.1
9.315	82101.2
9.320	82087.3
9.325	82101.4
9.330	82094.5
9.335	82072.6
9.340	81992.8
9.345	81973.9
9.350	81908.1
9.355	81759.4
9.360	81793.6
9.365	81808.9
9.370	81513.3
9.375	81029.9
9.380	80668.4
9.385	80768.6
9.390	81143.5
9.395	81480.3
9.400	81576.3
9.405	81551.4
9.410	81470.3
9.415	81418.2
9.420	81414.0
9.425	81460.6
9.430	81531.1
9.435	81593.5
9.440	81669.8
9.445	81723.0
9.450	81749.2
9.455	81802.6
9.460	81874.2
9.465	81904.9
9.470	81924.8
9.475	81941.7
9.480	81943.7
9.485	81952.6
9.490	81940.6
9.495	81947.6
9.500	81932.6
9.505	81947.6
9.510	81933.6
9.515	81916.6
9.520	81915.6
9.525	81938.6
9.530	81946.6
9.535	81957.6
9.540	81943.6
9.545	81936.6
9.550	81941.6
9.555	81942.6
9.560	81938.6
9.565	81943.6
9.570	81960.6
9.575	81962.6
9.580	81930.6
9.585	81925.6
9.590	81937.6
9.595	81960.6
9.600	81966.6
9.605	81970.6
9.610	81967.6
9.615	81961.6
9.620	81963.6
9.625	81970.6
9.630	81958.6
9.635	81957.6
9.640	81948.6
9.645	81946.6
9.650	81918.6
9.655	81935.6
9.660	81969.6
9.665	81968.6
9.670	81961.6
9.675	81955.6
9.680	81952.6
9.685	81952.6
9.690	81950.6
9.695	81955.6
9.700	81958.6
9.705	81971.6
9.710	81968.6
9.715	81940.6
9.720	81929.6
9.725	81959.6
9.730	81958.6
9.735	81951.6
9.740	81958.6
9.745	81959.6
9.750	81951.6
9.755	81949.6
9.760	81958.6
9.765	81968.6
9.770	81954.6
9.775	81949.6
9.780	81922.6
9.785	81910.6
9.790	81919.6
9.795	81940.6
9.800	81933.6
9.805	81935.6
9.810	81925.6
9.815	81915.6
9.820	81916.6
9.825	81915.6
9.830	81911.6
9.835	81904.6
9.840	81910.6
9.845	81894.6
9.850	81869.7
9.855	81867.7
9.860	81895.6
9.865	81897.6
9.870	81894.6
9.875	81873.7
9.880	81884.6
9.885	81875.7
9.890	81863.7
9.895	81879.7
9.900	81867.7
9.905	81862.7
9.910	81845.7
9.915	81823.7
9.920	81815.7
9.925	81849.7
9.930	81842.7
9.935	81834.7
9.940	81827.7
9.945	81830.7
9.950	81824.7
9.955	81827.7
9.960	81823.7
9.965	81824.7
9.970	81828.7
9.975	81828.7
9.980	81787.7
9.985	81766.7
9.990	81778.7
9.995	81789.7
10.000	81780.7
10.005	81787.7
10.010	81791.7
10.015	81786.7
10.020	81788.7
10.025	81780.7
10.030	81779.7
10.035	81776.7
10.040	81780.7
10.045	81753.7
10.050	81736.8
10.055	81750.7
10.060	81774.7
10.065	81761.7
10.070	81756.7
10.075	81755.7
10.080	81741.8
10.085	81742.8
10.090	81736.8
10.095	81733.8
10.100	81737.8
10.105	81745.8
10.110	81723.8
10.115	81709.8
10.120	81704.8
10.125	81730.8
10.130	81738.8
10.135	81742.8
10.140	81737.8
10.145	81736.8
10.150	81722.8
10.155	81726.8
10.160	81718.8
10.165	81723.8
10.170	81716.8
10.175	81714.8
10.180	81698.8
10.185	81691.8
10.190	81718.8
10.195	81729.8
10.200	81725.8
10.205	81729.8
10.210	81716.8
10.215	81731.8
10.220	81733.8
10.225	81740.7
10.230	81727.8
10.235	81747.7
10.240	81742.7
10.245	81739.7
10.250	81723.8
10.255	81739.7
10.260	81763.7
10.265	81779.7
10.270	81778.7
10.275	81790.7
10.280	81789.7
10.285	81794.7
10.290	81797.7
10.295	81799.7
10.300	81793.7
10.305	81789.7
10.310	81776.7
10.315	81753.7
10.320	81762.7
10.325	81795.7
10.330	81801.7
10.335	81804.7
10.340	81806.7
10.345	81803.7
10.350	81801.7
10.355	81815.7
10.360	81809.7
10.365	81816.7
10.370	81828.7
10.375	81837.7
10.380	81821.7
10.385	81814.7
10.390	81831.7
10.395	81839.7
10.400	81845.7
10.405	81854.7
10.410	81841.7
10.415	81832.7
10.420	81827.7
10.425	81838.7
10.430	81829.7
10.435	81831.7
10.440	81834.7
10.445	81806.7
10.450	81788.7
10.455	81815.7
10.460	81844.7
10.465	81848.7
10.470	81861.6
10.475	81859.6
10.480	81871.6
10.485	81877.6
10.490	81873.6
10.495	81875.6
10.500	81872.6
10.505	81881.6
10.510	81862.6
10.515	81857.6
10.520	81844.7
10.525	81885.6
10.530	81881.6
10.535	81885.6
10.540	81881.6
10.545	81889.6
10.550	81889.6
10.555	81883.6
10.560	81890.6
10.565	81896.6
10.570	81886.6
10.575	81886.6
10.580	81860.6
10.585	81865.6
10.590	81874.6
10.595	81884.6
10.600	81880.6
10.605	81877.6
10.610	81865.6
10.615	81865.6
10.620	81871.6
10.625	81880.6
10.630	81876.6
10.635	81891.6
10.640	81894.6
10.645	81866.6
10.650	81872.6
10.655	81863.6
10.660	81883.6
10.665	81887.6
10.670	81889.6
10.675	81899.6
10.680	81888.6
10.685	81899.6
10.690	81893.6
10.695	81890.6
10.700	81885.6
10.705	81892.6
10.710	81859.6
10.715	81837.7
10.720	81845.6
10.725	81895.6
10.730	81880.6
10.735	81883.6
10.740	81881.6
10.745	81871.6
10.750	81879.6
10.755	81894.6
10.760	81891.6
10.765	81903.6
10.770	81901.6
10.775	81903.6
10.780	81878.6
10.785	81871.6
10.790	81892.6
10.795	81898.6
10.800	81897.6
10.805	81907.6
10.810	81899.6
10.815	81899.6
10.820	81887.6
10.825	81902.6
10.830	81904.6
10.835	81902.6
10.840	81900.6
10.845	81869.6
10.850	81850.6
10.855	81858.6
10.860	81880.6
10.865	81873.6
10.870	81874.6
10.875	81868.6
10.880	81867.6
10.885	81866.6
10.890	81878.6
10.895	81883.6
10.900	81877.6
10.905	81876.6
10.910	81857.6
10.915	81838.6
10.920	81844.6
10.925	81869.6
10.930	81858.6
10.935	81871.6
10.940	81862.6
10.945	81852.6
10.950	81851.6
10.955	81855.6
10.960	81844.6
10.965	81850.6
10.970	81849.6
10.975	81838.6
10.980	81816.7
10.985	81812.7
10.990	81839.6
10.995	81846.6
11.000	81849.6
11.005	81851.6
11.010	81851.6
11.015	81838.6
11.020	81843.6
11.025	81827.7
11.030	81831.6
11.035	81843.6
11.040	81846.6
11.045	81821.7
11.050	81795.7
11.055	81816.7
11.060	81827.7
11.065	81828.6
11.070	81822.7
11.075	81823.7
11.080	81811.7
11.085	81816.7
11.090	81802.7
11.095	81802.7
11.100	81795.7
11.105	81796.7
11.110	81759.7
11.115	81750.7
11.120	81749.7
11.125	81780.7
11.130	81772.7
11.135	81765.7
11.140	81757.7
11.145	81769.7
11.150	81758.7
11.155	81769.7
11.160	81773.7
11.165	81776.7
11.170	81774.7
11.175	81764.7
11.180	81742.7
11.185	81737.7
11.190	81753.7
11.195	81765.7
11.200	81762.7
11.205	81758.7
11.210	81756.7
11.215	81765.7
11.220	81761.7
11.225	81752.7
11.230	81746.7
11.235	81747.7
11.240	81745.7
11.245	81720.7
11.250	81708.7
11.255	81736.7
11.260	81743.7
11.265	81745.7
11.270	81747.7
11.275	81750.7
11.280	81742.7
11.285	81737.7
11.290	81737.7
11.295	81743.7
11.300	81738.7
11.305	81744.7
11.310	81731.7
11.315	81711.7
11.320	81712.7
11.325	81753.7
11.330	81749.7
11.335	81749.7
11.340	81741.7
11.345	81744.7
11.350	81754.7
11.355	81755.7
11.360	81753.7
11.365	81757.7
11.370	81752.7
11.375	81745.7
11.380	81719.7
11.385	81717.7
11.390	81748.7
11.395	81754.7
11.400	81756.7
11.405	81753.7
11.410	81754.7
11.415	81749.7
11.420	81751.7
11.425	81756.7
11.430	81752.7
11.435	81755.7
11.440	81758.7
11.445	81744.7
11.450	81731.7
11.455	81753.7
11.460	81774.7
11.465	81778.7
11.470	81780.7
11.475	81766.7
11.480	81763.7
11.485	81771.7
11.490	81760.7
11.495	81767.7
11.500	81762.7
11.505	81765.7
11.510	81739.7
11.515	81735.7
11.520	81729.7
11.525	81759.7
11.530	81756.7
11.535	81756.7
11.540	81750.7
11.545	81750.7
11.550	81751.7
11.555	81754.7
11.560	81755.7
11.565	81760.7
11.570	81766.7
11.575	81757.7
11.580	81729.7
11.585	81728.7
11.590	81767.7
11.595	81768.7
11.600	81770.7
11.605	81776.7
11.610	81770.7
11.615	81766.7
11.620	81765.7
11.625	81768.7
11.630	81779.7
11.635	81771.7
11.640	81762.7
11.645	81740.7
11.650	81728.7
11.655	81754.7
11.660	81766.7
11.665	81764.7
11.670	81763.7
11.675	81766.7
11.680	81748.7
11.685	81754.7
11.690	81739.7
11.695	81754.7
11.700	81765.7
11.705	81772.7
11.710	81753.7
11.715	81747.7
11.720	81747.7
11.725	81776.7
11.730	81774.7
11.735	81764.7
11.740	81757.7
11.745	81750.7
11.750	81748.7
11.755	81746.7
11.760	81742.7
11.765	81743.7
11.770	81755.7
11.775	81734.7
11.780	81707.7
11.785	81710.7
11.790	81744.7
11.795	81746.7
11.800	81738.7
11.805	81740.7
11.810	81736.7
11.815	81734.7
11.820	81727.7
11.825	81731.7
11.830	81735.7
11.835	81734.7
11.840	81730.7
11.845	81723.7
11.850	81703.7
11.855	81727.7
11.860	81753.7
11.865	81748.7
11.870	81749.7
11.875	81748.7
11.880	81732.7
11.885	81738.7
11.890	81723.7
11.895	81726.7
11.900	81727.7
11.905	81729.7
11.910	81708.7
11.915	81696.7
11.920	81713.7
11.925	81734.7
11.930	81729.7
11.935	81723.7
11.940	81726.7
11.945	81720.7
11.950	81726.7
11.955	81724.7
11.960	81720.7
11.965	81725.7
11.970	81721.7
11.975	81717.7
11.980	81697.7
11.985	81701.7
11.990	81719.7
11.995	81728.7
12.000	81725.7
12.005	81728.7
12.010	81721.7
12.015	81715.7
12.020	81713.7
12.025	81717.7
12.030	81713.7
12.035	81714.7
12.040	81707.7
12.045	81680.7
12.050	81667.7
12.055	81709.7
12.060	81718.7
12.065	81724.7
12.070	81718.7
12.075	81723.7
12.080	81714.7
12.085	81727.7
12.090	81722.7
12.095	81732.7
12.100	81724.7
12.105	81740.7
12.110	81714.7
12.115	81706.7
12.120	81715.7
12.125	81740.7
12.130	81749.7
12.135	81744.7
12.140	81740.7
12.145	81747.7
12.150	81736.7
12.155	81739.7
12.160	81735.7
12.165	81742.7
12.170	81737.7
12.175	81723.7
12.180	81710.7
12.185	81709.7
12.190	81745.7
12.195	81746.7
12.200	81733.7
12.205	81743.7
12.210	81746.7
12.215	81744.7
12.220	81740.7
12.225	81747.7
12.230	81752.7
12.235	81769.7
12.240	81775.6
12.245	81757.7
12.250	81739.7
12.255	81772.7
12.260	81787.6
12.265	81783.6
12.270	81784.6
12.275	81793.6
12.280	81784.6
12.285	81785.6
12.290	81792.6
12.295	81803.6
12.300	81801.6
12.305	81801.6
12.310	81770.6
12.315	81762.7
12.320	81788.6
12.325	81816.6
12.330	81826.6
12.335	81817.6
12.340	81813.6
12.345	81807.6
12.350	81812.6
12.355	81829.6
12.360	81824.6
12.365	81842.6
12.370	81833.6
12.375	81831.6
12.380	81810.6
12.385	81815.6
12.390	81842.6
12.395	81854.6
12.400	81845.6
12.405	81854.6
12.410	81847.6
12.415	81851.6
12.420	81854.6
12.425	81867.6
12.430	81867.6
12.435	81871.6
12.440	81855.6
12.445	81845.6
12.450	81841.6
12.455	81880.6
12.460	81892.6
12.465	81886.6
12.470	81883.6
12.475	81887.6
12.480	81882.6
12.485	81893.6
12.490	81888.6
12.495	81893.5
12.500	81903.5
12.505	81919.5
12.510	81888.6
12.515	81886.6
12.520	81901.5
12.525	81926.5
12.530	81927.5
12.535	81936.5
12.540	81933.5
12.545	81941.5
12.550	81929.5
12.555	81932.5
12.560	81940.5
12.565	81943.5
12.570	81936.5
12.575	81927.5
12.580	81913.5
12.585	81919.5
12.590	81945.5
12.595	81945.5
12.600	81943.5
12.605	81950.5
12.610	81947.5
12.615	81950.5
12.620	81954.5
12.625	81961.5
12.630	81962.5
12.635	81973.5
12.640	81954.5
12.645	81940.5
12.650	81924.5
12.655	81973.5
12.660	81974.5
12.665	81982.5
12.670	81982.5
12.675	81989.5
12.680	81982.5
12.685	81985.5
12.690	81987.5
12.695	81988.5
12.700	81985.5
12.705	81990.5
12.710	81955.5
12.715	81958.5
12.720	81978.5
12.725	82002.5
12.730	81998.5
12.735	82002.5
12.740	81991.5
12.745	81993.5
12.750	82001.5
12.755	82008.5
12.760	82001.5
12.765	82010.4
12.770	82020.4
12.775	82008.5
12.780	81993.5
12.785	81993.5
12.790	82022.4
12.795	82028.4
12.800	82024.4
12.805	82030.4
12.810	82032.4
12.815	82032.4
12.820	82036.4
12.825	82034.4
12.830	82035.4
12.835	82030.4
12.840	82027.4
12.845	81995.5
12.850	81996.5
12.855	82039.4
12.860	82038.4
12.865	82032.4
12.870	82028.4
12.875	82027.4
12.880	82034.4
12.885	82026.4
12.890	82027.4
12.895	82035.4
12.900	82044.4
12.905	82039.4
12.910	82018.4
12.915	82007.4
12.920	82031.4
12.925	82053.4
12.930	82064.4
12.935	82069.4
12.940	82059.4
12.945	82063.4
12.950	82046.4
12.955	82057.4
12.960	82058.4
12.965	82062.4
12.970	82060.4
12.975	82037.4
12.980	82021.4
12.985	82037.4
12.990	82068.4
12.995	82062.4
13.000	82070.4
13.005	82064.4
13.010	82057.4
13.015	82056.4
13.020	82073.4
13.025	82077.4
13.030	82075.4
13.035	82079.4
13.040	82069.4
13.045	82053.4
13.050	82029.4
13.055	82070.4
13.060	82077.4
13.065	82082.4
13.070	82066.4
13.075	82073.4
13.080	82075.4
13.085	82071.4
13.090	82066.4
13.095	82068.4
13.100	82062.4
13.105	82076.4
13.110	82029.4
13.115	82032.4
13.120	82046.4
13.125	82078.4
13.130	82065.4
13.135	82060.4
13.140	82060.4
13.145	82058.4
13.150	82053.4
13.155	82053.4
13.160	82047.4
13.165	82052.4
13.170	82063.4
13.175	82050.4
13.180	82016.4
13.185	82020.4
13.190	82050.4
13.195	82056.4
13.200	82047.4
13.205	82048.4
13.210	82040.4
13.215	82043.4
13.220	82026.4
13.225	82037.4
13.230	82022.4
13.235	82026.4
13.240	82007.4
13.245	81990.4
13.250	81968.5
13.255	82001.4
13.260	82008.4
13.265	82010.4
13.270	81994.4
13.275	81997.4
13.280	81999.4
13.285	82000.4
13.290	81997.4
13.295	81996.4
13.300	81987.4
13.305	81994.4
13.310	81964.5
13.315	81952.5
13.320	81964.5
13.325	81982.4
13.330	81982.4
13.335	81978.4
13.340	81969.5
13.345	81964.5
13.350	81960.5
13.355	81966.5
13.360	81970.5
13.365	81960.5
13.370	81954.5
13.375	81930.5
13.380	81917.5
13.385	81922.5
13.390	81950.5
13.395	81946.5
13.400	81942.5
13.405	81944.5
13.410	81927.5
13.415	81933.5
13.420	81938.5
13.425	81946.5
13.430	81937.5
13.435	81940.5
13.440	81935.5
13.445	81914.5
13.450	81897.5
13.455	81938.5
13.460	81937.5
13.465	81937.5
13.470	81935.5
13.475	81935.5
13.480	81935.5
13.485	81929.5
13.490	81930.5
13.495	81935.5
13.500	81924.5
13.505	81929.5
13.510	81895.5
13.515	81888.5
13.520	81900.5
13.525	81916.5
13.530	81916.5
13.535	81925.5
13.540	81906.5
13.545	81912.5
13.550	81915.5
13.555	81918.5
13.560	81908.5
13.565	81918.5
13.570	81925.5
13.575	81904.5
13.580	81884.5
13.585	81897.5
13.590	81923.5
13.595	81932.5
13.600	81922.5
13.605	81932.5
13.610	81929.5
13.615	81929.5
13.620	81920.5
13.625	81927.5
13.630	81936.5
13.635	81928.5
13.640	81909.5
13.645	81892.5
13.650	81897.5
13.655	81930.5
13.660	81938.5
13.665	81937.5
13.670	81927.5
13.675	81932.5
13.680	81925.5
13.685	81939.5
13.690	81937.5
13.695	81943.5
13.700	81947.5
13.705	81955.4
13.710	81922.5
13.715	81915.5
13.720	81942.5
13.725	81962.4
13.730	81960.4
13.735	81962.4
13.740	81970.4
13.745	81963.4
13.750	81964.4
13.755	81968.4
13.760	81966.4
13.765	81963.4
13.770	81971.4
13.775	81948.4
13.780	81937.5
13.785	81959.4
13.790	81981.4
13.795	81981.4
13.800	81975.4
13.805	81983.4
13.810	81986.4
13.815	81978.4
13.820	81986.4
13.825	81986.4
13.830	81989.4
13.835	82005.4
13.840	81992.4
13.845	81976.4
13.850	81966.4
13.855	82000.4
13.860	82008.4
13.865	82014.4
13.870	82009.4
13.875	82014.4
13.880	82003.4
13.885	82003.4
13.890	82003.4
13.895	82005.4
13.900	82005.4
13.905	81999.4
13.910	81980.4
13.915	81975.4
13.920	81991.4
13.925	82008.4
13.930	82007.4
13.935	82005.4
13.940	81999.4
13.945	82008.4
13.950	81996.4
13.955	82007.4
13.960	82014.4
13.965	82017.4
13.970	82009.4
13.975	81997.4
13.980	81985.4
13.985	81994.4
13.990	82015.4
13.995	82016.4
14.000	82010.4
14.005	82018.4
14.010	82014.4
14.015	82025.4
14.020	82014.4
14.025	82008.4
14.030	82001.4
14.035	82011.4
14.040	81994.4
14.045	81987.4
14.050	81987.4
14.055	82025.4
14.060	82016.4
14.065	82018.4
14.070	82016.4
14.075	82018.4
14.080	82009.4
14.085	82027.4
14.090	82023.4
14.095	82034.4
14.100	82027.4
14.105	82033.4
14.110	82009.4
14.115	81997.4
14.120	82010.4
14.125	82023.4
14.130	82030.4
14.135	82034.4
14.140	82027.4
14.145	82031.4
14.150	82028.4
14.155	82031.4
14.160	82032.4
14.165	82031.4
14.170	82025.4
14.175	82003.4
14.180	81989.4
14.185	82006.4
14.190	82027.4
14.195	82029.4
14.200	82023.4
14.205	82016.4
14.210	82011.4
14.215	82012.4
14.220	82023.4
14.225	82027.4
14.230	82021.4
14.235	82033.4
14.240	82015.4
14.245	82005.4
14.250	81995.4
14.255	82036.4
14.260	82031.4
14.265	82031.4
14.270	82027.4
14.275	82027.4
14.280	82015.4
14.285	82018.4
14.290	82019.4
14.295	82022.4
14.300	82024.4
14.305	82008.4
14.310	81988.4
14.315	81992.4
14.320	82011.4
14.325	82017.4
14.330	82006.4
14.335	82012.4
14.340	82001.4
14.345	82000.4
14.350	82012.4
14.355	82016.4
14.360	82013.4
14.365	82021.4
14.370	82022.4
14.375	82004.4
14.380	81980.4
14.385	82000.4
14.390	82019.4
14.395	82009.4
14.400	82008.4
14.405	82020.4
14.410	82016.4
14.415	82012.4
14.420	82004.4
14.425	82014.4
14.430	82005.4
14.435	82003.4
14.440	81977.4
14.445	81974.4
14.450	81976.4
14.455	82004.4
14.460	82005.4
14.465	82001.4
14.470	81992.4
14.475	81994.4
14.480	81998.4
14.485	81991.4
14.490	81994.4
14.495	81998.4
14.500	82011.4
14.505	82009.4
14.510	81970.4
14.515	81970.4
14.520	81994.4
14.525	82010.4
14.530	82012.4
14.535	82008.4
14.540	81997.4
14.545	82003.4
14.550	81987.4
14.555	81996.4
14.560	82000.4
14.565	82004.4
14.570	81989.4
14.575	81963.4
14.580	81950.4
14.585	81974.4
14.590	81985.4
14.595	81986.4
14.600	81985.4
14.605	81972.4
14.610	81971.4
14.615	81978.4
14.620	81968.4
14.625	81977.4
14.630	81972.4
14.635	81982.4
14.640	81963.4
14.645	81956.4
14.650	81949.4
14.655	81972.4
14.660	81974.4
14.665	81976.4
14.670	81974.4
14.675	81974.4
14.680	81959.4
14.685	81961.4
14.690	81952.4
14.695	81964.4
14.700	81961.4
14.705	81939.4
14.710	81922.4
14.715	81918.4
14.720	81935.4
14.725	81937.4
14.730	81938.4
14.735	81941.4
14.740	81925.4
14.745	81920.4
14.750	81924.4
14.755	81908.4
14.760	81906.4
14.765	81923.4
14.770	81922.4
14.775	81900.4
14.780	81884.4
14.785	81906.4
14.790	81919.4
14.795	81914.4
14.800	81902.4
14.805	81899.4
14.810	81883.4
14.815	81872.5
14.820	81878.4
14.825	81879.4
14.830	81873.5
14.835	81877.5
14.840	81849.5
14.845	81831.5
14.850	81831.5
14.855	81861.5
14.860	81856.5
14.865	81855.5
14.870	81855.5
14.875	81852.5
14.880	81847.5
14.885	81851.5
14.890	81863.5
14.895	81860.5
14.900	81861.5
14.905	81863.5
14.910	81834.5
14.915	81824.5
14.920	81864.5
14.925	81863.5
14.930	81859.5
14.935	81863.5
14.940	81869.5
14.945	81878.4
14.950	81872.4
14.955	81881.4
14.960	81872.5
14.965	81889.4
14.970	81885.4
14.975	81861.5
14.980	81846.5
14.985	81871.4
14.990	81879.4
14.995	81878.4
15.000	81883.4
15.005	81886.4
15.010	81884.4
15.015	81881.4
15.020	81886.4
15.025	81892.4
15.030	81891.4
15.035	81909.4
15.040	81877.4
15.045	81874.4
15.050	81874.4
15.055	81908.4
15.060	81902.4
15.065	81906.4
15.070	81902.4
15.075	81909.4
15.080	81909.4
15.085	81911.4
15.090	81911.4
15.095	81907.4
15.100	81900.4
15.105	81896.4
15.110	81873.4
15.115	81875.4
15.120	81889.4
15.125	81904.4
15.130	81896.4
15.135	81896.4
15.140	81894.4
15.145	81888.4
15.150	81886.4
15.155	81887.4
15.160	81888.4
15.165	81896.4
15.170	81895.4
15.175	81865.4
15.180	81850.5
15.185	81867.4
15.190	81873.4
15.195	81880.4
15.200	81879.4
15.205	81879.4
15.210	81874.4
15.215	81869.4
15.220	81858.4
15.225	81864.4
15.230	81868.4
15.235	81879.4
15.240	81837.5
15.245	81826.5
15.250	81839.5
15.255	81854.4
15.260	81843.5
15.265	81837.5
15.270	81829.5
15.275	81835.5
15.280	81831.5
15.285	81827.5
15.290	81820.5
15.295	81832.5
15.300	81841.5
15.305	81830.5
15.310	81800.5
15.315	81788.5
15.320	81819.5
15.325	81820.5
15.330	81817.5
15.335	81815.5
15.340	81806.5
15.345	81810.5
15.350	81797.5
15.355	81796.5
15.360	81787.5
15.365	81796.5
15.370	81787.5
15.375	81766.5
15.380	81746.5
15.385	81792.5
15.390	81782.5
15.395	81779.5
15.400	81773.5
15.405	81787.5
15.410	81783.5
15.415	81776.5
15.420	81771.5
15.425	81766.5
15.430	81775.5
15.435	81774.5
15.440	81758.5
15.445	81737.5
15.450	81738.5
15.455	81772.5
15.460	81770.5
15.465	81774.5
15.470	81775.5
15.475	81777.5
15.480	81773.5
15.485	81777.5
15.490	81765.5
15.495	81766.5
15.500	81774.5
15.505	81761.5
15.510	81730.5
15.515	81741.5
15.520	81771.5
15.525	81776.5
15.530	81765.5
15.535	81768.5
15.540	81757.5
15.545	81768.5
15.550	81762.5
15.555	81767.5
15.560	81774.5
15.565	81790.5
15.570	81782.5
15.575	81763.5
15.580	81750.5
15.585	81786.5
15.590	81801.5
15.595	81801.5
15.600	81792.5
15.605	81794.5
15.610	81795.5
15.615	81794.5
15.620	81790.5
15.625	81795.5
15.630	81794.5
15.635	81802.5
15.640	81775.5
15.645	81768.5
15.650	81779.5
15.655	81813.4
15.660	81809.5
15.665	81820.4
15.670	81813.5
15.675	81808.5
15.680	81806.5
15.685	81810.5
15.690	81810.5
15.695	81826.4
15.700	81838.4
15.705	81819.4
15.710	81801.5
15.715	81795.5
15.720	81821.4
15.725	81831.4
15.730	81842.4
15.735	81842.4
15.740	81842.4
15.745	81832.4
15.750	81824.4
15.755	81832.4
15.760	81825.4
15.765	81823.4
15.770	81826.4
15.775	81815.4
15.780	81815.4
15.785	81836.4
15.790	81843.4
15.795	81844.4
15.800	81842.4
15.805	81845.4
15.810	81833.4
15.815	81838.4
15.820	81829.4
15.825	81842.4
15.830	81852.4
15.835	81866.4
15.840	81828.4
15.845	81817.4
15.850	81829.4
15.855	81864.4
15.860	81871.4
15.865	81872.4
15.870	81875.4
15.875	81870.4
15.880	81869.4
15.885	81865.4
15.890	81854.4
15.895	81856.4
15.900	81865.4
15.905	81829.4
15.910	81807.4
15.915	81823.4
15.920	81853.4
15.925	81859.4
15.930	81857.4
15.935	81854.4
15.940	81855.4
15.945	81851.4
15.950	81844.4
15.955	81850.4
15.960	81858.4
15.965	81865.4
15.970	81852.4
15.975	81839.4
15.980	81826.4
15.985	81859.4
15.990	81857.4
15.995	81861.4
16.000	81857.4
16.005	81856.4
16.010	81847.4
16.015	81847.4
16.020	81849.4
16.025	81855.4
16.030	81852.4
16.035	81836.4
16.040	81811.4
16.045	81809.4
16.050	81822.4
16.055	81842.4
16.060	81832.4
16.065	81830.4
16.070	81826.4
16.075	81828.4
16.080	81826.4
16.085	81838.4
16.090	81823.4
16.095	81833.4
16.100	81832.4
16.105	81824.4
16.110	81799.4
16.115	81805.4
16.120	81824.4
16.125	81833.4
16.130	81826.4
16.135	81834.4
16.140	81831.4
16.145	81837.4
16.150	81830.4
16.155	81831.4
16.160	81827.4
16.165	81834.4
16.170	81835.4
16.175	81810.4
16.180	81796.4
16.185	81826.4
16.190	81834.4
16.195	81829.4
16.200	81823.4
16.205	81819.4
16.210	81812.4
16.215	81822.4
16.220	81825.4
16.225	81824.4
16.230	81818.4
16.235	81828.4
16.240	81801.4
16.245	81789.4
16.250	81800.4
16.255	81828.4
16.260	81814.4
16.265	81824.4
16.270	81813.4
16.275	81808.4
16.280	81805.4
16.285	81810.4
16.290	81798.4
16.295	81797.4
16.300	81797.4
16.305	81778.4
16.310	81752.5
16.315	81754.4
16.320	81779.4
16.325	81790.4
16.330	81788.4
16.335	81782.4
16.340	81775.4
16.345	81778.4
16.350	81774.4
16.355	81777.4
16.360	81773.4
16.365	81779.4
16.370	81770.4
16.375	81741.5
16.380	81739.5
16.385	81766.4
16.390	81759.4
16.395	81761.4
16.400	81765.4
16.405	81762.4
16.410	81763.4
16.415	81766.4
16.420	81758.4
16.425	81769.4
16.430	81762.4
16.435	81774.4
16.440	81735.5
16.445	81732.5
16.450	81758.4
16.455	81770.4
16.460	81766.4
16.465	81762.4
16.470	81763.4
16.475	81771.4
16.480	81780.4
16.485	81768.4
16.490	81767.4
16.495	81779.4
16.500	81791.4
16.505	81776.4
16.510	81753.4
16.515	81754.4
16.520	81787.4
16.525	81787.4
16.530	81783.4
16.535	81790.4
16.540	81792.4
16.545	81795.4
16.550	81781.4
16.555	81789.4
16.560	81783.4
16.565	81782.4
16.570	81752.4
16.575	81734.4
16.580	81726.5
16.585	81767.4
16.590	81762.4
16.595	81768.4
16.600	81756.4
16.605	81756.4
16.610	81739.4
16.615	81733.4
16.620	81736.4
16.625	81747.4
16.630	81735.4
16.635	81746.4
16.640	81715.5
16.645	81710.5
16.650	81734.4
16.655	81742.4
16.660	81725.4
16.665	81739.4
16.670	81742.4
16.675	81730.4
16.680	81724.4
16.685	81737.4
16.690	81731.4
16.695	81749.4
16.700	81736.4
16.705	81708.5
16.710	81694.5
16.715	81705.5
16.720	81721.4
16.725	81715.4
16.730	81699.5
16.735	81706.5
16.740	81689.5
16.745	81684.5
16.750	81686.5
16.755	81683.5
16.760	81680.5
16.765	81664.5
16.770	81657.5
16.775	81634.5
16.780	81628.5
16.785	81655.5
16.790	81652.5
16.795	81651.5
16.800	81636.5
16.805	81616.5
16.810	81607.5
16.815	81604.5
16.820	81605.5
16.825	81610.5
16.830	81612.5
16.835	81620.5
16.840	81572.5
16.845	81544.6
16.850	81547.6
16.855	81556.6
16.860	81555.6
16.865	81553.6
16.870	81540.6
16.875	81525.6
16.880	81513.6
16.885	81505.6
16.890	81492.6
16.895	81500.6
16.900	81512.6
16.905	81505.6
16.910	81487.6
16.915	81496.6
16.920	81526.6
16.925	81528.6
16.930	81515.6
16.935	81501.6
16.940	81493.6
16.945	81493.6
16.950	81510.6
16.955	81523.6
16.960	81518.6
16.965	81539.6
16.970	81518.6
16.975	81508.6
16.980	81507.6
16.985	81544.6
16.990	81525.6
16.995	81518.6
17.000	81527.6
17.005	81542.5
17.010	81531.6
17.015	81543.6
17.020	81538.6
17.025	81557.5
17.030	81564.5
17.035	81567.5
17.040	81558.5
17.045	81556.5
17.050	81579.5
17.055	81602.5
17.060	81593.5
17.065	81603.5
17.070	81597.5
17.075	81604.5
17.080	81577.5
17.085	81596.5
17.090	81594.5
17.095	81604.5
17.100	81589.5
17.105	81565.5
17.110	81548.5
17.115	81579.5
17.120	81605.5
17.125	81616.5
17.130	81609.5
17.135	81606.5
17.140	81590.5
17.145	81604.5
17.150	81600.5
17.155	81616.5
17.160	81615.5
17.165	81620.5
17.170	81599.5
17.175	81589.5
17.180	81599.5
17.185	81639.5
17.190	81629.5
17.195	81633.5
17.200	81621.5
17.205	81626.5
17.210	81625.5
17.215	81628.5
17.220	81620.5
17.225	81617.5
17.230	81608.5
17.235	81611.5
17.240	81582.5
17.245	81579.5
17.250	81580.5
17.255	81602.5
17.260	81588.5
17.265	81600.5
17.270	81599.5
17.275	81605.5
17.280	81595.5
17.285	81598.5
17.290	81606.5
17.295	81616.5
17.300	81612.5
17.305	81593.5
17.310	81566.5
17.315	81588.5
17.320	81599.5
17.325	81593.5
17.330	81598.5
17.335	81606.5
17.340	81597.5
17.345	81591.5
17.350	81578.5
17.355	81574.5
17.360	81582.5
17.365	81588.5
17.370	81570.5
17.375	81556.5
17.380	81555.5
17.385	81591.5
17.390	81573.5
17.395	81578.5
17.400	81582.5
17.405	81595.5
17.410	81583.5
17.415	81588.5
17.420	81586.5
17.425	81608.5
17.430	81605.5
17.435	81609.5
17.440	81577.5
17.445	81570.5
17.450	81602.5
17.455	81616.5
17.460	81620.5
17.465	81618.5
17.470	81621.5
17.475	81622.4
17.480	81619.4
17.485	81622.4
17.490	81628.4
17.495	81629.4
17.500	81618.4
17.505	81587.5
17.510	81578.5
17.515	81600.5
17.520	81624.4
17.525	81620.4
17.530	81613.4
17.535	81610.5
17.540	81588.5
17.545	81585.5
17.550	81574.5
17.555	81588.5
17.560	81594.5
17.565	81608.4
17.570	81591.5
17.575	81585.5
17.580	81578.5
17.585	81615.4
17.590	81610.4
17.595	81620.4
17.600	81611.4
17.605	81616.4
17.610	81613.4
17.615	81621.4
17.620	81622.4
17.625	81626.4
17.630	81618.4
17.635	81611.4
17.640	81590.5
17.645	81587.5
17.650	81611.4
17.655	81624.4
17.660	81611.4
17.665	81624.4
17.670	81633.4
17.675	81631.4
17.680	81638.4
17.685	81644.4
17.690	81640.4
17.695	81647.4
17.700	81653.4
17.705	81636.4
17.710	81631.4
17.715	81643.4
17.720	81658.4
17.725	81667.4
17.730	81672.4
17.735	81662.4
17.740	81664.4
17.745	81681.4
17.750	81694.4
17.755	81699.4
17.760	81688.4
17.765	81691.4
17.770	81680.4
17.775	81674.4
17.780	81667.4
17.785	81701.4
17.790	81715.3
17.795	81721.3
17.800	81718.3
17.805	81725.3
17.810	81722.3
17.815	81737.3
17.820	81755.3
17.825	81760.3
17.830	81766.3
17.835	81777.3
17.840	81748.3
17.845	81736.3
17.850	81763.3
17.855	81780.3
17.860	81801.3
17.865	81805.3
17.870	81797.3
17.875	81805.3
17.880	81809.3
17.885	81811.3
17.890	81823.2
17.895	81823.3
17.900	81815.2
17.905	81787.3
17.910	81789.3
17.915	81805.3
17.920	81822.2
17.925	81823.2
17.930	81816.2
17.935	81808.2
17.940	81818.2
17.945	81825.2
17.950	81802.3
17.955	81796.3
17.960	81797.3
17.965	81809.2
17.970	81797.2
17.975	81770.3
17.980	81761.3
17.985	81802.3
17.990	81791.3
17.995	81803.2
18.000	81810.2
18.005	81809.2
18.010	81799.2
18.015	81794.2
18.020	81782.3
18.025	81777.3
18.030	81775.3
18.035	81765.3
18.040	81738.3
18.045	81739.3
18.050	81758.3
18.055	81756.3
18.060	81758.3
18.065	81751.3
18.070	81750.3
18.075	81755.3
18.080	81747.3
18.085	81734.3
18.090	81741.3
18.095	81763.3
18.100	81759.3
18.105	81739.3
18.110	81714.3
18.115	81737.3
18.120	81760.3
18.125	81781.2
18.130	81768.3
18.135	81766.3
18.140	81761.3
18.145	81765.3
18.150	81760.3
18.155	81762.3
18.160	81748.3
18.165	81745.3
18.170	81733.3
18.175	81717.3
18.180	81712.3
18.185	81735.3
18.190	81727.3
18.195	81730.3
18.200	81723.3
18.205	81730.3
18.210	81719.3
18.215	81723.3
18.220	81720.3
18.225	81715.3
18.230	81731.3
18.235	81725.3
18.240	81690.3
18.245	81668.3
18.250	81694.3
18.255	81706.3
18.260	81701.3
18.265	81710.3
18.270	81710.3
18.275	81717.3
18.280	81711.3
18.285	81721.3
18.290	81702.3
18.295	81714.3
18.300	81698.3
18.305	81671.3
18.310	81656.3
18.315	81688.3
18.320	81696.3
18.325	81700.3
18.330	81699.3
18.335	81705.3
18.340	81702.3
18.345	81705.3
18.350	81704.3
18.355	81712.3
18.360	81706.3
18.365	81706.3
18.370	81670.3
18.375	81666.3
18.380	81662.3
18.385	81698.3
18.390	81694.3
18.395	81695.3
18.400	81697.3
18.405	81694.3
18.410	81695.3
18.415	81690.3
18.420	81673.3
18.425	81662.3
18.430	81662.3
18.435	81661.3
18.440	81633.3
18.445	81635.3
18.450	81650.3
18.455	81648.3
18.460	81641.3
18.465	81641.3
18.470	81642.3
18.475	81631.3
18.480	81608.3
18.485	81616.3
18.490	81612.3
18.495	81611.3
18.500	81598.3
18.505	81563.4
18.510	81564.3
18.515	81586.3
18.520	81582.3
18.525	81569.3
18.530	81570.3
18.535	81578.3
18.540	81577.3
18.545	81564.3
18.550	81547.4
18.555	81559.3
18.560	81547.4
18.565	81554.3
18.570	81533.4
18.575	81523.4
18.580	81512.4
18.585	81532.4
18.590	81532.4
18.595	81535.4
18.600	81552.3
18.605	81554.3
18.610	81547.3
18.615	81544.3
18.620	81521.4
18.625	81536.4
18.630	81526.4
18.635	81516.4
18.640	81498.4
18.645	81494.4
18.650	81515.4
18.655	81531.3
18.660	81520.4
18.665	81512.4
18.670	81492.4
18.675	81490.4
18.680	81487.4
18.685	81496.4
18.690	81511.4
18.695	81503.4
18.700	81485.4
18.705	81460.4
18.710	81451.4
18.715	81476.4
18.720	81496.4
18.725	81488.4
18.730	81488.4
18.735	81492.4
18.740	81476.4
18.745	81479.4
18.750	81481.4
18.755	81474.4
18.760	81486.4
18.765	81493.4
18.770	81485.4
18.775	81463.4
18.780	81464.4
18.785	81482.4
18.790	81477.4
18.795	81490.4
18.800	81487.4
18.805	81481.4
18.810	81470.4
18.815	81453.4
18.820	81450.4
18.825	81463.4
18.830	81461.4
18.835	81441.4
18.840	81413.4
18.845	81414.4
18.850	81438.4
18.855	81418.4
18.860	81411.4
18.865	81387.4
18.870	81376.4
18.875	81363.4
18.880	81363.4
18.885	81357.4
18.890	81328.5
18.895	81324.5
18.900	81314.5
18.905	81304.5
18.910	81292.5
18.915	81308.5
18.920	81297.5
18.925	81317.5
18.930	81338.4
18.935	81354.4
18.940	81346.4
18.945	81350.4
18.950	81340.4
18.955	81345.4
18.960	81315.5
18.965	81313.5
18.970	81290.5
18.975	81312.5
18.980	81354.4
18.985	81409.4
18.990	81416.4
18.995	81428.4
19.000	81449.3
19.005	81455.3
19.010	81443.3
19.015	81439.4
19.020	81446.3
19.025	81461.3
19.030	81466.3
19.035	81460.3
19.040	81435.3
19.045	81437.3
19.050	81465.3
19.055	81476.3
19.060	81472.3
19.065	81484.3
19.070	81486.3
19.075	81492.3
19.080	81491.3
19.085	81486.3
19.090	81491.3
19.095	81487.3
19.100	81477.3
19.105	81460.3
19.110	81446.3
19.115	81478.3
19.120	81461.3
19.125	81461.3
19.130	81465.3
19.135	81464.3
19.140	81447.3
19.145	81446.3
19.150	81436.3
19.155	81445.3
19.160	81469.3
19.165	81479.3
19.170	81455.3
19.175	81429.3
19.180	81426.3
19.185	81438.3
19.190	81416.3
19.195	81407.3
19.200	81393.3
19.205	81382.3
19.210	81370.4
19.215	81357.4
19.220	81331.4
19.225	81314.4
19.230	81293.4
19.235	81251.4
19.240	81229.4
19.245	81225.4
19.250	81254.4
19.255	81268.4
19.260	81271.4
19.265	81282.4
19.270	81260.4
19.275	81268.4
19.280	81259.4
19.285	81272.4
19.290	81278.4
19.295	81286.4
19.300	81285.4
19.305	81276.4
19.310	81271.4
19.315	81303.4
19.320	81328.4
19.325	81330.4
19.330	81336.3
19.335	81338.3
19.340	81355.3
19.345	81366.3
19.350	81368.3
19.355	81396.3
19.360	81401.3
19.365	81414.3
19.370	81388.3
19.375	81391.3
19.380	81414.3
19.385	81441.2
19.390	81431.3
19.395	81433.3
19.400	81416.3
19.405	81418.3
19.410	81416.3
19.415	81416.3
19.420	81421.3
19.425	81441.2
19.430	81451.2
19.435	81442.2
19.440	81422.2
19.445	81420.3
19.450	81432.2
19.455	81446.2
19.460	81438.2
19.465	81443.2
19.470	81437.2
19.475	81448.2
19.480	81427.2
19.485	81431.2
19.490	81430.2
19.495	81433.2
19.500	81392.3
19.505	81373.3
19.510	81356.3
19.515	81374.3
19.520	81368.3
19.525	81357.3
19.530	81347.3
19.535	81341.3
19.540	81337.3
19.545	81346.3
19.550	81327.3
19.555	81339.3
19.560	81335.3
19.565	81338.3
19.570	81313.3
19.575	81289.3
19.580	81287.3
19.585	81308.3
19.590	81286.3
19.595	81283.3
19.600	81293.3
19.605	81295.3
19.610	81283.3
19.615	81281.3
19.620	81267.3
19.625	81274.3
19.630	81287.3
19.635	81265.3
19.640	81244.3
19.645	81259.3
19.650	81282.3
19.655	81251.3
19.660	81228.3
19.665	81228.3
19.670	81208.3
19.675	81190.4
19.680	81206.3
19.685	81207.3
19.690	81184.4
19.695	81174.4
19.700	81153.4
19.705	81134.4
19.710	81121.4
19.715	81143.4
19.720	81129.4
19.725	81120.4
19.730	81133.4
19.735	81145.4
19.740	81160.4
19.745	81144.4
19.750	81124.4
19.755	81118.4
19.760	81114.4
19.765	81134.4
19.770	81102.4
19.775	81079.4
19.780	81081.4
19.785	81059.4
19.790	81045.4
19.795	81051.4
19.800	81053.4
19.805	81056.4
19.810	81049.4
19.815	81040.4
19.820	81029.4
19.825	81019.4
19.830	81017.4
19.835	81002.4
19.840	80999.4
19.845	80990.4
19.850	81001.4
19.855	80994.4
19.860	81012.4
19.865	81032.4
19.870	81047.4
19.875	81060.4
19.880	81077.4
19.885	81097.3
19.890	81126.3
19.895	81138.3
19.900	81137.3
19.905	81127.3
19.910	81142.3
19.915	81195.3
19.920	81217.2
19.925	81226.2
19.930	81226.2
19.935	81239.2
19.940	81236.2
19.945	81243.2
19.950	81249.2
19.955	81258.2
19.960	81272.2
19.965	81278.2
19.970	81254.2
19.975	81256.2
19.980	81274.2
19.985	81299.1
19.990	81297.1
19.995	81314.1
20.000	81314.1
20.005	81308.1
20.010	81305.1
20.015	81296.1
20.020	81288.1
20.025	81288.1
20.030	81273.1
20.035	81243.2
20.040	81230.2
20.045	81234.2
20.050	81256.1
20.055	81254.1
20.060	81263.1
20.065	81246.1
20.070	81223.1
20.075	81212.2
20.080	81197.2
20.085	81194.2
20.090	81196.2
20.095	81218.1
20.100	81215.1
20.105	81191.2
20.110	81179.2
20.115	81211.1
20.120	81187.1
20.125	81183.2
20.130	81184.1
20.135	81182.1
20.140	81182.1
20.145	81174.1
20.150	81162.2
20.155	81151.2
20.160	81139.2
20.165	81124.2
20.170	81085.2
20.175	81064.2
20.180	81066.2
20.185	81078.2
20.190	81058.2
20.195	81025.2
20.200	81017.2
20.205	81018.2
20.210	80999.2
20.215	80967.3
20.220	80930.3
20.225	80925.3
20.230	80921.3
20.235	80898.3
20.240	80861.3
20.245	80855.3
20.250	80875.3
20.255	80903.3
20.260	80905.3
20.265	80917.3
20.270	80913.3
20.275	80927.3
20.280	80924.3
20.285	80927.3
20.290	80923.2
20.295	80929.2
20.300	80909.3
20.305	80869.3
20.310	80852.3
20.315	80878.3
20.320	80867.3
20.325	80839.3
20.330	80809.3
20.335	80807.3
20.340	80813.3
20.345	80800.3
20.350	80759.3
20.355	80715.4
20.360	80665.4
20.365	80637.4
20.370	80584.5
20.375	80559.5
20.380	80547.5
20.385	80539.5
20.390	80512.5
20.395	80498.5
20.400	80516.5
20.405	80523.5
20.410	80528.5
20.415	80520.5
20.420	80531.5
20.425	80536.4
20.430	80561.4
20.435	80550.4
20.440	80536.4
20.445	80590.4
20.450	80647.3
20.455	80672.3
20.460	80666.3
20.465	80644.3
20.470	80633.3
20.475	80615.3
20.480	80601.3
20.485	80592.3
20.490	80557.4
20.495	80556.4
20.500	80557.4
20.505	80553.4
20.510	80533.4
20.515	80540.4
20.520	80506.4
20.525	80497.4
20.530	80427.4
20.535	80351.5
20.540	80296.5
20.545	80249.6
20.550	80192.6
20.555	80173.6
20.560	80176.6
20.565	80145.6
20.570	80099.6
20.575	80101.6
20.580	80089.6
20.585	80076.6
20.590	80040.7
20.595	80013.7
20.600	80027.7
20.605	80071.6
20.610	80106.6
20.615	80132.6
20.620	80162.5
20.625	80194.5
20.630	80199.5
20.635	80207.5
20.640	80184.5
20.645	80200.5
20.650	80184.5
20.655	80138.5
20.660	80082.5
20.665	80034.6
20.670	79979.6
20.675	79929.6
20.680	79866.7
20.685	79802.7
20.690	79753.8
20.695	79672.8
20.700	79588.9
20.705	79582.9
20.710	79585.9
20.715	79623.8
20.720	79629.8
20.725	79597.8
20.730	79536.9
20.735	79460.9
20.740	79364.0
20.745	79321.0
20.750	79351.0
20.755	79390.9
20.760	79410.9
20.765	79466.9
20.770	79471.9
20.775	79472.8
20.780	79516.8
20.785	79559.8
20.790	79579.7
20.795	79596.7
20.800	79607.7
20.805	79607.7
20.810	79600.7
20.815	79602.7
20.820	79608.6
20.825	79638.6
20.830	79648.6
20.835	79613.6
20.840	79575.6
20.845	79598.6
20.850	79585.6
20.855	79555.6
20.860	79520.6
20.865	79452.7
20.870	79355.7
20.875	79260.8
20.880	79136.9
20.885	79001.0
20.890	78893.1
20.895	78816.1
20.900	78719.2
20.905	78685.2
20.910	78712.2
20.915	78753.1
20.920	78785.1
20.925	78909.0
20.930	79072.8
20.935	79214.7
20.940	79282.6
20.945	79253.6
20.950	79213.7
20.955	79099.7
20.960	78958.8
20.965	78788.9
20.970	78571.1
20.975	78412.2
20.980	78403.2
20.985	78506.1
20.990	78729.9
20.995	78890.8
21.000	78963.7
21.005	79092.6
21.010	79300.4
21.015	79537.2
21.020	79648.1
21.025	79739.0
21.030	79780.9
21.035	79653.0
21.040	79445.2
21.045	79293.3
21.050	79335.2
21.055	79454.1
21.060	79560.0
21.065	79670.9
21.070	79694.8
21.075	79582.9
21.080	79342.1
21.085	79254.1
21.090	79246.1
21.095	79251.0
21.100	79180.1
21.105	78958.2
21.110	78583.5
21.115	78272.7
21.120	77741.1
21.125	76826.7
21.130	76250.1
21.135	76394.0
21.140	76546.9
21.145	76546.8
21.150	77065.4
21.155	78298.4
21.160	78844.9
21.165	78450.1
21.170	78231.3
21.175	78311.1
21.180	78222.2
21.185	78054.2
21.190	78164.1
21.195	78316.9
21.200	77732.3
21.205	75954.7
21.210	74157.0
21.215	74017.0
21.220	74508.5
21.225	74104.8
21.230	73192.5
21.235	73923.7
21.240	76497.5
21.245	77578.6
21.250	77090.9
21.255	76477.3
21.260	76130.4
21.265	75790.6
21.270	75390.9
21.275	74900.3
21.280	74551.6
21.285	74604.6
21.290	74920.4
21.295	75141.4
21.300	75203.6
21.305	75309.8
21.310	75646.9
21.315	76298.8
21.320	77127.5
21.325	77952.3
21.330	78739.1
21.335	79544.0
21.340	80394.8
21.345	81204.6
21.350	81867.4
21.355	82355.2
21.360	82673.1
21.365	82852.1
21.370	82925.0
21.375	82965.0
21.380	83013.0
21.385	83044.0
21.390	83036.0
21.395	83045.0
21.400	83057.0
21.405	83044.0
21.410	83053.0
21.415	83052.0
21.420	83051.0
21.425	83059.0
21.430	83077.0
21.435	83052.0
21.440	83030.0
21.445	83057.0
21.450	83074.0
21.455	83077.0
21.460	83076.0
21.465	83079.0
21.470	83071.0
21.475	83068.0
21.480	83070.0
21.485	83074.0
21.490	83066.0
21.495	83078.0
21.500	83047.0
21.505	83026.0
21.510	83049.0
21.515	83067.0
21.520	83064.0
21.525	83057.0
21.530	83071.0
21.535	83072.0
21.540	83066.0
21.545	83074.0
21.550	83072.0
21.555	83080.0
21.560	83081.0
21.565	83075.0
21.570	83058.0
21.575	83048.0
21.580	83067.0
21.585	83085.0
21.590	83084.0
21.595	83078.0
21.600	83077.0
21.605	83082.0
21.610	83079.0
21.615	83070.0
21.620	83079.0
21.625	83079.0
21.630	83080.0
21.635	83054.0
21.640	83042.0
21.645	83065.0
21.650	83081.0
21.655	83084.0
21.660	83065.0
21.665	83072.0
21.670	83078.0
21.675	83077.0
21.680	83065.0
21.685	83077.0
21.690	83082.0
21.695	83083.0
21.700	83084.0
21.705	83057.0
21.710	83056.0
21.715	83087.0
21.720	83091.0
21.725	83090.0
21.730	83086.0
21.735	83086.0
21.740	83082.0
21.745	83075.0
21.750	83088.0
21.755	83079.0
21.760	83084.0
21.765	83070.0
21.770	83048.0
21.775	83055.0
21.780	83089.0
21.785	83076.0
21.790	83079.0
21.795	83084.0
21.800	83071.0
21.805	83079.0
21.810	83082.0
21.815	83078.0
21.820	83080.0
21.825	83093.0
21.830	83091.0
21.835	83060.0
21.840	83056.0
21.845	83069.0
21.850	83085.0
21.855	83089.0
21.860	83104.0
21.865	83091.0
21.870	83093.0
21.875	83093.0
21.880	83090.0
21.885	83089.0
21.890	83090.0
21.895	83095.0
21.900	83066.0
21.905	83043.0
21.910	83066.0
21.915	83088.0
21.920	83084.0
21.925	83084.0
21.930	83090.0
21.935	83096.0
21.940	83081.0
21.945	83083.0
21.950	83088.0
21.955	83094.0
21.960	83094.0
21.965	83097.0
21.970	83075.0
21.975	83060.0
21.980	83088.0
21.985	83097.0
21.990	83097.0
21.995	83101.0
22.000	83099.0
22.005	83102.0
22.010	83093.0
22.015	83099.0
22.020	83100.0
22.025	83102.0
22.030	83089.0
22.035	83060.0
22.040	83057.0
22.045	83079.0
22.050	83095.0
22.055	83098.0
22.060	83098.0
22.065	83095.0
22.070	83085.0
22.075	83086.0
22.080	83083.0
22.085	83096.0
22.090	83094.0
22.095	83107.0
22.100	83082.0
22.105	83065.0
22.110	83067.0
22.115	83103.0
22.120	83094.0
22.125	83095.0
22.130	83101.0
22.135	83100.0
22.140	83098.0
22.145	83104.0
22.150	83103.0
22.155	83102.0
22.160	83104.0
22.165	83083.0
22.170	83060.0
22.175	83055.0
22.180	83103.0
22.185	83103.0
22.190	83099.0
22.195	83095.0
22.200	83093.0
22.205	83097.0
22.210	83098.0
22.215	83087.0
22.220	83100.0
22.225	83102.0
22.230	83097.0
22.235	83082.0
22.240	83061.0
22.245	83092.0
22.250	83107.0
22.255	83106.0
22.260	83100.0
22.265	83106.0
22.270	83104.0
22.275	83101.0
22.280	83100.0
22.285	83108.0
22.290	83108.0
22.295	83104.0
22.300	83078.0
22.305	83065.0
22.310	83078.0
22.315	83093.0
22.320	83097.0
22.325	83096.0
22.330	83096.0
22.335	83105.0
22.340	83097.0
22.345	83093.0
22.350	83094.0
22.355	83106.0
22.360	83096.0
22.365	83088.0
22.370	83074.0
22.375	83071.0
22.380	83106.0
22.385	83117.0
22.390	83102.0
22.395	83107.0
22.400	83106.0
22.405	83104.0
22.410	83097.0
22.415	83104.0
22.420	83102.0
22.425	83106.0
22.430	83100.0
22.435	83067.0
22.440	83062.0
22.445	83103.0
22.450	83100.0
22.455	83091.0
22.460	83099.0
22.465	83096.0
22.470	83088.0
22.475	83106.0
22.480	83101.0
22.485	83094.0
22.490	83110.0
22.495	83112.0
22.500	83086.0
22.505	83067.0
22.510	83081.0
22.515	83112.0
22.520	83113.0
22.525	83117.0
22.530	83103.0
22.535	83107.0
22.540	83106.0
22.545	83105.0
22.550	83102.0
22.555	83104.0
22.560	83106.0
22.565	83087.0
22.570	83072.0
22.575	83071.0
22.580	83106.0
22.585	83111.0
22.590	83096.0
22.595	83100.0
22.600	83098.0
22.605	83102.0
22.610	83104.0
22.615	83110.0
22.620	83111.0
22.625	83112.0
22.630	83106.0
22.635	83088.0
22.640	83068.0
22.645	83100.0
22.650	83104.0
22.655	83118.0
22.660	83111.0
22.665	83122.0
22.670	83114.0
22.675	83108.0
22.680	83106.0
22.685	83112.0
22.690	83104.0
22.695	83114.0
22.700	83087.0
22.705	83069.0
22.710	83083.0
22.715	83115.0
22.720	83107.0
22.725	83106.0
22.730	83099.0
22.735	83105.0
22.740	83096.0
22.745	83101.0
22.750	83112.0
22.755	83114.0
22.760	83122.0
22.765	83094.0
22.770	83080.0
22.775	83080.0
22.780	83112.0
22.785	83122.0
22.790	83119.0
22.795	83115.0
22.800	83121.0
22.805	83112.0
22.810	83105.0
22.815	83112.0
22.820	83107.0
22.825	83102.0
22.830	83101.0
22.835	83088.0
22.840	83070.0
22.845	83107.0
22.850	83101.0
22.855	83101.0
22.860	83092.0
22.865	83102.0
22.870	83097.0
22.875	83104.0
22.880	83100.0
22.885	83098.0
22.890	83110.0
22.895	83117.0
22.900	83095.0
22.905	83076.0
22.910	83073.0
22.915	83113.0
22.920	83105.0
22.925	83112.0
22.930	83122.0
22.935	83120.0
22.940	83117.0
22.945	83105.0
22.950	83107.0
22.955	83107.0
22.960	83111.0
22.965	83081.0
22.970	83072.0
22.975	83073.0
22.980	83100.0
22.985	83113.0
22.990	83104.0
22.995	83106.0
23.000	83093.0
23.005	83102.0
23.010	83092.0
23.015	83099.0
23.020	83105.0
23.025	83106.0
23.030	83100.0
23.035	83087.0
23.040	83066.0
23.045	83100.0
23.050	83106.0
23.055	83116.0
23.060	83110.0
23.065	83112.0
23.070	83104.0
23.075	83105.0
23.080	83102.0
23.085	83107.0
23.090	83098.0
23.095	83099.0
23.100	83071.0
23.105	83061.0
23.110	83085.0
23.115	83112.0
23.120	83104.0
23.125	83101.0
23.130	83093.0
23.135	83098.0
23.140	83092.0
23.145	83091.0
23.150	83105.0
23.155	83108.0
23.160	83107.0
23.165	83093.0
23.170	83067.0
23.175	83079.0
23.180	83101.0
23.185	83102.0
23.190	83114.0
23.195	83106.0
23.200	83102.0
23.205	83110.0
23.210	83112.0
23.215	83107.0
23.220	83101.0
23.225	83101.0
23.230	83091.0
23.235	83052.0
23.240	83065.0
23.245	83095.0
23.250	83104.0
23.255	83109.0
23.260	83104.0
23.265	83104.0
23.270	83088.0
23.275	83091.0
23.280	83089.0
23.285	83091.0
23.290	83100.0
23.295	83111.0
23.300	83082.0
23.305	83076.0
23.310	83096.0
23.315	83111.0
23.320	83102.0
23.325	83106.0
23.330	83112.0
23.335	83104.0
23.340	83098.0
23.345	83110.0
23.350	83114.0
23.355	83106.0
23.360	83096.0
23.365	83075.0
23.370	83065.0
23.375	83075.0
23.380	83097.0
23.385	83103.0
23.390	83098.0
23.395	83100.0
23.400	83095.0
23.405	83099.0
23.410	83098.0
23.415	83102.0
23.420	83102.0
23.425	83117.0
23.430	83098.0
23.435	83076.0
23.440	83074.0
23.445	83110.0
23.450	83113.0
23.455	83112.0
23.460	83109.0
23.465	83113.0
23.470	83112.0
23.475	83113.0
23.480	83105.0
23.485	83105.0
23.490	83101.0
23.495	83093.0
23.500	83077.0
23.505	83068.0
23.510	83086.0
23.515	83112.0
23.520	83100.0
23.525	83108.0
23.530	83102.0
23.535	83101.0
23.540	83095.0
23.545	83099.0
23.550	83094.0
23.555	83113.0
23.560	83107.0
23.565	83103.0
23.570	83077.0
23.575	83082.0
23.580	83110.0
23.585	83112.0
23.590	83108.0
23.595	83111.0
23.600	83098.0
23.605	83109.0
23.610	83100.0
23.615	83107.0
23.620	83110.0
23.625	83102.0
23.630	83091.0
23.635	83069.0
23.640	83066.0
23.645	83104.0
23.650	83099.0
23.655	83096.0
23.660	83096.0
23.665	83099.0
23.670	83094.0
23.675	83102.0
23.680	83098.0
23.685	83094.0
23.690	83100.0
23.695	83105.0
23.700	83073.0
23.705	83078.0
23.710	83103.0
23.715	83114.0
23.720	83103.0
23.725	83108.0
23.730	83105.0
23.735	83104.0
23.740	83097.0
23.745	83099.0
23.750	83105.0
23.755	83102.0
23.760	83106.0
23.765	83079.0
23.770	83065.0
23.775	83065.0
23.780	83097.0
23.785	83095.0
23.790	83090.0
23.795	83102.0
23.800	83096.0
23.805	83102.0
23.810	83089.0
23.815	83096.0
23.820	83094.0
23.825	83097.0
23.830	83093.0
23.835	83072.0
23.840	83078.0
23.845	83114.0
23.850	83107.0
23.855	83102.0
23.860	83107.0
23.865	83101.0
23.870	83097.0
23.875	83094.0
23.880	83094.0
23.885	83106.0
23.890	83102.0
23.895	83100.0
23.900	83069.0
23.905	83056.0
23.910	83083.0
23.915	83098.0
23.920	83089.0
23.925	83094.0
23.930	83089.0
23.935	83088.0
23.940	83097.0
23.945	83097.0
23.950	83090.0
23.955	83100.0
23.960	83099.0
23.965	83077.0
23.970	83056.0
23.975	83074.0
23.980	83095.0
23.985	83112.0
23.990	83103.0
23.995	83107.0
24.000	83102.0
24.005	83095.0
24.010	83088.0
24.015	83099.0
24.020	83095.0
24.025	83100.0
24.030	83078.0
24.035	83060.0
24.040	83069.0
24.045	83096.0
24.050	83090.0
24.055	83090.0
24.060	83085.0
24.065	83093.0
24.070	83087.0
24.075	83098.0
24.080	83101.0
24.085	83098.0
24.090	83099.0
24.095	83092.0
24.100	83066.0
24.105	83063.0
24.110	83084.0
24.115	83099.0
24.120	83098.0
24.125	83102.0
24.130	83103.0
24.135	83099.0
24.140	83088.0
24.145	83082.0
24.150	83091.0
24.155	83094.0
24.160	83094.0
24.165	83078.0
24.170	83049.0
24.175	83076.0
24.180	83089.0
24.185	83090.0
24.190	83086.0
24.195	83083.0
24.200	83086.0
24.205	83089.0
24.210	83089.0
24.215	83093.0
24.220	83091.0
24.225	83096.0
24.230	83083.0
24.235	83066.0
24.240	83055.0
24.245	83091.0
24.250	83087.0
24.255	83095.0
24.260	83088.0
24.265	83097.0
24.270	83085.0
24.275	83084.0
24.280	83087.0
24.285	83086.0
24.290	83084.0
24.295	83092.0
24.300	83053.0
24.305	83055.0
24.310	83081.0
24.315	83085.0
24.320	83085.0
24.325	83077.0
24.330	83076.0
24.335	83078.0
24.340	83083.0
24.345	83085.0
24.350	83081.0
24.355	83091.0
24.360	83090.0
24.365	83071.0
24.370	83053.0
24.375	83067.0
24.380	83085.0
24.385	83093.0
24.390	83099.0
24.395	83102.0
24.400	83086.0
24.405	83094.0
24.410	83084.0
24.415	83087.0
24.420	83083.0
24.425	83096.0
24.430	83065.0
24.435	83056.0
24.440	83065.0
24.445	83091.0
24.450	83080.0
24.455	83081.0
24.460	83071.0
24.465	83070.0
24.470	83073.0
24.475	83081.0
24.480	83082.0
24.485	83089.0
24.490	83099.0
24.495	83093.0
24.500	83074.0
24.505	83051.0
24.510	83075.0
24.515	83091.0
24.520	83085.0
24.525	83091.0
24.530	83090.0
24.535	83095.0
24.540	83087.0
24.545	83080.0
24.550	83079.0
24.555	83084.0
24.560	83076.0
24.565	83059.0
24.570	83049.0
24.575	83079.0
24.580	83077.0
24.585	83086.0
24.590	83077.0
24.595	83071.0
24.600	83074.0
24.605	83076.0
24.610	83077.0
24.615	83085.0
24.620	83092.0
24.625	83099.0
24.630	83076.0
24.635	83061.0
24.640	83048.0
24.645	83086.0
24.650	83085.0
24.655	83091.0
24.660	83088.0
24.665	83093.0
24.670	83090.0
24.675	83090.0
24.680	83087.0
24.685	83089.0
24.690	83080.0
24.695	83074.0
24.700	83048.0
24.705	83062.0
24.710	83082.0
24.715	83096.0
24.720	83082.0
24.725	83080.0
24.730	83080.0
24.735	83080.0
24.740	83077.0
24.745	83079.0
24.750	83087.0
24.755	83096.0
24.760	83095.0
24.765	83075.0
24.770	83060.0
24.775	83072.0
24.780	83086.0
24.785	83092.0
24.790	83094.0
24.795	83098.0
24.800	83091.0
24.805	83100.0
24.810	83095.0
24.815	83089.0
24.820	83087.0
24.825	83086.0
24.830	83061.0
24.835	83037.0
24.840	83065.0
24.845	83088.0
24.850	83083.0
24.855	83083.0
24.860	83089.0
24.865	83078.0
24.870	83079.0
24.875	83073.0
24.880	83075.0
24.885	83083.0
24.890	83093.0
24.895	83085.0
24.900	83057.0
24.905	83053.0
24.910	83077.0
24.915	83088.0
24.920	83089.0
24.925	83081.0
24.930	83087.0
24.935	83086.0
24.940	83082.0
24.945	83092.0
24.950	83093.0
24.955	83087.0
24.960	83082.0
24.965	83053.0
24.970	83037.0
24.975	83072.0
24.980	83079.0
24.985	83087.0
24.990	83083.0
24.995	83087.0
25.000	83085.0
25.005	83083.0
25.010	83076.0
25.015	83076.0
25.020	83082.0
25.025	83092.0
25.030	83074.0
25.035	83060.0
25.040	83070.0
25.045	83095.0
25.050	83090.0
25.055	83088.0
25.060	83081.0
25.065	83085.0
25.070	83085.0
25.075	83100.0
25.080	83090.0
25.085	83084.0
25.090	83085.0
25.095	83069.0
25.100	83046.0
25.105	83046.0
25.110	83088.0
25.115	83092.0
25.120	83087.0
25.125	83085.0
25.130	83089.0
25.135	83086.0
25.140	83079.0
25.145	83081.0
25.150	83076.0
25.155	83093.0
25.160	83090.0
25.165	83067.0
25.170	83058.0
25.175	83087.0
25.180	83087.0
25.185	83097.0
25.190	83085.0
25.195	83087.0
25.200	83083.0
25.205	83080.0
25.210	83096.0
25.215	83089.0
25.220	83091.0
25.225	83092.0
25.230	83063.0
25.235	83045.0
25.240	83054.0
25.245	83080.0
25.250	83081.0
25.255	83085.0
25.260	83096.0
25.265	83096.0
25.270	83080.0
25.275	83088.0
25.280	83088.0
25.285	83089.0
25.290	83087.0
25.295	83082.0
25.300	83052.0
25.305	83061.0
25.310	83089.0
25.315	83098.0
25.320	83093.0
25.325	83090.0
25.330	83092.0
25.335	83091.0
25.340	83084.0
25.345	83095.0
25.350	83093.0
25.355	83092.0
25.360	83090.0
25.365	83063.0
25.370	83047.0
25.375	83070.0
25.380	83082.0
25.385	83090.0
25.390	83087.0
25.395	83086.0
25.400	83085.0
25.405	83087.0
25.410	83083.0
25.415	83089.0
25.420	83094.0
25.425	83092.0
25.430	83071.0
25.435	83056.0
25.440	83066.0
25.445	83099.0
25.450	83094.0
25.455	83104.0
25.460	83096.0
25.465	83084.0
25.470	83089.0
25.475	83094.0
25.480	83095.0
25.485	83099.0
25.490	83095.0
25.495	83072.0
25.500	83058.0
25.505	83054.0
25.510	83086.0
25.515	83089.0
25.520	83096.0
25.525	83093.0
25.530	83091.0
25.535	83096.0
25.540	83084.0
25.545	83089.0
25.550	83085.0
25.555	83098.0
25.560	83096.0
25.565	83071.0
25.570	83053.0
25.575	83087.0
25.580	83101.0
25.585	83112.0
25.590	83108.0
25.595	83103.0
25.600	83104.0
25.605	83096.0
25.610	83095.0
25.615	83108.0
25.620	83096.0
25.625	83103.0
25.630	83079.0
25.635	83064.0
25.640	83076.0
25.645	83101.0
25.650	83097.0
25.655	83087.0
25.660	83093.0
25.665	83091.0
25.670	83099.0
25.675	83098.0
25.680	83093.0
25.685	83092.0
25.690	83101.0
25.695	83086.0
25.700	83065.0
25.705	83065.0
25.710	83103.0
25.715	83109.0
25.720	83112.0
25.725	83111.0
25.730	83111.0
25.735	83106.0
25.740	83100.0
25.745	83099.0
25.750	83097.0
25.755	83104.0
25.760	83096.0
25.765	83070.0
25.770	83066.0
25.775	83094.0
25.780	83101.0
25.785	83093.0
25.790	83094.0
25.795	83088.0
25.800	83097.0
25.805	83105.0
25.810	83096.0
25.815	83095.0
25.820	83108.0
25.825	83111.0
25.830	83083.0
25.835	83063.0
25.840	83072.0
25.845	83101.0
25.850	83115.0
25.855	83123.0
25.860	83110.0
25.865	83110.0
25.870	83101.0
25.875	83106.0
25.880	83098.0
25.885	83101.0
25.890	83105.0
25.895	83083.0
25.900	83073.0
25.905	83071.0
25.910	83103.0
25.915	83099.0
25.920	83101.0
25.925	83091.0
25.930	83090.0
25.935	83094.0
25.940	83098.0
25.945	83096.0
25.950	83105.0
25.955	83112.0
25.960	83106.0
25.965	83077.0
25.970	83064.0
25.975	83095.0
25.980	83100.0
25.985	83104.0
25.990	83113.0
25.995	83109.0
26.000	83106.0
26.005	83102.0
26.010	83096.0
26.015	83091.0
26.020	83082.0
26.025	83105.0
26.030	83073.0
26.035	83077.0
26.040	83083.0
26.045	83106.0
26.050	83100.0
26.055	83101.0
26.060	83090.0
26.065	83090.0
26.070	83094.0
26.075	83098.0
26.080	83088.0
26.085	83092.0
26.090	83110.0
26.095	83086.0
26.100	83060.0
26.105	83070.0
26.110	83101.0
26.115	83100.0
26.120	83112.0
26.125	83112.0
26.130	83100.0
26.135	83110.0
26.140	83104.0
26.145	83105.0
26.150	83088.0
26.155	83093.0
26.160	83084.0
26.165	83070.0
26.170	83057.0
26.175	83103.0
26.180	83104.0
26.185	83098.0
26.190	83094.0
26.195	83090.0
26.200	83086.0
26.205	83087.0
26.210	83088.0
26.215	83098.0
26.220	83101.0
26.225	83109.0
26.230	83081.0
26.235	83065.0
26.240	83076.0
26.245	83104.0
26.250	83102.0
26.255	83101.0
26.260	83109.0
26.265	83106.0
26.270	83104.0
26.275	83098.0
26.280	83089.0
26.285	83096.0
26.290	83095.0
26.295	83073.0
26.300	83062.0
26.305	83062.0
26.310	83099.0
26.315	83105.0
26.320	83098.0
