PK2650 Power Data
Z Position (mm)	110.000	W Position (deg)	72.00
Preform ID	Diameter (mm)	Time Stamp	Start Time	Operator	Serial Number
Test 1	25	03-Nov-22 18:05:01	03-Nov-22 18:07:45	[no user]	266007708
Radius (mm)	Power
-26.370	82798.9
-26.365	82789.9
-26.360	82792.9
-26.355	82789.9
-26.350	82798.9
-26.345	82799.9
-26.340	82813.9
-26.335	82811.9
-26.330	82805.9
-26.325	82813.9
-26.320	82794.9
-26.315	82775.0
-26.310	82784.9
-26.305	82818.9
-26.300	82812.9
-26.295	82804.9
-26.290	82807.9
-26.285	82810.9
-26.280	82809.9
-26.275	82813.9
-26.270	82821.9
-26.265	82821.9
-26.260	82827.9
-26.255	82825.9
-26.250	82786.9
-26.245	82792.9
-26.240	82812.9
-26.235	82826.9
-26.230	82822.9
-26.225	82824.9
-26.220	82824.9
-26.215	82831.9
-26.210	82845.9
-26.205	82839.9
-26.200	82851.9
-26.195	82845.9
-26.190	82848.9
-26.185	82812.9
-26.180	82805.9
-26.175	82830.9
-26.170	82851.9
-26.165	82839.9
-26.160	82839.9
-26.155	82830.9
-26.150	82828.9
-26.145	82836.9
-26.140	82833.9
-26.135	82843.9
-26.130	82841.9
-26.125	82842.9
-26.120	82830.9
-26.115	82809.9
-26.110	82822.9
-26.105	82848.9
-26.100	82840.9
-26.095	82843.9
-26.090	82849.9
-26.085	82848.9
-26.080	82855.9
-26.075	82851.9
-26.070	82858.9
-26.065	82856.9
-26.060	82863.9
-26.055	82853.9
-26.050	82831.9
-26.045	82834.9
-26.040	82862.9
-26.035	82861.9
-26.030	82852.9
-26.025	82852.9
-26.020	82846.9
-26.015	82847.9
-26.010	82856.9
-26.005	82863.9
-26.000	82860.9
-25.995	82863.9
-25.990	82864.9
-25.985	82825.9
-25.980	82826.9
-25.975	82843.9
-25.970	82858.9
-25.965	82855.9
-25.960	82864.9
-25.955	82857.9
-25.950	82861.9
-25.945	82867.9
-25.940	82874.9
-25.935	82871.9
-25.930	82872.9
-25.925	82875.9
-25.920	82860.9
-25.915	82832.9
-25.910	82849.9
-25.905	82868.9
-25.900	82868.9
-25.895	82851.9
-25.890	82855.9
-25.885	82851.9
-25.880	82859.9
-25.875	82864.9
-25.870	82861.9
-25.865	82869.9
-25.860	82867.9
-25.855	82858.9
-25.850	82833.9
-25.845	82833.9
-25.840	82859.9
-25.835	82858.9
-25.830	82862.9
-25.825	82863.9
-25.820	82860.9
-25.815	82876.9
-25.810	82874.9
-25.805	82869.9
-25.800	82879.9
-25.795	82874.9
-25.790	82867.9
-25.785	82839.9
-25.780	82838.9
-25.775	82860.9
-25.770	82869.9
-25.765	82852.9
-25.760	82851.9
-25.755	82848.9
-25.750	82856.9
-25.745	82861.9
-25.740	82861.9
-25.735	82869.9
-25.730	82865.9
-25.725	82867.9
-25.720	82849.9
-25.715	82836.9
-25.710	82838.9
-25.705	82855.9
-25.700	82868.9
-25.695	82859.9
-25.690	82858.9
-25.685	82854.9
-25.680	82860.9
-25.675	82871.9
-25.670	82876.9
-25.665	82866.9
-25.660	82873.9
-25.655	82864.9
-25.650	82838.9
-25.645	82845.9
-25.640	82866.9
-25.635	82862.9
-25.630	82863.9
-25.625	82852.9
-25.620	82858.9
-25.615	82857.9
-25.610	82854.9
-25.605	82862.9
-25.600	82864.9
-25.595	82868.9
-25.590	82866.9
-25.585	82836.9
-25.580	82828.9
-25.575	82858.9
-25.570	82868.9
-25.565	82866.9
-25.560	82866.9
-25.555	82857.9
-25.550	82865.9
-25.545	82870.9
-25.540	82873.9
-25.535	82871.9
-25.530	82871.9
-25.525	82869.9
-25.520	82849.9
-25.515	82836.9
-25.510	82851.9
-25.505	82865.9
-25.500	82866.9
-25.495	82853.9
-25.490	82851.9
-25.485	82839.9
-25.480	82848.9
-25.475	82855.9
-25.470	82862.9
-25.465	82862.9
-25.460	82871.9
-25.455	82846.9
-25.450	82818.9
-25.445	82830.9
-25.440	82854.9
-25.435	82865.9
-25.430	82857.9
-25.425	82861.9
-25.420	82856.9
-25.415	82866.9
-25.410	82873.9
-25.405	82868.9
-25.400	82873.9
-25.395	82860.9
-25.390	82871.9
-25.385	82830.9
-25.380	82847.9
-25.375	82854.9
-25.370	82866.9
-25.365	82856.9
-25.360	82855.9
-25.355	82849.9
-25.350	82860.9
-25.345	82857.9
-25.340	82864.9
-25.335	82856.9
-25.330	82862.9
-25.325	82866.9
-25.320	82845.9
-25.315	82818.9
-25.310	82833.9
-25.305	82856.9
-25.300	82859.9
-25.295	82853.9
-25.290	82856.9
-25.285	82857.9
-25.280	82864.9
-25.275	82870.9
-25.270	82871.9
-25.265	82872.9
-25.260	82873.9
-25.255	82857.9
-25.250	82842.9
-25.245	82841.9
-25.240	82866.9
-25.235	82857.9
-25.230	82858.9
-25.225	82849.9
-25.220	82849.9
-25.215	82843.9
-25.210	82858.9
-25.205	82853.9
-25.200	82862.9
-25.195	82860.9
-25.190	82849.9
-25.185	82820.9
-25.180	82833.9
-25.175	82844.9
-25.170	82862.9
-25.165	82852.9
-25.160	82854.9
-25.155	82856.9
-25.150	82853.9
-25.145	82864.9
-25.140	82868.9
-25.135	82861.9
-25.130	82871.9
-25.125	82867.9
-25.120	82835.9
-25.115	82824.9
-25.110	82843.9
-25.105	82857.9
-25.100	82854.9
-25.095	82846.9
-25.090	82848.9
-25.085	82842.9
-25.080	82849.9
-25.075	82840.9
-25.070	82848.9
-25.065	82845.9
-25.060	82854.9
-25.055	82837.9
-25.050	82815.9
-25.045	82822.9
-25.040	82849.9
-25.035	82844.9
-25.030	82847.9
-25.025	82843.9
-25.020	82849.9
-25.015	82848.9
-25.010	82854.9
-25.005	82845.9
-25.000	82848.9
-24.995	82853.9
-24.990	82840.9
-24.985	82812.9
-24.980	82826.9
-24.975	82842.9
-24.970	82846.9
-24.965	82830.9
-24.960	82825.9
-24.955	82832.9
-24.950	82835.9
-24.945	82829.9
-24.940	82832.9
-24.935	82834.9
-24.930	82844.9
-24.925	82843.9
-24.920	82820.9
-24.915	82794.9
-24.910	82811.9
-24.905	82834.9
-24.900	82838.9
-24.895	82831.9
-24.890	82831.9
-24.885	82834.9
-24.880	82835.9
-24.875	82842.9
-24.870	82837.9
-24.865	82838.9
-24.860	82835.9
-24.855	82819.9
-24.850	82802.9
-24.845	82811.9
-24.840	82828.9
-24.835	82833.9
-24.830	82821.9
-24.825	82813.9
-24.820	82814.9
-24.815	82804.9
-24.810	82819.9
-24.805	82814.9
-24.800	82824.9
-24.795	82826.9
-24.790	82827.9
-24.785	82776.9
-24.780	82781.9
-24.775	82806.9
-24.770	82816.9
-24.765	82816.9
-24.760	82816.9
-24.755	82820.9
-24.750	82815.9
-24.745	82809.9
-24.740	82819.9
-24.735	82821.9
-24.730	82822.9
-24.725	82824.9
-24.720	82790.9
-24.715	82776.0
-24.710	82801.9
-24.705	82806.9
-24.700	82803.9
-24.695	82803.9
-24.690	82802.9
-24.685	82797.9
-24.680	82806.9
-24.675	82800.9
-24.670	82806.9
-24.665	82809.9
-24.660	82813.9
-24.655	82785.9
-24.650	82772.0
-24.645	82781.0
-24.640	82806.9
-24.635	82798.9
-24.630	82800.9
-24.625	82801.9
-24.620	82804.9
-24.615	82806.9
-24.610	82813.9
-24.605	82802.9
-24.600	82805.9
-24.595	82810.9
-24.590	82809.9
-24.585	82776.0
-24.580	82785.9
-24.575	82797.9
-24.570	82794.9
-24.565	82793.9
-24.560	82787.9
-24.555	82788.9
-24.550	82791.9
-24.545	82786.9
-24.540	82800.9
-24.535	82794.9
-24.530	82804.9
-24.525	82801.9
-24.520	82771.0
-24.515	82770.0
-24.510	82778.0
-24.505	82796.9
-24.500	82795.9
-24.495	82786.9
-24.490	82786.9
-24.485	82785.9
-24.480	82802.9
-24.475	82801.9
-24.470	82803.9
-24.465	82803.9
-24.460	82786.9
-24.455	82772.0
-24.450	82754.0
-24.445	82771.0
-24.440	82787.9
-24.435	82789.9
-24.430	82783.0
-24.425	82784.9
-24.420	82782.9
-24.415	82779.9
-24.410	82784.9
-24.405	82792.9
-24.400	82789.9
-24.395	82789.9
-24.390	82783.9
-24.385	82754.0
-24.380	82762.0
-24.375	82781.9
-24.370	82795.9
-24.365	82786.9
-24.360	82792.9
-24.355	82780.0
-24.350	82788.9
-24.345	82787.9
-24.340	82796.9
-24.335	82796.9
-24.330	82803.9
-24.325	82793.9
-24.320	82767.0
-24.315	82767.0
-24.310	82783.0
-24.305	82797.9
-24.300	82792.9
-24.295	82781.9
-24.290	82789.9
-24.285	82776.0
-24.280	82777.0
-24.275	82779.9
-24.270	82793.9
-24.265	82792.9
-24.260	82792.9
-24.255	82770.0
-24.250	82750.0
-24.245	82755.0
-24.240	82789.9
-24.235	82791.9
-24.230	82791.9
-24.225	82783.0
-24.220	82789.9
-24.215	82788.9
-24.210	82794.9
-24.205	82797.9
-24.200	82800.9
-24.195	82803.9
-24.190	82792.9
-24.185	82758.0
-24.180	82772.0
-24.175	82798.9
-24.170	82796.9
-24.165	82781.0
-24.160	82779.0
-24.155	82784.9
-24.150	82780.0
-24.145	82781.0
-24.140	82784.9
-24.135	82791.9
-24.130	82793.9
-24.125	82788.9
-24.120	82760.0
-24.115	82756.0
-24.110	82770.0
-24.105	82788.9
-24.100	82788.9
-24.095	82782.0
-24.090	82785.9
-24.085	82788.9
-24.080	82798.9
-24.075	82796.9
-24.070	82807.9
-24.065	82799.9
-24.060	82798.9
-24.055	82767.0
-24.050	82760.0
-24.045	82776.0
-24.040	82797.9
-24.035	82788.9
-24.030	82787.9
-24.025	82783.9
-24.020	82786.9
-24.015	82781.9
-24.010	82782.0
-24.005	82790.9
-24.000	82803.9
-23.995	82798.9
-23.990	82797.9
-23.985	82748.0
-23.980	82765.0
-23.975	82792.9
-23.970	82800.9
-23.965	82799.9
-23.960	82802.9
-23.955	82800.9
-23.950	82804.9
-23.945	82794.9
-23.940	82804.9
-23.935	82813.9
-23.930	82813.9
-23.925	82808.9
-23.920	82784.9
-23.915	82778.0
-23.910	82804.9
-23.905	82816.9
-23.900	82804.9
-23.895	82794.9
-23.890	82808.9
-23.885	82805.9
-23.880	82799.9
-23.875	82805.9
-23.870	82813.9
-23.865	82818.9
-23.860	82808.9
-23.855	82784.9
-23.850	82777.0
-23.845	82791.9
-23.840	82815.9
-23.835	82810.9
-23.830	82812.9
-23.825	82813.9
-23.820	82812.9
-23.815	82818.9
-23.810	82820.9
-23.805	82815.9
-23.800	82821.9
-23.795	82823.9
-23.790	82807.9
-23.785	82770.0
-23.780	82793.9
-23.775	82809.9
-23.770	82809.9
-23.765	82799.9
-23.760	82808.9
-23.755	82806.9
-23.750	82808.9
-23.745	82808.9
-23.740	82813.9
-23.735	82821.9
-23.730	82823.9
-23.725	82818.9
-23.720	82793.9
-23.715	82785.9
-23.710	82805.9
-23.705	82812.9
-23.700	82820.9
-23.695	82818.9
-23.690	82808.9
-23.685	82819.9
-23.680	82822.9
-23.675	82822.9
-23.670	82825.9
-23.665	82820.9
-23.660	82825.9
-23.655	82794.9
-23.650	82794.9
-23.645	82805.9
-23.640	82823.9
-23.635	82818.9
-23.630	82816.9
-23.625	82811.9
-23.620	82818.9
-23.615	82808.9
-23.610	82816.9
-23.605	82811.9
-23.600	82830.9
-23.595	82828.9
-23.590	82813.9
-23.585	82791.9
-23.580	82798.9
-23.575	82818.9
-23.570	82819.9
-23.565	82824.9
-23.560	82825.9
-23.555	82825.9
-23.550	82825.9
-23.545	82834.9
-23.540	82838.9
-23.535	82841.9
-23.530	82845.9
-23.525	82837.9
-23.520	82806.9
-23.515	82809.9
-23.510	82829.9
-23.505	82836.9
-23.500	82831.9
-23.495	82824.9
-23.490	82835.9
-23.485	82820.9
-23.480	82829.9
-23.475	82828.9
-23.470	82827.9
-23.465	82835.9
-23.460	82851.9
-23.455	82817.9
-23.450	82802.9
-23.445	82824.9
-23.440	82841.9
-23.435	82847.9
-23.430	82847.9
-23.425	82849.9
-23.420	82844.9
-23.415	82855.9
-23.410	82853.9
-23.405	82853.9
-23.400	82860.9
-23.395	82853.9
-23.390	82846.9
-23.385	82818.9
-23.380	82835.9
-23.375	82858.9
-23.370	82855.9
-23.365	82855.9
-23.360	82847.9
-23.355	82839.9
-23.350	82843.9
-23.345	82848.9
-23.340	82858.9
-23.335	82862.9
-23.330	82866.9
-23.325	82850.9
-23.320	82822.9
-23.315	82821.9
-23.310	82846.9
-23.305	82859.9
-23.300	82860.9
-23.295	82854.9
-23.290	82861.9
-23.285	82861.9
-23.280	82858.9
-23.275	82863.9
-23.270	82875.9
-23.265	82872.9
-23.260	82875.9
-23.255	82845.9
-23.250	82839.9
-23.245	82857.9
-23.240	82870.9
-23.235	82866.9
-23.230	82860.9
-23.225	82849.9
-23.220	82863.9
-23.215	82865.9
-23.210	82864.9
-23.205	82856.9
-23.200	82865.9
-23.195	82865.9
-23.190	82856.9
-23.185	82817.9
-23.180	82843.9
-23.175	82868.9
-23.170	82864.9
-23.165	82858.9
-23.160	82871.9
-23.155	82872.9
-23.150	82871.9
-23.145	82882.9
-23.140	82873.9
-23.135	82888.9
-23.130	82875.9
-23.125	82871.9
-23.120	82843.9
-23.115	82843.9
-23.110	82871.9
-23.105	82873.9
-23.100	82870.9
-23.095	82866.9
-23.090	82861.9
-23.085	82861.9
-23.080	82861.9
-23.075	82870.9
-23.070	82867.9
-23.065	82865.9
-23.060	82877.9
-23.055	82834.9
-23.050	82834.9
-23.045	82838.9
-23.040	82865.9
-23.035	82864.9
-23.030	82860.9
-23.025	82868.9
-23.020	82875.9
-23.015	82870.9
-23.010	82885.9
-23.005	82882.9
-23.000	82880.9
-22.995	82879.9
-22.990	82860.9
-22.985	82833.9
-22.980	82850.9
-22.975	82879.9
-22.970	82868.9
-22.965	82861.9
-22.960	82856.9
-22.955	82860.9
-22.950	82860.9
-22.945	82867.9
-22.940	82861.9
-22.935	82860.9
-22.930	82862.9
-22.925	82862.9
-22.920	82835.9
-22.915	82831.9
-22.910	82861.9
-22.905	82864.9
-22.900	82867.9
-22.895	82856.9
-22.890	82866.9
-22.885	82863.9
-22.880	82872.9
-22.875	82872.9
-22.870	82879.9
-22.865	82872.9
-22.860	82869.9
-22.855	82847.9
-22.850	82842.9
-22.845	82862.9
-22.840	82879.9
-22.835	82864.9
-22.830	82856.9
-22.825	82856.9
-22.820	82849.9
-22.815	82859.9
-22.810	82862.9
-22.805	82865.9
-22.800	82861.9
-22.795	82862.9
-22.790	82850.9
-22.785	82826.9
-22.780	82837.9
-22.775	82866.9
-22.770	82855.9
-22.765	82856.9
-22.760	82861.9
-22.755	82867.9
-22.750	82865.9
-22.745	82870.9
-22.740	82871.9
-22.735	82883.9
-22.730	82870.9
-22.725	82858.9
-22.720	82830.9
-22.715	82850.9
-22.710	82863.9
-22.705	82867.9
-22.700	82853.9
-22.695	82852.9
-22.690	82855.9
-22.685	82861.9
-22.680	82858.9
-22.675	82858.9
-22.670	82862.9
-22.665	82867.9
-22.660	82868.9
-22.655	82827.9
-22.650	82832.9
-22.645	82854.9
-22.640	82873.9
-22.635	82862.9
-22.630	82863.9
-22.625	82854.9
-22.620	82864.9
-22.615	82858.9
-22.610	82869.9
-22.605	82867.9
-22.600	82876.9
-22.595	82866.9
-22.590	82850.9
-22.585	82836.9
-22.580	82848.9
-22.575	82872.9
-22.570	82870.9
-22.565	82858.9
-22.560	82857.9
-22.555	82862.9
-22.550	82857.9
-22.545	82867.9
-22.540	82865.9
-22.535	82869.9
-22.530	82881.9
-22.525	82854.9
-22.520	82824.9
-22.515	82833.9
-22.510	82867.9
-22.505	82857.9
-22.500	82867.9
-22.495	82860.9
-22.490	82867.9
-22.485	82874.9
-22.480	82880.9
-22.475	82867.9
-22.470	82876.9
-22.465	82872.9
-22.460	82877.9
-22.455	82843.9
-22.450	82843.9
-22.445	82865.9
-22.440	82878.9
-22.435	82865.9
-22.430	82859.9
-22.425	82862.9
-22.420	82855.9
-22.415	82857.9
-22.410	82867.9
-22.405	82860.9
-22.400	82865.9
-22.395	82867.9
-22.390	82846.9
-22.385	82827.9
-22.380	82845.9
-22.375	82869.9
-22.370	82870.9
-22.365	82857.9
-22.360	82859.9
-22.355	82861.9
-22.350	82870.9
-22.345	82870.9
-22.340	82877.9
-22.335	82876.9
-22.330	82866.9
-22.325	82850.9
-22.320	82832.9
-22.315	82836.9
-22.310	82871.9
-22.305	82863.9
-22.300	82863.9
-22.295	82851.9
-22.290	82855.9
-22.285	82852.9
-22.280	82858.9
-22.275	82860.9
-22.270	82860.9
-22.265	82863.9
-22.260	82857.9
-22.255	82832.9
-22.250	82828.9
-22.245	82846.9
-22.240	82865.9
-22.235	82857.9
-22.230	82858.9
-22.225	82848.9
-22.220	82855.9
-22.215	82858.9
-22.210	82875.9
-22.205	82859.9
-22.200	82860.9
-22.195	82857.9
-22.190	82830.9
-22.185	82814.9
-22.180	82842.9
-22.175	82860.9
-22.170	82855.9
-22.165	82835.9
-22.160	82841.9
-22.155	82839.9
-22.150	82841.9
-22.145	82842.9
-22.140	82849.9
-22.135	82853.9
-22.130	82849.9
-22.125	82829.9
-22.120	82814.9
-22.115	82816.9
-22.110	82845.9
-22.105	82839.9
-22.100	82848.9
-22.095	82841.9
-22.090	82849.9
-22.085	82853.9
-22.080	82848.9
-22.075	82856.9
-22.070	82859.9
-22.065	82851.9
-22.060	82853.9
-22.055	82807.9
-22.050	82818.9
-22.045	82828.9
-22.040	82842.9
-22.035	82829.9
-22.030	82829.9
-22.025	82818.9
-22.020	82831.9
-22.015	82838.9
-22.010	82837.9
-22.005	82837.9
-22.000	82835.9
-21.995	82849.9
-21.990	82811.9
-21.985	82798.9
-21.980	82817.9
-21.975	82842.9
-21.970	82827.9
-21.965	82830.9
-21.960	82838.9
-21.955	82837.9
-21.950	82842.9
-21.945	82838.9
-21.940	82838.9
-21.935	82837.9
-21.930	82839.9
-21.925	82821.9
-21.920	82808.9
-21.915	82814.9
-21.910	82845.9
-21.905	82826.9
-21.900	82823.9
-21.895	82814.9
-21.890	82829.9
-21.885	82823.9
-21.880	82823.9
-21.875	82830.9
-21.870	82831.9
-21.865	82824.9
-21.860	82826.9
-21.855	82799.9
-21.850	82796.9
-21.845	82817.9
-21.840	82821.9
-21.835	82822.9
-21.830	82821.9
-21.825	82818.9
-21.820	82828.9
-21.815	82826.9
-21.810	82836.9
-21.805	82829.9
-21.800	82841.9
-21.795	82828.9
-21.790	82803.9
-21.785	82794.9
-21.780	82820.9
-21.775	82827.9
-21.770	82822.9
-21.765	82815.9
-21.760	82805.9
-21.755	82809.9
-21.750	82823.9
-21.745	82808.9
-21.740	82817.9
-21.735	82817.9
-21.730	82831.9
-21.725	82803.9
-21.720	82787.9
-21.715	82786.9
-21.710	82819.9
-21.705	82813.9
-21.700	82816.9
-21.695	82807.9
-21.690	82811.9
-21.685	82815.9
-21.680	82825.9
-21.675	82817.9
-21.670	82826.9
-21.665	82813.9
-21.660	82807.9
-21.655	82774.0
-21.650	82795.9
-21.645	82811.9
-21.640	82816.9
-21.635	82805.9
-21.630	82808.9
-21.625	82802.9
-21.620	82814.9
-21.615	82806.9
-21.610	82818.9
-21.605	82818.9
-21.600	82815.9
-21.595	82820.9
-21.590	82789.9
-21.585	82773.0
-21.580	82791.9
-21.575	82807.9
-21.570	82804.9
-21.565	82800.9
-21.560	82809.9
-21.555	82808.9
-21.550	82814.9
-21.545	82812.9
-21.540	82812.9
-21.535	82811.9
-21.530	82810.9
-21.525	82790.9
-21.520	82777.9
-21.515	82788.9
-21.510	82817.9
-21.505	82800.9
-21.500	82791.9
-21.495	82784.9
-21.490	82789.9
-21.485	82780.9
-21.480	82774.0
-21.475	82774.0
-21.470	82760.0
-21.465	82730.0
-21.460	82691.0
-21.455	82592.1
-21.450	82518.2
-21.445	82422.4
-21.440	82264.5
-21.435	82040.8
-21.430	81739.1
-21.425	81370.5
-21.420	80927.0
-21.415	80450.6
-21.410	80001.1
-21.405	79571.7
-21.400	79122.3
-21.395	78602.0
-21.390	77959.8
-21.385	77327.6
-21.380	76739.4
-21.375	76128.2
-21.370	75383.1
-21.365	74462.2
-21.360	73510.2
-21.355	73057.9
-21.350	72854.3
-21.345	72392.8
-21.340	72488.6
-21.335	73318.9
-21.330	73432.7
-21.325	73424.5
-21.320	74291.8
-21.315	75406.0
-21.310	76328.2
-21.305	76620.0
-21.300	75886.4
-21.295	74364.4
-21.290	74093.4
-21.285	75170.6
-21.280	75567.2
-21.275	75157.4
-21.270	75910.8
-21.265	75625.0
-21.260	73781.2
-21.255	74824.4
-21.250	76857.9
-21.245	77571.3
-21.240	77881.1
-21.235	77775.1
-21.230	77332.4
-21.225	76373.0
-21.220	75723.4
-21.215	76265.0
-21.210	76908.6
-21.205	77159.3
-21.200	77710.8
-21.195	78265.4
-21.190	78164.4
-21.185	77183.1
-21.180	75716.1
-21.175	75490.2
-21.170	77053.1
-21.165	77682.6
-21.160	75825.0
-21.155	73911.4
-21.150	74686.7
-21.145	77100.9
-21.140	78238.1
-21.135	78150.1
-21.130	77636.5
-21.125	77526.5
-21.120	77697.4
-21.115	77499.5
-21.110	77404.6
-21.105	77889.2
-21.100	78479.7
-21.095	78691.6
-21.090	78572.6
-21.085	78392.7
-21.080	78297.8
-21.075	78256.8
-21.070	78268.7
-21.065	78235.8
-21.060	78340.7
-21.055	78665.4
-21.050	79047.1
-21.045	79189.0
-21.040	79122.0
-21.035	78848.2
-21.030	78391.6
-21.025	78054.8
-21.020	78096.8
-21.015	78306.6
-21.010	78571.4
-21.005	78717.2
-21.000	78697.2
-20.995	78698.2
-20.990	78792.1
-20.985	78937.0
-20.980	79023.9
-20.975	78983.0
-20.970	78893.0
-20.965	78836.0
-20.960	78786.1
-20.955	78829.0
-20.950	78914.0
-20.945	78986.9
-20.940	79070.8
-20.935	79083.8
-20.930	79056.8
-20.925	78975.8
-20.920	78884.9
-20.915	78809.9
-20.910	78781.0
-20.905	78688.0
-20.900	78556.1
-20.895	78496.1
-20.890	78576.1
-20.885	78642.0
-20.880	78717.0
-20.875	78797.9
-20.870	78859.8
-20.865	78933.8
-20.860	78929.7
-20.855	78867.8
-20.850	78854.8
-20.845	78877.8
-20.840	78922.7
-20.835	78987.7
-20.830	79055.6
-20.825	79072.6
-20.820	79107.5
-20.815	79188.5
-20.810	79256.4
-20.805	79333.4
-20.800	79404.3
-20.795	79435.3
-20.790	79472.2
-20.785	79495.2
-20.780	79534.2
-20.775	79577.1
-20.770	79584.1
-20.765	79605.1
-20.760	79635.1
-20.755	79664.0
-20.750	79698.0
-20.745	79703.0
-20.740	79690.0
-20.735	79668.0
-20.730	79638.0
-20.725	79572.1
-20.720	79550.1
-20.715	79554.1
-20.710	79550.1
-20.705	79540.1
-20.700	79551.0
-20.695	79606.0
-20.690	79620.0
-20.685	79647.0
-20.680	79682.9
-20.675	79681.9
-20.670	79674.9
-20.665	79683.9
-20.660	79708.9
-20.655	79669.9
-20.650	79654.9
-20.645	79645.9
-20.640	79626.9
-20.635	79637.9
-20.630	79668.9
-20.625	79700.9
-20.620	79794.8
-20.615	79850.7
-20.610	79924.7
-20.605	79969.6
-20.600	79990.6
-20.595	80017.6
-20.590	80035.6
-20.585	80060.6
-20.580	80110.5
-20.575	80124.5
-20.570	80123.5
-20.565	80121.5
-20.560	80139.5
-20.555	80153.5
-20.550	80155.4
-20.545	80149.4
-20.540	80178.4
-20.535	80175.4
-20.530	80161.4
-20.525	80132.4
-20.520	80138.4
-20.515	80145.4
-20.510	80170.4
-20.505	80166.4
-20.500	80136.4
-20.495	80119.4
-20.490	80105.4
-20.485	80119.4
-20.480	80129.4
-20.475	80140.4
-20.470	80135.4
-20.465	80101.4
-20.460	80064.4
-20.455	80014.5
-20.450	80048.4
-20.445	80086.4
-20.440	80074.4
-20.435	80030.4
-20.430	80022.4
-20.425	80018.4
-20.420	80006.4
-20.415	79989.5
-20.410	79967.5
-20.405	79953.5
-20.400	79958.5
-20.395	79962.5
-20.390	79938.5
-20.385	79965.5
-20.380	80025.4
-20.375	80066.4
-20.370	80085.4
-20.365	80109.3
-20.360	80147.3
-20.355	80189.3
-20.350	80240.2
-20.345	80269.2
-20.340	80291.2
-20.335	80316.2
-20.330	80332.1
-20.325	80320.1
-20.320	80331.1
-20.315	80363.1
-20.310	80401.1
-20.305	80401.1
-20.300	80407.1
-20.295	80402.1
-20.290	80404.1
-20.285	80391.1
-20.280	80358.1
-20.275	80344.1
-20.270	80354.1
-20.265	80348.1
-20.260	80325.1
-20.255	80282.1
-20.250	80290.1
-20.245	80324.1
-20.240	80342.1
-20.235	80341.1
-20.230	80336.1
-20.225	80331.1
-20.220	80364.1
-20.215	80374.0
-20.210	80398.0
-20.205	80402.0
-20.200	80417.0
-20.195	80397.0
-20.190	80387.0
-20.185	80391.0
-20.180	80425.0
-20.175	80425.0
-20.170	80432.0
-20.165	80440.0
-20.160	80448.0
-20.155	80459.9
-20.150	80491.9
-20.145	80507.9
-20.140	80542.9
-20.135	80552.9
-20.130	80581.8
-20.125	80573.8
-20.120	80576.8
-20.115	80611.8
-20.110	80641.8
-20.105	80654.8
-20.100	80660.8
-20.095	80667.8
-20.090	80666.8
-20.085	80667.8
-20.080	80676.7
-20.075	80672.7
-20.070	80674.7
-20.065	80676.7
-20.060	80662.7
-20.055	80647.7
-20.050	80668.7
-20.045	80676.7
-20.040	80675.7
-20.035	80660.7
-20.030	80662.7
-20.025	80655.7
-20.020	80670.7
-20.015	80672.7
-20.010	80685.7
-20.005	80691.7
-20.000	80707.7
-19.995	80711.7
-19.990	80678.7
-19.985	80675.7
-19.980	80687.7
-19.975	80682.7
-19.970	80672.7
-19.965	80677.7
-19.960	80668.7
-19.955	80674.7
-19.950	80672.7
-19.945	80663.7
-19.940	80660.7
-19.935	80624.7
-19.930	80613.7
-19.925	80551.8
-19.920	80543.8
-19.915	80561.8
-19.910	80565.7
-19.905	80539.8
-19.900	80527.8
-19.895	80509.8
-19.890	80494.8
-19.885	80494.8
-19.880	80489.8
-19.875	80470.8
-19.870	80456.8
-19.865	80424.8
-19.860	80397.8
-19.855	80389.9
-19.850	80413.8
-19.845	80438.8
-19.840	80426.8
-19.835	80409.8
-19.830	80411.8
-19.825	80425.8
-19.820	80449.8
-19.815	80448.8
-19.810	80456.8
-19.805	80464.8
-19.800	80465.8
-19.795	80452.8
-19.790	80428.8
-19.785	80442.8
-19.780	80452.8
-19.775	80455.8
-19.770	80446.8
-19.765	80433.8
-19.760	80450.8
-19.755	80458.8
-19.750	80459.8
-19.745	80450.8
-19.740	80455.8
-19.735	80460.7
-19.730	80468.7
-19.725	80428.8
-19.720	80417.8
-19.715	80422.8
-19.710	80439.8
-19.705	80433.8
-19.700	80428.8
-19.695	80432.8
-19.690	80448.7
-19.685	80464.7
-19.680	80467.7
-19.675	80460.7
-19.670	80446.7
-19.665	80431.7
-19.660	80408.8
-19.655	80399.8
-19.650	80418.7
-19.645	80416.7
-19.640	80407.8
-19.635	80407.8
-19.630	80421.7
-19.625	80437.7
-19.620	80470.7
-19.615	80475.7
-19.610	80501.7
-19.605	80517.7
-19.600	80550.6
-19.595	80575.6
-19.590	80569.6
-19.585	80604.6
-19.580	80623.6
-19.575	80604.6
-19.570	80619.6
-19.565	80637.6
-19.560	80662.5
-19.555	80679.5
-19.550	80691.5
-19.545	80705.5
-19.540	80704.5
-19.535	80726.5
-19.530	80749.5
-19.525	80738.5
-19.520	80756.5
-19.515	80791.4
-19.510	80806.4
-19.505	80805.4
-19.500	80792.4
-19.495	80793.4
-19.490	80783.4
-19.485	80782.4
-19.480	80780.4
-19.475	80781.4
-19.470	80779.4
-19.465	80767.4
-19.460	80728.5
-19.455	80703.5
-19.450	80733.5
-19.445	80716.5
-19.440	80703.5
-19.435	80686.5
-19.430	80671.5
-19.425	80662.5
-19.420	80675.5
-19.415	80679.5
-19.410	80675.5
-19.405	80681.5
-19.400	80668.5
-19.395	80634.5
-19.390	80593.5
-19.385	80598.5
-19.380	80629.5
-19.375	80627.5
-19.370	80643.5
-19.365	80647.5
-19.360	80650.5
-19.355	80632.5
-19.350	80654.5
-19.345	80678.5
-19.340	80707.5
-19.335	80729.4
-19.330	80731.4
-19.325	80713.4
-19.320	80724.4
-19.315	80762.4
-19.310	80809.4
-19.305	80854.3
-19.300	80877.3
-19.295	80894.3
-19.290	80922.3
-19.285	80941.3
-19.280	80972.2
-19.275	80980.2
-19.270	80999.2
-19.265	80999.2
-19.260	80976.2
-19.255	80992.2
-19.250	81029.2
-19.245	81054.2
-19.240	81058.2
-19.235	81047.2
-19.230	81044.2
-19.225	81036.2
-19.220	81036.2
-19.215	81024.2
-19.210	81027.2
-19.205	81024.2
-19.200	81023.2
-19.195	81001.2
-19.190	80967.2
-19.185	80973.2
-19.180	80988.2
-19.175	80968.2
-19.170	80957.2
-19.165	80941.2
-19.160	80930.2
-19.155	80927.3
-19.150	80933.2
-19.145	80908.3
-19.140	80908.3
-19.135	80906.3
-19.130	80882.3
-19.125	80839.3
-19.120	80857.3
-19.115	80887.3
-19.110	80906.3
-19.105	80908.2
-19.100	80909.2
-19.095	80906.3
-19.090	80906.2
-19.085	80906.2
-19.080	80904.2
-19.075	80909.2
-19.070	80916.2
-19.065	80915.2
-19.060	80882.3
-19.055	80876.3
-19.050	80892.2
-19.045	80920.2
-19.040	80918.2
-19.035	80922.2
-19.030	80935.2
-19.025	80915.2
-19.020	80908.2
-19.015	80904.2
-19.010	80903.2
-19.005	80892.2
-19.000	80899.2
-18.995	80867.3
-18.990	80857.3
-18.985	80871.3
-18.980	80892.2
-18.975	80880.2
-18.970	80892.2
-18.965	80888.2
-18.960	80886.2
-18.955	80887.2
-18.950	80886.2
-18.945	80877.2
-18.940	80870.2
-18.935	80869.2
-18.930	80866.2
-18.925	80834.3
-18.920	80839.3
-18.915	80855.2
-18.910	80860.2
-18.905	80837.3
-18.900	80835.3
-18.895	80834.3
-18.890	80853.2
-18.885	80847.2
-18.880	80856.2
-18.875	80877.2
-18.870	80888.2
-18.865	80881.2
-18.860	80844.2
-18.855	80841.2
-18.850	80862.2
-18.845	80871.2
-18.840	80870.2
-18.835	80861.2
-18.830	80858.2
-18.825	80878.2
-18.820	80911.2
-18.815	80931.2
-18.810	80925.2
-18.805	80957.1
-18.800	80985.1
-18.795	80998.1
-18.790	80996.1
-18.785	81021.1
-18.780	81052.1
-18.775	81059.1
-18.770	81071.1
-18.765	81093.0
-18.760	81113.0
-18.755	81106.0
-18.750	81107.0
-18.745	81112.0
-18.740	81111.0
-18.735	81115.0
-18.730	81128.0
-18.725	81110.0
-18.720	81114.0
-18.715	81143.0
-18.710	81161.0
-18.705	81151.0
-18.700	81150.0
-18.695	81153.0
-18.690	81155.0
-18.685	81166.0
-18.680	81177.0
-18.675	81189.0
-18.670	81206.9
-18.665	81203.9
-18.660	81179.0
-18.655	81175.0
-18.650	81207.9
-18.645	81226.9
-18.640	81229.9
-18.635	81231.9
-18.630	81240.9
-18.625	81237.9
-18.620	81250.9
-18.615	81258.9
-18.610	81269.9
-18.605	81255.9
-18.600	81242.9
-18.595	81226.9
-18.590	81212.9
-18.585	81230.9
-18.580	81265.9
-18.575	81262.9
-18.570	81254.9
-18.565	81249.9
-18.560	81255.9
-18.555	81245.9
-18.550	81251.9
-18.545	81252.9
-18.540	81258.9
-18.535	81256.9
-18.530	81254.9
-18.525	81212.9
-18.520	81223.9
-18.515	81244.9
-18.510	81240.9
-18.505	81239.9
-18.500	81244.9
-18.495	81244.9
-18.490	81243.9
-18.485	81243.9
-18.480	81250.9
-18.475	81260.9
-18.470	81267.9
-18.465	81266.9
-18.460	81233.9
-18.455	81236.9
-18.450	81264.9
-18.445	81268.9
-18.440	81268.9
-18.435	81261.9
-18.430	81251.9
-18.425	81250.9
-18.420	81250.9
-18.415	81272.8
-18.410	81272.8
-18.405	81283.8
-18.400	81273.8
-18.395	81244.9
-18.390	81240.9
-18.385	81238.9
-18.380	81280.8
-18.375	81264.8
-18.370	81273.8
-18.365	81270.8
-18.360	81271.8
-18.355	81276.8
-18.350	81285.8
-18.345	81293.8
-18.340	81299.8
-18.335	81301.8
-18.330	81295.8
-18.325	81252.8
-18.320	81268.8
-18.315	81297.8
-18.310	81295.8
-18.305	81279.8
-18.300	81282.8
-18.295	81287.8
-18.290	81283.8
-18.285	81294.8
-18.280	81306.8
-18.275	81299.8
-18.270	81298.8
-18.265	81292.8
-18.260	81254.8
-18.255	81245.8
-18.250	81252.8
-18.245	81250.8
-18.240	81250.8
-18.235	81240.8
-18.230	81235.8
-18.225	81222.9
-18.220	81218.9
-18.215	81223.8
-18.210	81213.9
-18.205	81213.9
-18.200	81202.9
-18.195	81160.9
-18.190	81146.9
-18.185	81150.9
-18.180	81166.9
-18.175	81141.9
-18.170	81141.9
-18.165	81132.9
-18.160	81143.9
-18.155	81140.9
-18.150	81141.9
-18.145	81128.9
-18.140	81105.9
-18.135	81091.9
-18.130	81068.0
-18.125	81027.0
-18.120	81028.0
-18.115	81052.0
-18.110	81054.0
-18.105	81059.0
-18.100	81055.0
-18.095	81052.0
-18.090	81063.0
-18.085	81056.0
-18.080	81059.0
-18.075	81067.0
-18.070	81088.9
-18.065	81082.9
-18.060	81064.0
-18.055	81080.9
-18.050	81106.9
-18.045	81107.9
-18.040	81106.9
-18.035	81105.9
-18.030	81122.9
-18.025	81132.9
-18.020	81146.9
-18.015	81153.9
-18.010	81167.9
-18.005	81174.9
-18.000	81176.9
-17.995	81158.9
-17.990	81156.9
-17.985	81175.9
-17.980	81205.8
-17.975	81199.8
-17.970	81209.8
-17.965	81210.8
-17.960	81220.8
-17.955	81225.8
-17.950	81241.8
-17.945	81229.8
-17.940	81230.8
-17.935	81229.8
-17.930	81215.8
-17.925	81197.8
-17.920	81217.8
-17.915	81240.8
-17.910	81234.8
-17.905	81224.8
-17.900	81226.8
-17.895	81228.8
-17.890	81233.8
-17.885	81226.8
-17.880	81237.8
-17.875	81239.8
-17.870	81251.8
-17.865	81245.8
-17.860	81223.8
-17.855	81231.8
-17.850	81248.8
-17.845	81257.8
-17.840	81260.8
-17.835	81254.8
-17.830	81249.8
-17.825	81255.8
-17.820	81266.8
-17.815	81277.8
-17.810	81285.8
-17.805	81291.8
-17.800	81307.7
-17.795	81270.8
-17.790	81272.8
-17.785	81290.8
-17.780	81305.7
-17.775	81307.7
-17.770	81309.7
-17.765	81308.7
-17.760	81317.7
-17.755	81323.7
-17.750	81335.7
-17.745	81328.7
-17.740	81330.7
-17.735	81335.7
-17.730	81326.7
-17.725	81315.7
-17.720	81314.7
-17.715	81334.7
-17.710	81343.7
-17.705	81348.7
-17.700	81349.7
-17.695	81355.7
-17.690	81360.7
-17.685	81356.7
-17.680	81357.7
-17.675	81357.7
-17.670	81357.7
-17.665	81342.7
-17.660	81319.7
-17.655	81317.7
-17.650	81331.7
-17.645	81326.7
-17.640	81319.7
-17.635	81303.7
-17.630	81319.7
-17.625	81312.7
-17.620	81312.7
-17.615	81292.7
-17.610	81303.7
-17.605	81303.7
-17.600	81315.7
-17.595	81292.7
-17.590	81282.7
-17.585	81288.7
-17.580	81325.7
-17.575	81318.7
-17.570	81321.7
-17.565	81317.7
-17.560	81325.7
-17.555	81327.7
-17.550	81329.7
-17.545	81348.7
-17.540	81340.7
-17.535	81329.7
-17.530	81315.7
-17.525	81309.7
-17.520	81331.7
-17.515	81353.7
-17.510	81345.7
-17.505	81334.7
-17.500	81353.7
-17.495	81356.7
-17.490	81370.7
-17.485	81374.7
-17.480	81386.6
-17.475	81382.6
-17.470	81398.6
-17.465	81380.6
-17.460	81353.7
-17.455	81366.7
-17.450	81392.6
-17.445	81385.6
-17.440	81378.6
-17.435	81381.6
-17.430	81383.6
-17.425	81393.6
-17.420	81408.6
-17.415	81408.6
-17.410	81407.6
-17.405	81406.6
-17.400	81405.6
-17.395	81389.6
-17.390	81392.6
-17.385	81410.6
-17.380	81434.6
-17.375	81426.6
-17.370	81436.6
-17.365	81425.6
-17.360	81436.6
-17.355	81447.6
-17.350	81442.6
-17.345	81448.6
-17.340	81458.6
-17.335	81460.6
-17.330	81448.6
-17.325	81426.6
-17.320	81443.6
-17.315	81471.6
-17.310	81472.6
-17.305	81483.6
-17.300	81484.6
-17.295	81488.5
-17.290	81484.5
-17.285	81475.6
-17.280	81480.5
-17.275	81481.5
-17.270	81488.5
-17.265	81472.6
-17.260	81455.6
-17.255	81463.6
-17.250	81489.5
-17.245	81489.5
-17.240	81486.5
-17.235	81476.6
-17.230	81476.6
-17.225	81477.5
-17.220	81471.6
-17.215	81462.6
-17.210	81466.6
-17.205	81460.6
-17.200	81461.6
-17.195	81410.6
-17.190	81400.6
-17.185	81427.6
-17.180	81437.6
-17.175	81447.6
-17.170	81459.6
-17.165	81459.6
-17.160	81467.5
-17.155	81456.6
-17.150	81458.6
-17.145	81461.6
-17.140	81476.5
-17.135	81471.5
-17.130	81448.6
-17.125	81451.6
-17.120	81467.5
-17.115	81489.5
-17.110	81485.5
-17.105	81484.5
-17.100	81482.5
-17.095	81468.5
-17.090	81479.5
-17.085	81471.5
-17.080	81487.5
-17.075	81488.5
-17.070	81503.5
-17.065	81498.5
-17.060	81481.5
-17.055	81471.5
-17.050	81502.5
-17.045	81503.5
-17.040	81501.5
-17.035	81509.5
-17.030	81511.5
-17.025	81505.5
-17.020	81517.5
-17.015	81509.5
-17.010	81515.5
-17.005	81508.5
-17.000	81512.5
-16.995	81472.5
-16.990	81467.5
-16.985	81488.5
-16.980	81500.5
-16.975	81492.5
-16.970	81487.5
-16.965	81482.5
-16.960	81482.5
-16.955	81484.5
-16.950	81487.5
-16.945	81495.5
-16.940	81497.5
-16.935	81495.5
-16.930	81476.5
-16.925	81441.5
-16.920	81460.5
-16.915	81483.5
-16.910	81481.5
-16.905	81479.5
-16.900	81484.5
-16.895	81482.5
-16.890	81463.5
-16.885	81460.5
-16.880	81456.5
-16.875	81456.5
-16.870	81448.5
-16.865	81426.6
-16.860	81398.6
-16.855	81397.6
-16.850	81405.6
-16.845	81406.6
-16.840	81396.6
-16.835	81383.6
-16.830	81389.6
-16.825	81395.6
-16.820	81397.6
-16.815	81406.6
-16.810	81406.6
-16.805	81393.6
-16.800	81403.6
-16.795	81373.6
-16.790	81367.6
-16.785	81379.6
-16.780	81403.6
-16.775	81396.6
-16.770	81418.6
-16.765	81408.6
-16.760	81414.6
-16.755	81408.6
-16.750	81403.6
-16.745	81398.6
-16.740	81412.6
-16.735	81409.6
-16.730	81376.6
-16.725	81360.6
-16.720	81386.6
-16.715	81405.6
-16.710	81406.6
-16.705	81408.6
-16.700	81406.6
-16.695	81404.6
-16.690	81395.6
-16.685	81396.6
-16.680	81388.6
-16.675	81377.6
-16.670	81384.6
-16.665	81355.6
-16.660	81329.6
-16.655	81334.6
-16.650	81370.6
-16.645	81369.6
-16.640	81375.6
-16.635	81371.6
-16.630	81369.6
-16.625	81368.6
-16.620	81369.6
-16.615	81369.6
-16.610	81368.6
-16.605	81364.6
-16.600	81364.6
-16.595	81328.6
-16.590	81337.6
-16.585	81348.6
-16.580	81364.6
-16.575	81356.6
-16.570	81342.6
-16.565	81336.6
-16.560	81341.6
-16.555	81343.6
-16.550	81342.6
-16.545	81336.6
-16.540	81332.6
-16.535	81347.6
-16.530	81318.6
-16.525	81295.6
-16.520	81309.6
-16.515	81340.6
-16.510	81340.6
-16.505	81342.6
-16.500	81349.6
-16.495	81364.6
-16.490	81384.5
-16.485	81383.5
-16.480	81395.5
-16.475	81395.5
-16.470	81400.5
-16.465	81369.6
-16.460	81361.6
-16.455	81377.6
-16.450	81405.5
-16.445	81401.5
-16.440	81410.5
-16.435	81408.5
-16.430	81413.5
-16.425	81412.5
-16.420	81423.5
-16.415	81422.5
-16.410	81425.5
-16.405	81423.5
-16.400	81423.5
-16.395	81383.5
-16.390	81403.5
-16.385	81419.5
-16.380	81438.5
-16.375	81442.5
-16.370	81444.5
-16.365	81443.5
-16.360	81463.5
-16.355	81459.5
-16.350	81472.5
-16.345	81473.5
-16.340	81466.5
-16.335	81460.5
-16.330	81436.5
-16.325	81425.5
-16.320	81435.5
-16.315	81454.5
-16.310	81455.5
-16.305	81439.5
-16.300	81440.5
-16.295	81456.5
-16.290	81452.5
-16.285	81450.5
-16.280	81446.5
-16.275	81448.5
-16.270	81440.5
-16.265	81415.5
-16.260	81397.5
-16.255	81399.5
-16.250	81418.5
-16.245	81414.5
-16.240	81407.5
-16.235	81406.5
-16.230	81413.5
-16.225	81419.5
-16.220	81423.5
-16.215	81408.5
-16.210	81414.5
-16.205	81407.5
-16.200	81399.5
-16.195	81349.6
-16.190	81347.6
-16.185	81355.5
-16.180	81365.5
-16.175	81347.6
-16.170	81352.6
-16.165	81333.6
-16.160	81330.6
-16.155	81320.6
-16.150	81308.6
-16.145	81305.6
-16.140	81306.6
-16.135	81304.6
-16.130	81262.6
-16.125	81241.6
-16.120	81245.6
-16.115	81265.6
-16.110	81264.6
-16.105	81272.6
-16.100	81269.6
-16.095	81273.6
-16.090	81272.6
-16.085	81279.6
-16.080	81283.6
-16.075	81281.6
-16.070	81288.6
-16.065	81273.6
-16.060	81262.6
-16.055	81278.6
-16.050	81300.6
-16.045	81290.6
-16.040	81283.6
-16.035	81270.6
-16.030	81270.6
-16.025	81279.6
-16.020	81294.6
-16.015	81291.6
-16.010	81301.6
-16.005	81306.6
-16.000	81305.6
-15.995	81282.6
-15.990	81302.6
-15.985	81325.6
-15.980	81329.6
-15.975	81336.5
-15.970	81341.5
-15.965	81337.6
-15.960	81354.5
-15.955	81363.5
-15.950	81379.5
-15.945	81390.5
-15.940	81398.5
-15.935	81399.5
-15.930	81359.5
-15.925	81360.5
-15.920	81395.5
-15.915	81404.5
-15.910	81403.5
-15.905	81400.5
-15.900	81412.5
-15.895	81418.5
-15.890	81432.5
-15.885	81435.5
-15.880	81443.5
-15.875	81443.5
-15.870	81452.5
-15.865	81437.5
-15.860	81430.5
-15.855	81447.5
-15.850	81479.4
-15.845	81482.4
-15.840	81481.4
-15.835	81494.4
-15.830	81488.4
-15.825	81501.4
-15.820	81504.4
-15.815	81506.4
-15.810	81510.4
-15.805	81501.4
-15.800	81491.4
-15.795	81466.4
-15.790	81480.4
-15.785	81499.4
-15.780	81503.4
-15.775	81500.4
-15.770	81495.4
-15.765	81481.4
-15.760	81493.4
-15.755	81502.4
-15.750	81497.4
-15.745	81499.4
-15.740	81505.4
-15.735	81500.4
-15.730	81456.4
-15.725	81441.5
-15.720	81468.4
-15.715	81482.4
-15.710	81482.4
-15.705	81475.4
-15.700	81477.4
-15.695	81483.4
-15.690	81481.4
-15.685	81477.4
-15.680	81487.4
-15.675	81488.4
-15.670	81491.4
-15.665	81454.4
-15.660	81430.5
-15.655	81445.4
-15.650	81476.4
-15.645	81451.4
-15.640	81454.4
-15.635	81440.4
-15.630	81437.4
-15.625	81435.5
-15.620	81435.4
-15.615	81440.4
-15.610	81447.4
-15.605	81441.4
-15.600	81432.4
-15.595	81403.5
-15.590	81409.5
-15.585	81436.4
-15.580	81453.4
-15.575	81446.4
-15.570	81446.4
-15.565	81430.4
-15.560	81435.4
-15.555	81442.4
-15.550	81447.4
-15.545	81455.4
-15.540	81450.4
-15.535	81433.4
-15.530	81416.5
-15.525	81410.5
-15.520	81434.4
-15.515	81438.4
-15.510	81431.4
-15.505	81417.5
-15.500	81414.5
-15.495	81413.5
-15.490	81420.5
-15.485	81416.5
-15.480	81437.4
-15.475	81431.4
-15.470	81441.4
-15.465	81410.5
-15.460	81400.5
-15.455	81416.5
-15.450	81441.4
-15.445	81435.4
-15.440	81436.4
-15.435	81434.4
-15.430	81441.4
-15.425	81450.4
-15.420	81452.4
-15.415	81455.4
-15.410	81458.4
-15.405	81451.4
-15.400	81448.4
-15.395	81422.4
-15.390	81447.4
-15.385	81468.4
-15.380	81463.4
-15.375	81463.4
-15.370	81451.4
-15.365	81443.4
-15.360	81453.4
-15.355	81454.4
-15.350	81463.4
-15.345	81457.4
-15.340	81461.4
-15.335	81452.4
-15.330	81423.4
-15.325	81415.4
-15.320	81432.4
-15.315	81457.4
-15.310	81452.4
-15.305	81446.4
-15.300	81447.4
-15.295	81429.4
-15.290	81433.4
-15.285	81432.4
-15.280	81425.4
-15.275	81418.4
-15.270	81408.4
-15.265	81373.5
-15.260	81367.5
-15.255	81378.5
-15.250	81402.4
-15.245	81388.5
-15.240	81374.5
-15.235	81359.5
-15.230	81349.5
-15.225	81338.5
-15.220	81322.5
-15.215	81314.5
-15.210	81310.5
-15.205	81287.5
-15.200	81266.5
-15.195	81221.6
-15.190	81226.6
-15.185	81232.6
-15.180	81212.6
-15.175	81198.6
-15.170	81189.6
-15.165	81158.6
-15.160	81157.6
-15.155	81156.6
-15.150	81157.6
-15.145	81147.6
-15.140	81139.6
-15.135	81126.6
-15.130	81098.7
-15.125	81099.7
-15.120	81126.6
-15.115	81136.6
-15.110	81124.6
-15.105	81120.7
-15.100	81125.6
-15.095	81119.7
-15.090	81126.6
-15.085	81128.6
-15.080	81129.6
-15.075	81125.6
-15.070	81123.6
-15.065	81101.7
-15.060	81091.7
-15.055	81101.7
-15.050	81138.6
-15.045	81131.6
-15.040	81129.6
-15.035	81122.7
-15.030	81137.6
-15.025	81153.6
-15.020	81167.6
-15.015	81187.6
-15.010	81192.6
-15.005	81201.6
-15.000	81195.6
-14.995	81191.6
-14.990	81218.6
-14.985	81245.6
-14.980	81260.5
-14.975	81259.5
-14.970	81272.5
-14.965	81278.5
-14.960	81291.5
-14.955	81300.5
-14.950	81308.5
-14.945	81317.5
-14.940	81325.5
-14.935	81323.5
-14.930	81305.5
-14.925	81322.5
-14.920	81347.5
-14.915	81354.5
-14.910	81373.5
-14.905	81369.5
-14.900	81378.5
-14.895	81391.4
-14.890	81408.4
-14.885	81417.4
-14.880	81421.4
-14.875	81422.4
-14.870	81419.4
-14.865	81399.4
-14.860	81394.4
-14.855	81409.4
-14.850	81438.4
-14.845	81446.4
-14.840	81431.4
-14.835	81437.4
-14.830	81436.4
-14.825	81429.4
-14.820	81429.4
-14.815	81433.4
-14.810	81447.4
-14.805	81438.4
-14.800	81420.4
-14.795	81408.4
-14.790	81419.4
-14.785	81444.4
-14.780	81439.4
-14.775	81444.4
-14.770	81439.4
-14.765	81433.4
-14.760	81428.4
-14.755	81425.4
-14.750	81428.4
-14.745	81417.4
-14.740	81414.4
-14.735	81411.4
-14.730	81377.4
-14.725	81387.4
-14.720	81422.4
-14.715	81431.4
-14.710	81420.4
-14.705	81403.4
-14.700	81390.4
-14.695	81383.4
-14.690	81398.4
-14.685	81405.4
-14.680	81416.4
-14.675	81413.4
-14.670	81413.4
-14.665	81367.4
-14.660	81365.4
-14.655	81378.4
-14.650	81403.4
-14.645	81408.4
-14.640	81402.4
-14.635	81409.4
-14.630	81425.4
-14.625	81425.4
-14.620	81429.4
-14.615	81426.4
-14.610	81423.4
-14.605	81429.4
-14.600	81416.4
-14.595	81403.4
-14.590	81428.4
-14.585	81440.4
-14.580	81438.4
-14.575	81444.4
-14.570	81443.4
-14.565	81442.4
-14.560	81443.4
-14.555	81453.4
-14.550	81462.4
-14.545	81460.4
-14.540	81457.4
-14.535	81453.4
-14.530	81431.4
-14.525	81429.4
-14.520	81457.4
-14.515	81467.4
-14.510	81472.4
-14.505	81484.3
-14.500	81487.3
-14.495	81478.4
-14.490	81500.3
-14.485	81499.3
-14.480	81507.3
-14.475	81500.3
-14.470	81507.3
-14.465	81465.4
-14.460	81466.4
-14.455	81494.3
-14.450	81513.3
-14.445	81521.3
-14.440	81516.3
-14.435	81516.3
-14.430	81526.3
-14.425	81524.3
-14.420	81533.3
-14.415	81530.3
-14.410	81538.3
-14.405	81534.3
-14.400	81524.3
-14.395	81500.3
-14.390	81518.3
-14.385	81529.3
-14.380	81534.3
-14.375	81532.3
-14.370	81535.3
-14.365	81532.3
-14.360	81541.3
-14.355	81548.3
-14.350	81551.3
-14.345	81556.3
-14.340	81551.3
-14.335	81541.3
-14.330	81524.3
-14.325	81528.3
-14.320	81555.3
-14.315	81550.3
-14.310	81546.3
-14.305	81539.3
-14.300	81541.3
-14.295	81534.3
-14.290	81543.3
-14.285	81536.3
-14.280	81552.3
-14.275	81559.3
-14.270	81554.3
-14.265	81515.3
-14.260	81515.3
-14.255	81535.3
-14.250	81536.3
-14.245	81542.3
-14.240	81542.3
-14.235	81539.3
-14.230	81548.3
-14.225	81545.3
-14.220	81553.3
-14.215	81554.3
-14.210	81568.3
-14.205	81551.3
-14.200	81534.3
-14.195	81525.3
-14.190	81546.3
-14.185	81567.3
-14.180	81558.3
-14.175	81555.3
-14.170	81545.3
-14.165	81541.3
-14.160	81541.3
-14.155	81550.3
-14.150	81554.3
-14.145	81550.3
-14.140	81557.3
-14.135	81551.3
-14.130	81516.3
-14.125	81526.3
-14.120	81561.3
-14.115	81549.3
-14.110	81557.3
-14.105	81556.3
-14.100	81564.3
-14.095	81562.3
-14.090	81565.3
-14.085	81564.3
-14.080	81573.3
-14.075	81568.3
-14.070	81560.3
-14.065	81536.3
-14.060	81547.3
-14.055	81560.3
-14.050	81579.3
-14.045	81569.3
-14.040	81571.3
-14.035	81567.3
-14.030	81579.3
-14.025	81570.3
-14.020	81571.3
-14.015	81562.3
-14.010	81582.2
-14.005	81573.3
-14.000	81548.3
-13.995	81536.3
-13.990	81556.3
-13.985	81565.3
-13.980	81570.3
-13.975	81573.3
-13.970	81568.3
-13.965	81573.3
-13.960	81585.2
-13.955	81574.2
-13.950	81574.2
-13.945	81580.2
-13.940	81575.2
-13.935	81564.3
-13.930	81537.3
-13.925	81549.3
-13.920	81567.3
-13.915	81561.3
-13.910	81549.3
-13.905	81542.3
-13.900	81551.3
-13.895	81548.3
-13.890	81554.3
-13.885	81557.3
-13.880	81563.3
-13.875	81564.3
-13.870	81572.2
-13.865	81534.3
-13.860	81536.3
-13.855	81556.3
-13.850	81581.2
-13.845	81578.2
-13.840	81578.2
-13.835	81576.2
-13.830	81579.2
-13.825	81577.2
-13.820	81589.2
-13.815	81595.2
-13.810	81588.2
-13.805	81595.2
-13.800	81581.2
-13.795	81575.2
-13.790	81586.2
-13.785	81606.2
-13.780	81598.2
-13.775	81592.2
-13.770	81594.2
-13.765	81586.2
-13.760	81594.2
-13.755	81597.2
-13.750	81616.2
-13.745	81619.2
-13.740	81623.2
-13.735	81610.2
-13.730	81575.2
-13.725	81578.2
-13.720	81606.2
-13.715	81607.2
-13.710	81617.2
-13.705	81619.2
-13.700	81621.2
-13.695	81632.2
-13.690	81635.2
-13.685	81623.2
-13.680	81640.2
-13.675	81634.2
-13.670	81621.2
-13.665	81597.2
-13.660	81597.2
-13.655	81613.2
-13.650	81628.2
-13.645	81619.2
-13.640	81608.2
-13.635	81604.2
-13.630	81606.2
-13.625	81596.2
-13.620	81594.2
-13.615	81597.2
-13.610	81590.2
-13.605	81584.2
-13.600	81575.2
-13.595	81553.3
-13.590	81572.2
-13.585	81582.2
-13.580	81577.2
-13.575	81578.2
-13.570	81581.2
-13.565	81568.2
-13.560	81583.2
-13.555	81572.2
-13.550	81568.2
-13.545	81565.2
-13.540	81555.2
-13.535	81536.3
-13.530	81508.3
-13.525	81511.3
-13.520	81528.3
-13.515	81528.3
-13.510	81529.3
-13.505	81510.3
-13.500	81502.3
-13.495	81487.3
-13.490	81489.3
-13.485	81485.3
-13.480	81484.3
-13.475	81483.3
-13.470	81471.3
-13.465	81423.3
-13.460	81423.3
-13.455	81443.3
-13.450	81438.3
-13.445	81436.3
-13.440	81433.3
-13.435	81430.3
-13.430	81422.3
-13.425	81415.3
-13.420	81427.3
-13.415	81439.3
-13.410	81439.3
-13.405	81427.3
-13.400	81394.4
-13.395	81396.4
-13.390	81420.3
-13.385	81433.3
-13.380	81434.3
-13.375	81425.3
-13.370	81418.3
-13.365	81425.3
-13.360	81429.3
-13.355	81431.3
-13.350	81427.3
-13.345	81429.3
-13.340	81442.3
-13.335	81416.3
-13.330	81409.3
-13.325	81417.3
-13.320	81453.3
-13.315	81448.3
-13.310	81462.3
-13.305	81442.3
-13.300	81453.3
-13.295	81466.3
-13.290	81473.3
-13.285	81476.3
-13.280	81486.3
-13.275	81476.3
-13.270	81475.3
-13.265	81439.3
-13.260	81450.3
-13.255	81485.3
-13.250	81478.3
-13.245	81481.3
-13.240	81484.3
-13.235	81490.3
-13.230	81491.3
-13.225	81493.3
-13.220	81499.3
-13.215	81489.3
-13.210	81500.3
-13.205	81501.3
-13.200	81481.3
-13.195	81479.3
-13.190	81494.3
-13.185	81519.3
-13.180	81508.3
-13.175	81518.3
-13.170	81519.3
-13.165	81517.3
-13.160	81531.2
-13.155	81525.3
-13.150	81535.2
-13.145	81527.2
-13.140	81540.2
-13.135	81510.3
-13.130	81509.3
-13.125	81500.3
-13.120	81530.2
-13.115	81527.2
-13.110	81515.3
-13.105	81506.3
-13.100	81513.3
-13.095	81519.3
-13.090	81521.3
-13.085	81515.3
-13.080	81516.3
-13.075	81521.3
-13.070	81502.3
-13.065	81479.3
-13.060	81478.3
-13.055	81498.3
-13.050	81508.3
-13.045	81505.3
-13.040	81513.3
-13.035	81511.3
-13.030	81519.3
-13.025	81512.3
-13.020	81518.2
-13.015	81505.3
-13.010	81516.2
-13.005	81509.3
-13.000	81479.3
-12.995	81467.3
-12.990	81484.3
-12.985	81494.3
-12.980	81496.3
-12.975	81491.3
-12.970	81490.3
-12.965	81488.3
-12.960	81476.3
-12.955	81480.3
-12.950	81498.3
-12.945	81494.3
-12.940	81495.3
-12.935	81469.3
-12.930	81455.3
-12.925	81457.3
-12.920	81493.3
-12.915	81485.3
-12.910	81486.3
-12.905	81488.3
-12.900	81492.3
-12.895	81494.3
-12.890	81492.3
-12.885	81497.3
-12.880	81503.3
-12.875	81499.3
-12.870	81503.3
-12.865	81490.3
-12.860	81488.3
-12.855	81507.2
-12.850	81510.2
-12.845	81498.3
-12.840	81500.3
-12.835	81512.3
-12.830	81517.2
-12.825	81512.2
-12.820	81519.2
-12.815	81534.2
-12.810	81527.2
-12.805	81523.2
-12.800	81497.3
-12.795	81492.3
-12.790	81511.2
-12.785	81532.2
-12.780	81532.2
-12.775	81536.2
-12.770	81543.2
-12.765	81542.2
-12.760	81546.2
-12.755	81548.2
-12.750	81540.2
-12.745	81544.2
-12.740	81540.2
-12.735	81514.2
-12.730	81506.3
-12.725	81517.2
-12.720	81551.2
-12.715	81542.2
-12.710	81532.2
-12.705	81536.2
-12.700	81549.2
-12.695	81542.2
-12.690	81549.2
-12.685	81549.2
-12.680	81553.2
-12.675	81553.2
-12.670	81549.2
-12.665	81539.2
-12.660	81535.2
-12.655	81562.2
-12.650	81567.2
-12.645	81567.2
-12.640	81563.2
-12.635	81569.2
-12.630	81575.2
-12.625	81565.2
-12.620	81572.2
-12.615	81558.2
-12.610	81567.2
-12.605	81569.2
-12.600	81539.2
-12.595	81532.2
-12.590	81569.2
-12.585	81567.2
-12.580	81564.2
-12.575	81565.2
-12.570	81568.2
-12.565	81556.2
-12.560	81560.2
-12.555	81567.2
-12.550	81575.2
-12.545	81581.2
-12.540	81583.2
-12.535	81554.2
-12.530	81536.2
-12.525	81552.2
-12.520	81576.2
-12.515	81567.2
-12.510	81575.2
-12.505	81569.2
-12.500	81565.2
-12.495	81562.2
-12.490	81569.2
-12.485	81580.2
-12.480	81578.2
-12.475	81573.2
-12.470	81569.2
-12.465	81544.2
-12.460	81550.2
-12.455	81575.2
-12.450	81581.2
-12.445	81569.2
-12.440	81578.2
-12.435	81586.2
-12.430	81581.2
-12.425	81578.2
-12.420	81582.2
-12.415	81578.2
-12.410	81582.2
-12.405	81582.2
-12.400	81552.2
-12.395	81553.2
-12.390	81572.2
-12.385	81593.2
-12.380	81588.2
-12.375	81582.2
-12.370	81587.2
-12.365	81589.2
-12.360	81598.2
-12.355	81594.2
-12.350	81595.2
-12.345	81595.2
-12.340	81601.2
-12.335	81570.2
-12.330	81573.2
-12.325	81584.2
-12.320	81610.2
-12.315	81601.2
-12.310	81602.2
-12.305	81595.2
-12.300	81598.2
-12.295	81605.2
-12.290	81614.2
-12.285	81608.2
-12.280	81610.2
-12.275	81616.2
-12.270	81608.2
-12.265	81586.2
-12.260	81588.2
-12.255	81611.2
-12.250	81617.2
-12.245	81626.1
-12.240	81621.1
-12.235	81630.1
-12.230	81630.1
-12.225	81630.1
-12.220	81640.1
-12.215	81638.1
-12.210	81640.1
-12.205	81649.1
-12.200	81629.1
-12.195	81621.1
-12.190	81641.1
-12.185	81648.1
-12.180	81649.1
-12.175	81640.1
-12.170	81649.1
-12.165	81650.1
-12.160	81655.1
-12.155	81660.1
-12.150	81661.1
-12.145	81662.1
-12.140	81666.1
-12.135	81644.1
-12.130	81629.1
-12.125	81652.1
-12.120	81677.1
-12.115	81674.1
-12.110	81678.1
-12.105	81685.1
-12.100	81690.1
-12.095	81690.1
-12.090	81694.1
-12.085	81694.1
-12.080	81695.1
-12.075	81699.1
-12.070	81686.1
-12.065	81664.1
-12.060	81685.1
-12.055	81705.1
-12.050	81702.1
-12.045	81685.1
-12.040	81698.1
-12.035	81690.1
-12.030	81694.1
-12.025	81695.1
-12.020	81708.1
-12.015	81708.1
-12.010	81716.1
-12.005	81706.1
-12.000	81671.1
-11.995	81681.1
-11.990	81702.1
-11.985	81711.1
-11.980	81714.1
-11.975	81712.1
-11.970	81704.1
-11.965	81706.1
-11.960	81710.1
-11.955	81710.1
-11.950	81712.1
-11.945	81712.1
-11.940	81715.1
-11.935	81679.1
-11.930	81694.1
-11.925	81706.1
-11.920	81721.1
-11.915	81714.1
-11.910	81724.1
-11.905	81713.1
-11.900	81714.1
-11.895	81724.1
-11.890	81733.0
-11.885	81724.1
-11.880	81722.1
-11.875	81729.0
-11.870	81720.1
-11.865	81698.1
-11.860	81706.1
-11.855	81721.1
-11.850	81724.1
-11.845	81728.0
-11.840	81726.1
-11.835	81726.1
-11.830	81729.0
-11.825	81729.0
-11.820	81724.0
-11.815	81728.0
-11.810	81726.0
-11.805	81714.1
-11.800	81688.1
-11.795	81702.1
-11.790	81727.1
-11.785	81716.1
-11.780	81715.1
-11.775	81706.1
-11.770	81703.1
-11.765	81699.1
-11.760	81704.1
-11.755	81703.1
-11.750	81705.1
-11.745	81701.1
-11.740	81708.1
-11.735	81679.1
-11.730	81666.1
-11.725	81684.1
-11.720	81699.1
-11.715	81684.1
-11.710	81691.1
-11.705	81688.1
-11.700	81689.1
-11.695	81691.1
-11.690	81694.1
-11.685	81695.1
-11.680	81697.1
-11.675	81694.1
-11.670	81672.1
-11.665	81658.1
-11.660	81676.1
-11.655	81687.1
-11.650	81684.1
-11.645	81678.1
-11.640	81671.1
-11.635	81676.1
-11.630	81671.1
-11.625	81669.1
-11.620	81681.1
-11.615	81679.1
-11.610	81683.1
-11.605	81670.1
-11.600	81642.1
-11.595	81653.1
-11.590	81675.1
-11.585	81675.1
-11.580	81675.1
-11.575	81677.1
-11.570	81670.1
-11.565	81663.1
-11.560	81664.1
-11.555	81673.1
-11.550	81679.1
-11.545	81672.1
-11.540	81666.1
-11.535	81626.1
-11.530	81631.1
-11.525	81639.1
-11.520	81657.1
-11.515	81654.1
-11.510	81645.1
-11.505	81647.1
-11.500	81650.1
-11.495	81653.1
-11.490	81657.1
-11.485	81654.1
-11.480	81660.1
-11.475	81652.1
-11.470	81626.1
-11.465	81612.1
-11.460	81621.1
-11.455	81658.1
-11.450	81663.1
-11.445	81645.1
-11.440	81657.1
-11.435	81647.1
-11.430	81650.1
-11.425	81662.1
-11.420	81671.1
-11.415	81661.1
-11.410	81667.1
-11.405	81655.1
-11.400	81628.1
-11.395	81645.1
-11.390	81663.1
-11.385	81663.1
-11.380	81667.1
-11.375	81656.1
-11.370	81652.1
-11.365	81661.1
-11.360	81654.1
-11.355	81655.1
-11.350	81662.1
-11.345	81647.1
-11.340	81665.1
-11.335	81627.1
-11.330	81625.1
-11.325	81642.1
-11.320	81668.1
-11.315	81663.1
-11.310	81667.1
-11.305	81649.1
-11.300	81653.1
-11.295	81648.1
-11.290	81659.1
-11.285	81665.1
-11.280	81658.1
-11.275	81658.1
-11.270	81625.1
-11.265	81619.1
-11.260	81638.1
-11.255	81661.1
-11.250	81653.1
-11.245	81641.1
-11.240	81639.1
-11.235	81647.1
-11.230	81651.1
-11.225	81660.1
-11.220	81659.1
-11.215	81659.1
-11.210	81660.1
-11.205	81643.1
-11.200	81630.1
-11.195	81619.1
-11.190	81663.1
-11.185	81652.1
-11.180	81662.1
-11.175	81658.1
-11.170	81659.1
-11.165	81650.1
-11.160	81663.1
-11.155	81660.1
-11.150	81673.1
-11.145	81659.1
-11.140	81663.1
-11.135	81633.1
-11.130	81636.1
-11.125	81654.1
-11.120	81664.1
-11.115	81656.1
-11.110	81646.1
-11.105	81638.1
-11.100	81646.1
-11.095	81649.1
-11.090	81652.1
-11.085	81649.1
-11.080	81656.1
-11.075	81661.1
-11.070	81634.1
-11.065	81616.1
-11.060	81637.1
-11.055	81654.1
-11.050	81655.1
-11.045	81657.1
-11.040	81661.1
-11.035	81653.1
-11.030	81668.1
-11.025	81667.1
-11.020	81662.1
-11.015	81664.1
-11.010	81664.1
-11.005	81649.1
-11.000	81632.1
-10.995	81643.1
-10.990	81670.1
-10.985	81665.1
-10.980	81663.1
-10.975	81657.1
-10.970	81663.1
-10.965	81651.1
-10.960	81658.1
-10.955	81674.1
-10.950	81681.1
-10.945	81678.1
-10.940	81674.1
-10.935	81647.1
-10.930	81657.1
-10.925	81669.1
-10.920	81697.0
-10.915	81683.0
-10.910	81689.0
-10.905	81690.0
-10.900	81696.0
-10.895	81700.0
-10.890	81711.0
-10.885	81707.0
-10.880	81711.0
-10.875	81700.0
-10.870	81683.0
-10.865	81671.1
-10.860	81695.0
-10.855	81713.0
-10.850	81718.0
-10.845	81709.0
-10.840	81708.0
-10.835	81707.0
-10.830	81705.0
-10.825	81703.0
-10.820	81714.0
-10.815	81714.0
-10.810	81723.0
-10.805	81708.0
-10.800	81682.0
-10.795	81699.0
-10.790	81721.0
-10.785	81723.0
-10.780	81725.0
-10.775	81723.0
-10.770	81725.0
-10.765	81735.0
-10.760	81733.0
-10.755	81731.0
-10.750	81741.0
-10.745	81735.0
-10.740	81732.0
-10.735	81699.0
-10.730	81710.0
-10.725	81728.0
-10.720	81737.0
-10.715	81732.0
-10.710	81727.0
-10.705	81724.0
-10.700	81717.0
-10.695	81715.0
-10.690	81722.0
-10.685	81725.0
-10.680	81712.0
-10.675	81712.0
-10.670	81684.0
-10.665	81674.0
-10.660	81692.0
-10.655	81725.0
-10.650	81718.0
-10.645	81706.0
-10.640	81708.0
-10.635	81706.0
-10.630	81709.0
-10.625	81715.0
-10.620	81724.0
-10.615	81716.0
-10.610	81713.0
-10.605	81680.0
-10.600	81666.0
-10.595	81673.0
-10.590	81697.0
-10.585	81676.0
-10.580	81673.0
-10.575	81669.0
-10.570	81669.0
-10.565	81667.0
-10.560	81665.1
-10.555	81667.0
-10.550	81674.0
-10.545	81681.0
-10.540	81667.0
-10.535	81629.1
-10.530	81645.1
-10.525	81646.1
-10.520	81662.0
-10.515	81673.0
-10.510	81666.0
-10.505	81655.1
-10.500	81669.0
-10.495	81664.1
-10.490	81673.0
-10.485	81676.0
-10.480	81690.0
-10.475	81669.0
-10.470	81647.1
-10.465	81639.1
-10.460	81662.0
-10.455	81670.0
-10.450	81678.0
-10.445	81659.0
-10.440	81666.0
-10.435	81667.0
-10.430	81674.0
-10.425	81672.0
-10.420	81684.0
-10.415	81683.0
-10.410	81682.0
-10.405	81659.1
-10.400	81646.1
-10.395	81651.1
-10.390	81680.0
-10.385	81682.0
-10.380	81673.0
-10.375	81667.0
-10.370	81672.0
-10.365	81668.0
-10.360	81661.0
-10.355	81676.0
-10.350	81680.0
-10.345	81681.0
-10.340	81677.0
-10.335	81644.1
-10.330	81662.0
-10.325	81692.0
-10.320	81695.0
-10.315	81683.0
-10.310	81694.0
-10.305	81686.0
-10.300	81686.0
-10.295	81688.0
-10.290	81690.0
-10.285	81693.0
-10.280	81697.0
-10.275	81701.0
-10.270	81665.0
-10.265	81653.0
-10.260	81674.0
-10.255	81702.0
-10.250	81699.0
-10.245	81696.0
-10.240	81697.0
-10.235	81700.0
-10.230	81702.0
-10.225	81696.0
-10.220	81696.0
-10.215	81697.0
-10.210	81698.0
-10.205	81674.0
-10.200	81663.0
-10.195	81683.0
-10.190	81707.0
-10.185	81708.0
-10.180	81700.0
-10.175	81683.0
-10.170	81688.0
-10.165	81691.0
-10.160	81699.0
-10.155	81696.0
-10.150	81712.0
-10.145	81706.0
-10.140	81698.0
-10.135	81672.0
-10.130	81676.0
-10.125	81680.0
-10.120	81695.0
-10.115	81706.0
-10.110	81710.0
-10.105	81711.0
-10.100	81710.0
-10.095	81701.0
-10.090	81706.0
-10.085	81707.0
-10.080	81704.0
-10.075	81701.0
-10.070	81676.0
-10.065	81681.0
-10.060	81706.0
-10.055	81712.0
-10.050	81719.0
-10.045	81703.0
-10.040	81704.0
-10.035	81702.0
-10.030	81708.0
-10.025	81701.0
-10.020	81712.0
-10.015	81715.0
-10.010	81717.0
-10.005	81687.0
-10.000	81669.0
-9.995	81667.0
-9.990	81707.0
-9.985	81708.0
-9.980	81702.0
-9.975	81695.0
-9.970	81715.0
-9.965	81718.0
-9.960	81711.0
-9.955	81712.0
-9.950	81700.0
-9.945	81703.0
-9.940	81691.0
-9.935	81659.0
-9.930	81680.0
-9.925	81702.0
-9.920	81704.0
-9.915	81698.0
-9.910	81692.0
-9.905	81689.0
-9.900	81688.0
-9.895	81687.0
-9.890	81687.0
-9.885	81685.0
-9.880	81697.0
-9.875	81686.0
-9.870	81659.0
-9.865	81658.0
-9.860	81666.0
-9.855	81684.0
-9.850	81684.0
-9.845	81690.0
-9.840	81690.0
-9.835	81683.0
-9.830	81695.0
-9.825	81690.0
-9.820	81707.0
-9.815	81691.0
-9.810	81701.0
-9.805	81669.0
-9.800	81654.0
-9.795	81685.0
-9.790	81703.0
-9.785	81700.0
-9.780	81689.0
-9.775	81683.0
-9.770	81683.0
-9.765	81674.0
-9.760	81687.0
-9.755	81693.0
-9.750	81696.0
-9.745	81692.0
-9.740	81684.0
-9.735	81662.0
-9.730	81672.0
-9.725	81701.0
-9.720	81703.0
-9.715	81698.0
-9.710	81699.0
-9.705	81691.0
-9.700	81702.0
-9.695	81700.0
-9.690	81709.0
-9.685	81707.0
-9.680	81707.0
-9.675	81704.0
-9.670	81662.0
-9.665	81670.0
-9.660	81692.0
-9.655	81706.0
-9.650	81690.0
-9.645	81679.0
-9.640	81692.0
-9.635	81691.0
-9.630	81690.0
-9.625	81696.0
-9.620	81697.0
-9.615	81695.0
-9.610	81701.0
-9.605	81679.0
-9.600	81671.0
-9.595	81675.0
-9.590	81704.0
-9.585	81693.0
-9.580	81691.0
-9.575	81678.0
-9.570	81683.0
-9.565	81688.9
-9.560	81679.9
-9.555	81658.8
-9.550	81640.7
-9.545	81595.6
-9.540	81515.4
-9.535	81442.2
-9.530	81394.0
-9.525	81344.7
-9.520	81289.3
-9.515	81211.0
-9.510	81160.6
-9.505	81097.2
-9.500	80965.8
-9.495	80836.4
-9.490	80655.1
-9.485	80426.9
-9.480	80279.6
-9.475	80225.3
-9.470	80218.2
-9.465	80241.2
-9.460	80281.5
-9.455	80354.9
-9.450	80517.2
-9.445	80712.5
-9.440	80857.7
-9.435	80963.8
-9.430	81008.0
-9.425	81046.1
-9.420	81117.2
-9.415	81129.3
-9.410	81135.4
-9.405	81074.5
-9.400	81009.7
-9.395	81005.8
-9.390	81037.8
-9.385	81052.8
-9.380	81077.9
-9.375	81104.9
-9.370	81142.9
-9.365	81159.0
-9.360	81193.0
-9.355	81250.0
-9.350	81315.0
-9.345	81340.0
-9.340	81339.1
-9.335	81296.1
-9.330	81300.2
-9.325	81325.2
-9.320	81327.2
-9.315	81336.2
-9.310	81334.3
-9.305	81344.3
-9.300	81366.3
-9.295	81377.3
-9.290	81379.3
-9.285	81389.3
-9.280	81403.4
-9.275	81418.4
-9.270	81394.4
-9.265	81409.4
-9.260	81444.4
-9.255	81466.4
-9.250	81451.5
-9.245	81445.5
-9.240	81441.5
-9.235	81441.5
-9.230	81442.5
-9.225	81434.6
-9.220	81438.6
-9.215	81450.6
-9.210	81456.6
-9.205	81403.6
-9.200	81380.7
-9.195	81389.7
-9.190	81389.7
-9.185	81373.7
-9.180	81390.7
-9.175	81393.7
-9.170	81406.7
-9.165	81407.7
-9.160	81437.7
-9.155	81444.7
-9.150	81438.8
-9.145	81426.8
-9.140	81404.8
-9.135	81399.8
-9.130	81419.8
-9.125	81414.8
-9.120	81366.9
-9.115	81368.9
-9.110	81415.9
-9.105	81449.8
-9.100	81475.8
-9.095	81484.8
-9.090	81501.8
-9.085	81502.8
-9.080	81522.8
-9.075	81520.8
-9.070	81487.9
-9.065	81482.9
-9.060	81498.9
-9.055	81493.9
-9.050	81512.9
-9.045	81524.9
-9.040	81526.9
-9.035	81471.0
-9.030	81363.0
-9.025	81385.0
-9.020	81504.9
-9.015	81549.9
-9.010	81556.9
-9.005	81519.0
-9.000	81516.0
-8.995	81519.0
-8.990	81556.9
-8.985	81557.0
-8.980	81560.0
-8.975	81570.0
-8.970	81577.0
-8.965	81561.0
-8.960	81563.0
-8.955	81552.0
-8.950	81552.0
-8.945	81546.0
-8.940	81528.0
-8.935	81511.0
-8.930	81512.1
-8.925	81501.1
-8.920	81448.1
-8.915	81316.2
-8.910	80764.7
-8.905	79604.6
-8.900	78864.2
-8.895	79680.5
-8.890	80997.5
-8.885	81488.1
-8.880	81541.1
-8.875	81538.1
-8.870	81522.1
-8.865	81526.1
-8.860	81558.1
-8.855	81555.1
-8.850	81557.1
-8.845	81551.1
-8.840	81568.1
-8.835	81554.1
-8.830	81563.1
-8.825	81554.1
-8.820	81547.1
-8.815	81555.1
-8.810	81557.1
-8.805	81541.1
-8.800	81532.2
-8.795	81545.1
-8.790	81565.1
-8.785	81572.1
-8.780	81583.1
-8.775	81574.1
-8.770	81578.1
-8.765	81605.1
-8.760	81625.1
-8.755	81604.1
-8.750	81613.1
-8.745	81617.1
-8.740	81614.1
-8.735	81610.1
-8.730	81630.1
-8.725	81640.1
-8.720	81652.1
-8.715	81652.1
-8.710	81655.1
-8.705	81662.1
-8.700	81679.1
-8.695	81688.1
-8.690	81687.1
-8.685	81686.1
-8.680	81684.1
-8.675	81677.1
-8.670	81646.2
-8.665	81636.2
-8.660	81667.2
-8.655	81674.2
-8.650	81682.2
-8.645	81679.2
-8.640	81685.2
-8.635	81680.2
-8.630	81673.2
-8.625	81639.2
-8.620	81594.2
-8.615	81554.3
-8.610	81565.3
-8.605	81551.3
-8.600	81600.2
-8.595	81647.2
-8.590	81690.2
-8.585	81696.2
-8.580	81700.2
-8.575	81700.2
-8.570	81703.2
-8.565	81710.2
-8.560	81726.2
-8.555	81726.2
-8.550	81728.2
-8.545	81731.2
-8.540	81714.2
-8.535	81696.2
-8.530	81708.2
-8.525	81730.2
-8.520	81734.2
-8.515	81723.2
-8.510	81714.2
-8.505	81729.2
-8.500	81733.2
-8.495	81732.2
-8.490	81744.2
-8.485	81736.2
-8.480	81747.2
-8.475	81722.2
-8.470	81710.2
-8.465	81725.2
-8.460	81755.2
-8.455	81750.2
-8.450	81749.2
-8.445	81738.2
-8.440	81739.2
-8.435	81731.2
-8.430	81738.2
-8.425	81740.2
-8.420	81740.2
-8.415	81735.2
-8.410	81735.2
-8.405	81694.3
-8.400	81690.3
-8.395	81703.3
-8.390	81707.3
-8.385	81702.3
-8.380	81714.3
-8.375	81719.3
-8.370	81740.2
-8.365	81734.3
-8.360	81741.3
-8.355	81737.3
-8.350	81749.2
-8.345	81736.3
-8.340	81707.3
-8.335	81700.3
-8.330	81728.3
-8.325	81735.3
-8.320	81730.3
-8.315	81704.3
-8.310	81699.3
-8.305	81697.3
-8.300	81690.3
-8.295	81680.3
-8.290	81704.3
-8.285	81718.3
-8.280	81733.3
-8.275	81711.3
-8.270	81692.3
-8.265	81701.3
-8.260	81720.3
-8.255	81729.3
-8.250	81730.3
-8.245	81725.3
-8.240	81715.3
-8.235	81719.3
-8.230	81730.3
-8.225	81723.3
-8.220	81730.3
-8.215	81728.3
-8.210	81726.3
-8.205	81690.3
-8.200	81705.3
-8.195	81721.3
-8.190	81723.3
-8.185	81710.3
-8.180	81716.3
-8.175	81707.3
-8.170	81709.3
-8.165	81695.4
-8.160	81700.3
-8.155	81708.3
-8.150	81709.3
-8.145	81713.3
-8.140	81691.4
-8.135	81671.4
-8.130	81694.4
-8.125	81712.4
-8.120	81700.4
-8.115	81703.4
-8.110	81707.4
-8.105	81697.4
-8.100	81696.4
-8.095	81708.4
-8.090	81700.4
-8.085	81696.4
-8.080	81691.4
-8.075	81661.4
-8.070	81634.4
-8.065	81639.4
-8.060	81663.4
-8.055	81638.4
-8.050	81652.4
-8.045	81623.4
-8.040	81633.4
-8.035	81615.5
-8.030	81619.5
-8.025	81607.5
-8.020	81618.5
-8.015	81624.4
-8.010	81612.5
-8.005	81578.5
-8.000	81576.5
-7.995	81577.5
-7.990	81592.5
-7.985	81587.5
-7.980	81594.5
-7.975	81568.5
-7.970	81567.5
-7.965	81559.5
-7.960	81548.5
-7.955	81531.5
-7.950	81519.5
-7.945	81513.5
-7.940	81465.6
-7.935	81460.6
-7.930	81482.6
-7.925	81478.6
-7.920	81471.6
-7.915	81459.6
-7.910	81462.6
-7.905	81448.6
-7.900	81443.6
-7.895	81436.6
-7.890	81451.6
-7.885	81439.6
-7.880	81451.6
-7.875	81442.6
-7.870	81423.6
-7.865	81435.6
-7.860	81451.6
-7.855	81446.6
-7.850	81452.6
-7.845	81465.6
-7.840	81480.6
-7.835	81500.6
-7.830	81501.6
-7.825	81489.6
-7.820	81488.6
-7.815	81495.6
-7.810	81506.6
-7.805	81482.6
-7.800	81518.6
-7.795	81553.5
-7.790	81589.5
-7.785	81601.5
-7.780	81617.5
-7.775	81621.5
-7.770	81646.5
-7.765	81653.5
-7.760	81661.5
-7.755	81662.5
-7.750	81680.5
-7.745	81679.5
-7.740	81645.5
-7.735	81646.5
-7.730	81659.5
-7.725	81686.5
-7.720	81693.4
-7.715	81699.4
-7.710	81700.5
-7.705	81694.4
-7.700	81714.4
-7.695	81716.4
-7.690	81727.4
-7.685	81726.4
-7.680	81723.4
-7.675	81696.5
-7.670	81688.5
-7.665	81703.4
-7.660	81741.4
-7.655	81722.4
-7.650	81729.4
-7.645	81718.4
-7.640	81716.4
-7.635	81720.4
-7.630	81721.4
-7.625	81712.5
-7.620	81711.4
-7.615	81718.4
-7.610	81710.5
-7.605	81674.5
-7.600	81669.5
-7.595	81697.5
-7.590	81705.5
-7.585	81699.5
-7.580	81699.5
-7.575	81700.5
-7.570	81701.5
-7.565	81706.5
-7.560	81708.5
-7.555	81717.5
-7.550	81722.5
-7.545	81722.5
-7.540	81696.5
-7.535	81693.5
-7.530	81714.5
-7.525	81722.5
-7.520	81726.5
-7.515	81718.5
-7.510	81720.5
-7.505	81714.5
-7.500	81718.5
-7.495	81719.5
-7.490	81727.5
-7.485	81706.5
-7.480	81712.5
-7.475	81688.5
-7.470	81673.5
-7.465	81685.5
-7.460	81717.5
-7.455	81722.5
-7.450	81712.5
-7.445	81718.5
-7.440	81717.5
-7.435	81726.5
-7.430	81729.5
-7.425	81730.5
-7.420	81732.5
-7.415	81728.5
-7.410	81716.5
-7.405	81675.5
-7.400	81693.5
-7.395	81705.5
-7.390	81722.5
-7.385	81715.5
-7.380	81704.5
-7.375	81710.5
-7.370	81715.5
-7.365	81715.5
-7.360	81732.5
-7.355	81736.5
-7.350	81747.5
-7.345	81762.5
-7.340	81727.5
-7.335	81727.5
-7.330	81758.5
-7.325	81770.5
-7.320	81777.5
-7.315	81786.4
-7.310	81793.4
-7.305	81778.5
-7.300	81789.4
-7.295	81793.4
-7.290	81793.4
-7.285	81793.4
-7.280	81787.4
-7.275	81772.5
-7.270	81764.5
-7.265	81777.5
-7.260	81800.4
-7.255	81806.4
-7.250	81800.4
-7.245	81792.4
-7.240	81800.4
-7.235	81797.4
-7.230	81804.4
-7.225	81808.4
-7.220	81809.4
-7.215	81812.4
-7.210	81811.4
-7.205	81776.5
-7.200	81787.5
-7.195	81807.4
-7.190	81827.4
-7.185	81823.4
-7.180	81823.4
-7.175	81808.4
-7.170	81826.4
-7.165	81829.4
-7.160	81838.4
-7.155	81830.4
-7.150	81835.4
-7.145	81832.4
-7.140	81795.5
-7.135	81804.5
-7.130	81829.4
-7.125	81837.4
-7.120	81828.4
-7.115	81827.4
-7.110	81840.4
-7.105	81817.4
-7.100	81832.4
-7.095	81830.4
-7.090	81824.4
-7.085	81826.4
-7.080	81835.4
-7.075	81804.5
-7.070	81800.5
-7.065	81807.5
-7.060	81831.4
-7.055	81831.4
-7.050	81841.4
-7.045	81825.4
-7.040	81833.4
-7.035	81835.4
-7.030	81845.4
-7.025	81842.4
-7.020	81852.4
-7.015	81838.4
-7.010	81826.4
-7.005	81809.5
-7.000	81819.5
-6.995	81829.4
-6.990	81828.4
-6.985	81834.4
-6.980	81820.5
-6.975	81810.5
-6.970	81817.5
-6.965	81822.5
-6.960	81816.5
-6.955	81808.5
-6.950	81811.5
-6.945	81807.5
-6.940	81773.5
-6.935	81767.5
-6.930	81792.5
-6.925	81800.5
-6.920	81802.5
-6.915	81796.5
-6.910	81798.5
-6.905	81801.5
-6.900	81804.5
-6.895	81801.5
-6.890	81796.5
-6.885	81798.5
-6.880	81800.5
-6.875	81778.5
-6.870	81758.5
-6.865	81776.5
-6.860	81797.5
-6.855	81788.5
-6.850	81774.5
-6.845	81777.5
-6.840	81772.5
-6.835	81769.5
-6.830	81771.5
-6.825	81761.5
-6.820	81766.5
-6.815	81774.5
-6.810	81756.5
-6.805	81733.5
-6.800	81743.5
-6.795	81758.5
-6.790	81766.5
-6.785	81750.5
-6.780	81747.5
-6.775	81753.5
-6.770	81743.5
-6.765	81744.5
-6.760	81753.5
-6.755	81740.5
-6.750	81742.5
-6.745	81736.5
-6.740	81704.5
-6.735	81709.5
-6.730	81731.5
-6.725	81733.5
-6.720	81727.5
-6.715	81724.5
-6.710	81732.5
-6.705	81728.5
-6.700	81725.5
-6.695	81723.5
-6.690	81737.5
-6.685	81735.5
-6.680	81742.5
-6.675	81710.6
-6.670	81702.6
-6.665	81716.6
-6.660	81745.5
-6.655	81740.5
-6.650	81741.5
-6.645	81738.5
-6.640	81737.5
-6.635	81734.5
-6.630	81738.5
-6.625	81741.5
-6.620	81745.5
-6.615	81737.5
-6.610	81714.6
-6.605	81694.6
-6.600	81718.6
-6.595	81738.5
-6.590	81731.5
-6.585	81726.6
-6.580	81724.6
-6.575	81728.5
-6.570	81721.6
-6.565	81725.6
-6.560	81729.5
-6.555	81741.5
-6.550	81735.5
-6.545	81736.5
-6.540	81703.6
-6.535	81705.6
-6.530	81726.6
-6.525	81733.5
-6.520	81739.5
-6.515	81732.6
-6.510	81740.5
-6.505	81732.6
-6.500	81736.5
-6.495	81742.5
-6.490	81737.5
-6.485	81737.5
-6.480	81744.5
-6.475	81708.6
-6.470	81704.6
-6.465	81719.6
-6.460	81735.6
-6.455	81721.6
-6.450	81726.6
-6.445	81725.6
-6.440	81721.6
-6.435	81716.6
-6.430	81727.6
-6.425	81724.6
-6.420	81726.6
-6.415	81724.6
-6.410	81704.6
-6.405	81677.6
-6.400	81694.6
-6.395	81724.6
-6.390	81731.6
-6.385	81720.6
-6.380	81729.6
-6.375	81734.6
-6.370	81734.6
-6.365	81734.6
-6.360	81736.6
-6.355	81737.6
-6.350	81743.6
-6.345	81737.6
-6.340	81706.6
-6.335	81700.6
-6.330	81733.6
-6.325	81744.6
-6.320	81735.6
-6.315	81717.6
-6.310	81728.6
-6.305	81722.6
-6.300	81724.6
-6.295	81726.6
-6.290	81726.6
-6.285	81729.6
-6.280	81733.6
-6.275	81705.6
-6.270	81695.6
-6.265	81706.6
-6.260	81731.6
-6.255	81724.6
-6.250	81722.6
-6.245	81720.6
-6.240	81726.6
-6.235	81714.6
-6.230	81724.6
-6.225	81729.6
-6.220	81731.6
-6.215	81712.6
-6.210	81699.6
-6.205	81673.6
-6.200	81687.6
-6.195	81710.6
-6.190	81703.6
-6.185	81703.6
-6.180	81710.6
-6.175	81692.6
-6.170	81694.6
-6.165	81705.6
-6.160	81715.6
-6.155	81719.6
-6.150	81725.6
-6.145	81713.6
-6.140	81685.6
-6.135	81686.6
-6.130	81703.6
-6.125	81724.6
-6.120	81724.6
-6.115	81725.6
-6.110	81737.6
-6.105	81730.6
-6.100	81729.6
-6.095	81721.6
-6.090	81732.6
-6.085	81726.6
-6.080	81721.6
-6.075	81695.6
-6.070	81697.6
-6.065	81707.6
-6.060	81715.6
-6.055	81717.6
-6.050	81721.6
-6.045	81728.6
-6.040	81714.6
-6.035	81715.6
-6.030	81728.6
-6.025	81714.6
-6.020	81729.6
-6.015	81733.6
-6.010	81711.6
-6.005	81701.6
-6.000	81706.6
-5.995	81728.6
-5.990	81736.6
-5.985	81745.6
-5.980	81748.6
-5.975	81739.6
-5.970	81748.6
-5.965	81746.6
-5.960	81745.6
-5.955	81750.6
-5.950	81754.6
-5.945	81735.6
-5.940	81710.6
-5.935	81714.6
-5.930	81743.6
-5.925	81739.6
-5.920	81733.6
-5.915	81727.6
-5.910	81718.6
-5.905	81710.6
-5.900	81726.6
-5.895	81725.6
-5.890	81727.6
-5.885	81737.6
-5.880	81739.6
-5.875	81707.6
-5.870	81698.6
-5.865	81712.6
-5.860	81736.6
-5.855	81734.6
-5.850	81738.6
-5.845	81726.6
-5.840	81737.6
-5.835	81737.6
-5.830	81730.6
-5.825	81738.6
-5.820	81730.6
-5.815	81731.6
-5.810	81718.6
-5.805	81697.6
-5.800	81712.6
-5.795	81728.6
-5.790	81727.6
-5.785	81715.6
-5.780	81715.6
-5.775	81712.6
-5.770	81708.6
-5.765	81705.6
-5.760	81709.6
-5.755	81706.6
-5.750	81714.5
-5.745	81699.5
-5.740	81677.5
-5.735	81681.5
-5.730	81710.5
-5.725	81704.5
-5.720	81718.5
-5.715	81715.5
-5.710	81710.5
-5.705	81723.5
-5.700	81730.5
-5.695	81729.5
-5.690	81727.5
-5.685	81728.5
-5.680	81732.5
-5.675	81676.6
-5.670	81677.6
-5.665	81690.6
-5.660	81709.6
-5.655	81692.6
-5.650	81691.6
-5.645	81682.6
-5.640	81685.6
-5.635	81671.7
-5.630	81682.7
-5.625	81677.7
-5.620	81689.7
-5.615	81685.7
-5.610	81660.7
-5.605	81636.7
-5.600	81646.7
-5.595	81672.7
-5.590	81673.7
-5.585	81680.7
-5.580	81673.7
-5.575	81677.7
-5.570	81684.7
-5.565	81673.7
-5.560	81676.7
-5.555	81681.7
-5.550	81673.7
-5.545	81649.7
-5.540	81635.7
-5.535	81644.7
-5.530	81667.7
-5.525	81658.7
-5.520	81659.7
-5.515	81646.7
-5.510	81648.7
-5.505	81641.7
-5.500	81652.7
-5.495	81641.7
-5.490	81642.7
-5.485	81638.7
-5.480	81640.7
-5.475	81607.7
-5.470	81605.7
-5.465	81629.7
-5.460	81640.7
-5.455	81646.7
-5.450	81633.7
-5.445	81613.8
-5.440	81594.9
-5.435	81574.0
-5.430	81544.2
-5.425	81516.5
-5.420	81469.9
-5.415	81380.3
-5.410	81289.8
-5.405	81194.3
-5.400	81126.9
-5.395	81098.5
-5.390	81007.2
-5.385	80899.9
-5.380	80807.7
-5.375	80774.3
-5.370	80749.9
-5.365	80682.6
-5.360	80643.2
-5.355	80705.5
-5.350	80880.4
-5.345	81056.0
-5.340	81197.5
-5.335	81308.9
-5.330	81444.4
-5.325	81533.9
-5.320	81594.6
-5.315	81647.3
-5.310	81680.0
-5.305	81709.8
-5.300	81741.6
-5.295	81738.4
-5.290	81734.2
-5.285	81719.1
-5.280	81688.0
-5.275	81633.9
-5.270	81622.8
-5.265	81661.7
-5.260	81678.6
-5.255	81689.5
-5.250	81711.4
-5.245	81730.4
-5.240	81736.3
-5.235	81731.2
-5.230	81739.2
-5.225	81732.1
-5.220	81743.0
-5.215	81760.0
-5.210	81750.9
-5.205	81733.9
-5.200	81749.8
-5.195	81777.7
-5.190	81786.7
-5.185	81797.6
-5.180	81806.6
-5.175	81801.5
-5.170	81816.5
-5.165	81825.4
-5.160	81815.4
-5.155	81811.4
-5.150	81825.3
-5.145	81810.3
-5.140	81808.3
-5.135	81834.2
-5.130	81857.2
-5.125	81856.1
-5.120	81846.1
-5.115	81854.1
-5.110	81852.1
-5.105	81855.0
-5.100	81861.0
-5.095	81856.0
-5.090	81866.0
-5.085	81872.0
-5.080	81872.9
-5.075	81820.0
-5.070	81841.9
-5.065	81857.9
-5.060	81881.9
-5.055	81883.8
-5.050	81893.8
-5.045	81884.8
-5.040	81894.8
-5.035	81894.7
-5.030	81917.7
-5.025	81918.7
-5.020	81918.7
-5.015	81911.7
-5.010	81886.7
-5.005	81879.6
-5.000	81902.6
-4.995	81911.6
-4.990	81914.6
-4.985	81921.5
-4.980	81927.5
-4.975	81913.5
-4.970	81912.5
-4.965	81923.5
-4.960	81944.4
-4.955	81944.4
-4.950	81948.4
-4.945	81935.4
-4.940	81925.4
-4.935	81925.4
-4.930	81943.4
-4.925	81944.3
-4.920	81949.3
-4.915	81952.3
-4.910	81957.3
-4.905	81956.3
-4.900	81970.3
-4.895	81973.3
-4.890	81969.3
-4.885	81959.3
-4.880	81944.3
-4.875	81908.3
-4.870	81915.3
-4.865	81950.3
-4.860	81961.2
-4.855	81946.2
-4.850	81954.2
-4.845	81954.2
-4.840	81954.2
-4.835	81945.2
-4.830	81948.2
-4.825	81937.2
-4.820	81934.2
-4.815	81940.2
-4.810	81933.2
-4.805	81987.1
-4.800	82057.1
-4.795	82053.0
-4.790	82014.0
-4.785	81978.1
-4.780	81961.1
-4.775	81947.1
-4.770	81964.1
-4.765	81962.1
-4.760	81963.0
-4.755	81959.0
-4.750	81968.0
-4.745	81930.0
-4.740	81906.1
-4.735	81920.1
-4.730	81944.0
-4.725	81945.0
-4.720	81935.0
-4.715	81918.0
-4.710	81911.0
-4.705	81910.0
-4.700	81919.0
-4.695	81918.0
-4.690	81919.0
-4.685	81929.0
-4.680	81926.0
-4.675	81889.0
-4.670	81896.0
-4.665	81911.0
-4.660	81905.0
-4.655	81895.0
-4.650	81904.0
-4.645	81894.9
-4.640	81904.9
-4.635	81893.9
-4.630	81909.9
-4.625	81908.9
-4.620	81901.9
-4.615	81884.9
-4.610	81848.9
-4.605	81851.9
-4.600	81884.9
-4.595	81908.9
-4.590	81915.9
-4.585	81902.9
-4.580	81883.9
-4.575	81882.9
-4.570	81881.9
-4.565	81860.9
-4.560	81847.9
-4.555	81845.9
-4.550	81863.9
-4.545	81840.9
-4.540	81819.9
-4.535	81812.9
-4.530	81829.9
-4.525	81819.9
-4.520	81832.9
-4.515	81823.9
-4.510	81821.9
-4.505	81808.9
-4.500	81807.9
-4.495	81806.9
-4.490	81812.8
-4.485	81812.8
-4.480	81812.8
-4.475	81778.9
-4.470	81776.9
-4.465	81778.9
-4.460	81781.8
-4.455	81763.9
-4.450	81756.8
-4.445	81740.9
-4.440	81728.9
-4.435	81711.9
-4.430	81695.9
-4.425	81672.9
-4.420	81645.9
-4.415	81619.9
-4.410	81582.0
-4.405	81586.0
-4.400	81597.9
-4.395	81582.9
-4.390	81546.0
-4.385	81511.0
-4.380	81503.0
-4.375	81513.0
-4.370	81532.0
-4.365	81536.0
-4.360	81548.0
-4.355	81541.0
-4.350	81537.0
-4.345	81504.0
-4.340	81509.0
-4.335	81544.9
-4.330	81589.9
-4.325	81591.9
-4.320	81586.9
-4.315	81577.9
-4.310	81576.9
-4.305	81566.9
-4.300	81583.9
-4.295	81605.8
-4.290	81635.8
-4.285	81653.8
-4.280	81655.8
-4.275	81639.8
-4.270	81660.8
-4.265	81680.8
-4.260	81708.7
-4.255	81733.7
-4.250	81747.7
-4.245	81751.7
-4.240	81747.7
-4.235	81740.7
-4.230	81733.7
-4.225	81724.7
-4.220	81726.7
-4.215	81720.7
-4.210	81685.7
-4.205	81685.7
-4.200	81714.7
-4.195	81727.7
-4.190	81741.7
-4.185	81724.7
-4.180	81716.7
-4.175	81697.7
-4.170	81711.7
-4.165	81704.7
-4.160	81694.7
-4.155	81700.7
-4.150	81691.6
-4.145	81649.6
-4.140	81621.6
-4.135	81627.5
-4.130	81635.3
-4.125	81606.2
-4.120	81566.0
-4.115	81524.7
-4.110	81476.4
-4.105	81395.1
-4.100	81315.7
-4.095	81239.2
-4.090	81160.7
-4.085	81073.1
-4.080	80999.5
-4.075	80891.9
-4.070	80826.3
-4.065	80781.7
-4.060	80724.1
-4.055	80629.6
-4.050	80581.2
-4.045	80588.9
-4.040	80640.9
-4.035	80696.0
-4.030	80762.2
-4.025	80831.6
-4.020	80913.0
-4.015	80958.4
-4.010	81026.8
-4.005	81170.0
-4.000	81251.2
-3.995	81207.5
-3.990	81043.8
-3.985	80874.1
-3.980	80923.2
-3.975	81145.2
-3.970	81309.2
-3.965	81354.3
-3.960	81401.4
-3.955	81388.5
-3.950	81410.6
-3.945	81366.7
-3.940	81343.8
-3.935	81309.9
-3.930	81338.9
-3.925	81359.0
-3.920	81342.0
-3.915	81332.1
-3.910	81352.2
-3.905	81348.2
-3.900	81350.3
-3.895	81398.3
-3.890	81450.3
-3.885	81446.3
-3.880	81416.4
-3.875	81409.4
-3.870	81473.4
-3.865	81540.4
-3.860	81522.5
-3.855	81512.5
-3.850	81532.5
-3.845	81561.6
-3.840	81573.6
-3.835	81573.6
-3.830	81575.7
-3.825	81567.7
-3.820	81573.7
-3.815	81588.8
-3.810	81553.8
-3.805	81549.8
-3.800	81572.9
-3.795	81571.9
-3.790	81576.9
-3.785	81577.9
-3.780	81570.0
-3.775	81567.0
-3.770	81560.0
-3.765	81572.0
-3.760	81591.0
-3.755	81582.1
-3.750	81582.1
-3.745	81550.1
-3.740	81543.2
-3.735	81569.2
-3.730	81600.2
-3.725	81597.2
-3.720	81592.2
-3.715	81592.2
-3.710	81598.2
-3.705	81595.2
-3.700	81608.3
-3.695	81601.3
-3.690	81601.3
-3.685	81609.3
-3.680	81592.3
-3.675	81560.4
-3.670	81550.4
-3.665	81560.4
-3.660	81551.4
-3.655	81538.4
-3.650	81540.5
-3.645	81543.5
-3.640	81560.5
-3.635	81575.5
-3.630	81630.5
-3.625	81723.4
-3.620	81832.3
-3.615	81866.3
-3.610	81764.4
-3.605	81667.4
-3.600	81618.5
-3.595	81604.6
-3.590	81604.6
-3.585	81580.6
-3.580	81573.7
-3.575	81561.7
-3.570	81557.7
-3.565	81538.8
-3.560	81531.8
-3.555	81543.8
-3.550	81557.9
-3.545	81550.9
-3.540	81618.9
-3.535	81692.9
-3.530	81766.9
-3.525	81798.0
-3.520	81814.0
-3.515	81815.1
-3.510	81811.2
-3.505	81782.3
-3.500	81776.3
-3.495	81764.4
-3.490	81765.5
-3.485	81773.5
-3.480	81756.6
-3.475	81739.7
-3.470	81767.7
-3.465	81804.7
-3.460	81825.7
-3.455	81832.7
-3.450	81829.8
-3.445	81822.8
-3.440	81819.8
-3.435	81824.8
-3.430	81835.8
-3.425	81855.8
-3.420	81851.8
-3.415	81856.8
-3.410	81857.8
-3.405	81877.8
-3.400	81851.8
-3.395	81769.9
-3.390	81721.0
-3.385	81759.1
-3.380	81854.1
-3.375	81925.1
-3.370	81876.3
-3.365	81791.4
-3.360	81777.6
-3.355	81801.7
-3.350	81814.8
-3.345	81778.9
-3.340	81792.0
-3.335	81824.0
-3.330	81849.0
-3.325	81819.0
-3.320	81781.0
-3.315	81784.9
-3.310	81795.9
-3.305	81794.8
-3.300	81801.8
-3.295	81803.7
-3.290	81821.7
-3.285	81811.7
-3.280	81764.7
-3.275	81744.7
-3.270	81774.7
-3.265	81796.7
-3.260	81793.7
-3.255	81789.7
-3.250	81793.7
-3.245	81785.7
-3.240	81788.7
-3.235	81789.7
-3.230	81792.7
-3.225	81775.7
-3.220	81783.7
-3.215	81771.7
-3.210	81752.8
-3.205	81774.7
-3.200	81795.7
-3.195	81804.7
-3.190	81822.7
-3.185	81821.7
-3.180	81840.7
-3.175	81848.8
-3.170	81856.8
-3.165	81859.8
-3.160	81863.8
-3.155	81849.8
-3.150	81843.8
-3.145	81804.9
-3.140	81818.9
-3.135	81853.8
-3.130	81866.8
-3.125	81857.8
-3.120	81852.9
-3.115	81838.9
-3.110	81832.9
-3.105	81838.9
-3.100	81857.9
-3.095	81850.9
-3.090	81860.9
-3.085	81872.9
-3.080	81833.9
-3.075	81797.0
-3.070	81806.0
-3.065	81836.0
-3.060	81833.0
-3.055	81823.0
-3.050	81819.0
-3.045	81808.0
-3.040	81805.0
-3.035	81809.0
-3.030	81821.0
-3.025	81835.0
-3.020	81831.0
-3.015	81841.1
-3.010	81824.1
-3.005	81848.1
-3.000	81862.1
-2.995	81858.1
-2.990	81859.1
-2.985	81858.1
-2.980	81850.1
-2.975	81858.1
-2.970	81855.1
-2.965	81846.1
-2.960	81846.1
-2.955	81853.1
-2.950	81872.1
-2.945	81841.2
-2.940	81855.1
-2.935	81867.2
-2.930	81892.1
-2.925	81885.2
-2.920	81906.2
-2.915	81906.2
-2.910	81897.2
-2.905	81885.2
-2.900	81882.2
-2.895	81881.2
-2.890	81870.3
-2.885	81854.3
-2.880	81834.3
-2.875	81826.3
-2.870	81850.3
-2.865	81870.3
-2.860	81879.3
-2.855	81886.3
-2.850	81885.3
-2.845	81874.3
-2.840	81870.4
-2.835	81881.4
-2.830	81895.3
-2.825	81896.3
-2.820	81907.3
-2.815	81879.4
-2.810	81869.4
-2.805	81875.4
-2.800	81887.4
-2.795	81875.4
-2.790	81866.4
-2.785	81855.4
-2.780	81880.4
-2.775	81893.4
-2.770	81897.4
-2.765	81887.4
-2.760	81895.4
-2.755	81881.4
-2.750	81861.4
-2.745	81835.5
-2.740	81834.5
-2.735	81862.4
-2.730	81879.4
-2.725	81877.4
-2.720	81866.5
-2.715	81865.5
-2.710	81849.5
-2.705	81844.5
-2.700	81848.5
-2.695	81845.5
-2.690	81847.5
-2.685	81849.6
-2.680	81840.6
-2.675	81820.6
-2.670	81836.6
-2.665	81865.6
-2.660	81863.6
-2.655	81843.6
-2.650	81849.6
-2.645	81857.6
-2.640	81879.6
-2.635	81884.6
-2.630	81865.6
-2.625	81832.7
-2.620	81812.7
-2.615	81777.7
-2.610	81754.7
-2.605	81776.7
-2.600	81820.7
-2.595	81830.7
-2.590	81822.7
-2.585	81806.7
-2.580	81790.7
-2.575	81777.7
-2.570	81794.7
-2.565	81805.7
-2.560	81812.7
-2.555	81798.7
-2.550	81817.7
-2.545	81794.7
-2.540	81804.7
-2.535	81809.7
-2.530	81828.7
-2.525	81824.7
-2.520	81831.7
-2.515	81840.7
-2.510	81822.7
-2.505	81813.7
-2.500	81816.7
-2.495	81825.7
-2.490	81851.7
-2.485	81849.7
-2.480	81817.7
-2.475	81815.7
-2.470	81832.7
-2.465	81844.7
-2.460	81838.7
-2.455	81830.7
-2.450	81823.7
-2.445	81830.7
-2.440	81846.7
-2.435	81846.8
-2.430	81851.7
-2.425	81852.7
-2.420	81866.7
-2.415	81863.7
-2.410	81859.8
-2.405	81872.8
-2.400	81891.7
-2.395	81888.8
-2.390	81895.8
-2.385	81896.8
-2.380	81887.8
-2.375	81872.8
-2.370	81887.8
-2.365	81863.8
-2.360	81845.8
-2.355	81813.9
-2.350	81785.9
-2.345	81745.9
-2.340	81751.9
-2.335	81768.9
-2.330	81754.9
-2.325	81720.9
-2.320	81684.0
-2.315	81641.0
-2.310	81604.0
-2.305	81608.0
-2.300	81644.0
-2.295	81648.0
-2.290	81642.0
-2.285	81589.0
-2.280	81519.0
-2.275	81475.1
-2.270	81487.1
-2.265	81486.1
-2.260	81510.0
-2.255	81549.0
-2.250	81635.0
-2.245	81676.0
-2.240	81659.0
-2.235	81609.0
-2.230	81571.0
-2.225	81577.0
-2.220	81612.0
-2.215	81650.0
-2.210	81675.9
-2.205	81715.9
-2.200	81773.9
-2.195	81772.9
-2.190	81780.9
-2.185	81780.9
-2.180	81775.9
-2.175	81763.9
-2.170	81746.9
-2.165	81759.9
-2.160	81772.9
-2.155	81754.9
-2.150	81745.9
-2.145	81713.9
-2.140	81730.9
-2.135	81776.8
-2.130	81828.8
-2.125	81820.8
-2.120	81818.8
-2.115	81792.8
-2.110	81822.8
-2.105	81809.9
-2.100	81804.9
-2.095	81785.9
-2.090	81778.9
-2.085	81756.9
-2.080	81719.0
-2.075	81709.0
-2.070	81724.0
-2.065	81715.0
-2.060	81702.0
-2.055	81694.0
-2.050	81676.0
-2.045	81679.0
-2.040	81685.0
-2.035	81688.0
-2.030	81672.0
-2.025	81680.0
-2.020	81684.9
-2.015	81664.9
-2.010	81663.9
-2.005	81675.9
-2.000	81716.9
-1.995	81720.9
-1.990	81708.9
-1.985	81692.9
-1.980	81704.9
-1.975	81741.9
-1.970	81763.9
-1.965	81754.9
-1.960	81752.9
-1.955	81742.9
-1.950	81739.9
-1.945	81712.0
-1.940	81734.9
-1.935	81752.9
-1.930	81750.9
-1.925	81738.9
-1.920	81737.9
-1.915	81751.9
-1.910	81764.9
-1.905	81778.9
-1.900	81779.9
-1.895	81777.9
-1.890	81780.9
-1.885	81775.9
-1.880	81736.9
-1.875	81725.9
-1.870	81733.9
-1.865	81756.8
-1.860	81768.8
-1.855	81782.8
-1.850	81801.8
-1.845	81817.8
-1.840	81823.7
-1.835	81814.7
-1.830	81827.7
-1.825	81831.7
-1.820	81832.7
-1.815	81820.7
-1.810	81818.7
-1.805	81851.7
-1.800	81876.7
-1.795	81867.7
-1.790	81851.7
-1.785	81840.8
-1.780	81839.8
-1.775	81835.8
-1.770	81840.8
-1.765	81835.8
-1.760	81841.8
-1.755	81833.8
-1.750	81836.8
-1.745	81807.8
-1.740	81823.8
-1.735	81857.8
-1.730	81877.8
-1.725	81873.8
-1.720	81870.8
-1.715	81845.8
-1.710	81851.7
-1.705	81847.7
-1.700	81849.7
-1.695	81855.7
-1.690	81877.7
-1.685	81873.6
-1.680	81856.7
-1.675	81861.6
-1.670	81891.6
-1.665	81922.6
-1.660	81931.6
-1.655	81940.6
-1.650	81945.6
-1.645	81935.6
-1.640	81925.6
-1.635	81929.6
-1.630	81925.6
-1.625	81933.6
-1.620	81935.6
-1.615	81921.6
-1.610	81923.6
-1.605	81944.6
-1.600	81973.6
-1.595	81972.6
-1.590	81982.6
-1.585	81969.6
-1.580	81968.6
-1.575	81957.6
-1.570	81969.6
-1.565	81953.6
-1.560	81956.6
-1.555	81951.6
-1.550	81945.6
-1.545	81909.6
-1.540	81920.6
-1.535	81939.6
-1.530	81932.6
-1.525	81903.6
-1.520	81905.6
-1.515	81894.6
-1.510	81892.6
-1.505	81889.6
-1.500	81884.6
-1.495	81894.5
-1.490	81898.5
-1.485	81899.5
-1.480	81863.5
-1.475	81864.5
-1.470	81878.5
-1.465	81898.4
-1.460	81898.4
-1.455	81890.4
-1.450	81893.4
-1.445	81903.4
-1.440	81892.4
-1.435	81897.4
-1.430	81906.4
-1.425	81910.3
-1.420	81928.3
-1.415	81911.3
-1.410	81906.4
-1.405	81915.4
-1.400	81939.3
-1.395	81933.4
-1.390	81938.4
-1.385	81931.4
-1.380	81936.4
-1.375	81922.4
-1.370	81928.4
-1.365	81929.4
-1.360	81921.4
-1.355	81918.4
-1.350	81897.4
-1.345	81867.4
-1.340	81880.4
-1.335	81911.4
-1.330	81925.3
-1.325	81935.3
-1.320	81940.3
-1.315	81925.3
-1.310	81929.3
-1.305	81916.3
-1.300	81910.3
-1.295	81926.3
-1.290	81930.3
-1.285	81926.3
-1.280	81892.3
-1.275	81888.3
-1.270	81891.3
-1.265	81904.3
-1.260	81890.3
-1.255	81866.3
-1.250	81873.3
-1.245	81866.3
-1.240	81864.3
-1.235	81862.3
-1.230	81853.3
-1.225	81840.3
-1.220	81852.2
-1.215	81827.2
-1.210	81811.3
-1.205	81823.2
-1.200	81845.2
-1.195	81847.2
-1.190	81844.2
-1.185	81841.2
-1.180	81853.2
-1.175	81853.2
-1.170	81857.2
-1.165	81847.2
-1.160	81850.2
-1.155	81844.2
-1.150	81825.2
-1.145	81813.3
-1.140	81842.2
-1.135	81866.2
-1.130	81871.2
-1.125	81854.2
-1.120	81854.2
-1.115	81846.2
-1.110	81836.2
-1.105	81828.2
-1.100	81831.2
-1.095	81811.2
-1.090	81812.2
-1.085	81800.2
-1.080	81767.2
-1.075	81758.2
-1.070	81776.2
-1.065	81780.2
-1.060	81775.1
-1.055	81765.1
-1.050	81767.1
-1.045	81760.1
-1.040	81763.1
-1.035	81768.1
-1.030	81770.1
-1.025	81769.1
-1.020	81770.1
-1.015	81732.2
-1.010	81719.2
-1.005	81735.2
-1.000	81755.1
-0.995	81747.1
-0.990	81741.2
-0.985	81719.2
-0.980	81718.2
-0.975	81720.2
-0.970	81716.2
-0.965	81693.2
-0.960	81697.2
-0.955	81691.1
-0.950	81676.1
-0.945	81651.1
-0.940	81660.1
-0.935	81687.1
-0.930	81678.1
-0.925	81673.1
-0.920	81673.1
-0.915	81668.1
-0.910	81667.1
-0.905	81663.0
-0.900	81650.1
-0.895	81648.0
-0.890	81644.0
-0.885	81633.0
-0.880	81600.1
-0.875	81603.1
-0.870	81623.0
-0.865	81616.0
-0.860	81610.1
-0.855	81597.1
-0.850	81594.1
-0.845	81589.1
-0.840	81602.1
-0.835	81594.1
-0.830	81591.1
-0.825	81592.0
-0.820	81595.0
-0.815	81566.1
-0.810	81562.0
-0.805	81590.0
-0.800	81616.0
-0.795	81610.0
-0.790	81612.0
-0.785	81618.0
-0.780	81616.0
-0.775	81611.9
-0.770	81613.9
-0.765	81615.9
-0.760	81604.9
-0.755	81602.9
-0.750	81586.9
-0.745	81561.9
-0.740	81582.9
-0.735	81611.9
-0.730	81623.8
-0.725	81618.8
-0.720	81622.8
-0.715	81623.8
-0.710	81628.8
-0.705	81621.8
-0.700	81625.8
-0.695	81633.8
-0.690	81640.8
-0.685	81643.8
-0.680	81625.8
-0.675	81651.8
-0.670	81689.7
-0.665	81706.7
-0.660	81706.7
-0.655	81719.7
-0.650	81723.7
-0.645	81715.7
-0.640	81728.7
-0.635	81737.7
-0.630	81739.7
-0.625	81742.7
-0.620	81737.7
-0.615	81692.7
-0.610	81701.7
-0.605	81699.7
-0.600	81710.7
-0.595	81707.7
-0.590	81692.7
-0.585	81688.7
-0.580	81677.7
-0.575	81681.7
-0.570	81677.6
-0.565	81684.6
-0.560	81701.6
-0.555	81709.6
-0.550	81696.6
-0.545	81679.6
-0.540	81693.6
-0.535	81724.5
-0.530	81734.5
-0.525	81727.5
-0.520	81727.5
-0.515	81732.5
-0.510	81721.5
-0.505	81717.5
-0.500	81721.5
-0.495	81721.5
-0.490	81711.5
-0.485	81680.5
-0.480	81653.5
-0.475	81661.5
-0.470	81703.4
-0.465	81731.4
-0.460	81744.4
-0.455	81758.4
-0.450	81775.4
-0.445	81783.4
-0.440	81793.3
-0.435	81777.3
-0.430	81751.4
-0.425	81730.4
-0.420	81712.4
-0.415	81664.4
-0.410	81674.4
-0.405	81700.4
-0.400	81729.3
-0.395	81722.3
-0.390	81723.3
-0.385	81732.3
-0.380	81736.3
-0.375	81728.3
-0.370	81733.3
-0.365	81742.3
-0.360	81732.3
-0.355	81726.3
-0.350	81699.3
-0.345	81685.3
-0.340	81697.3
-0.335	81707.3
-0.330	81700.3
-0.325	81680.3
-0.320	81685.3
-0.315	81699.3
-0.310	81710.3
-0.305	81721.3
-0.300	81731.3
-0.295	81741.2
-0.290	81764.2
-0.285	81755.2
-0.280	81706.2
-0.275	81681.3
-0.270	81695.2
-0.265	81681.2
-0.260	81693.2
-0.255	81706.2
-0.250	81702.2
-0.245	81692.2
-0.240	81699.2
-0.235	81688.2
-0.230	81681.2
-0.225	81678.2
-0.220	81695.1
-0.215	81694.1
-0.210	81694.1
-0.205	81704.1
-0.200	81705.1
-0.195	81681.1
-0.190	81673.1
-0.185	81691.1
-0.180	81711.1
-0.175	81715.0
-0.170	81731.0
-0.165	81707.0
-0.160	81681.0
-0.155	81683.0
-0.150	81694.0
-0.145	81668.0
-0.140	81672.0
-0.135	81683.0
-0.130	81716.0
-0.125	81714.0
-0.120	81712.0
-0.115	81693.0
-0.110	81676.0
-0.105	81702.0
-0.100	81743.9
-0.095	81744.9
-0.090	81733.0
-0.085	81699.0
-0.080	81679.0
-0.075	81698.0
-0.070	81712.0
-0.065	81710.1
-0.060	81690.1
-0.055	81683.1
-0.050	81715.1
-0.045	81748.1
-0.040	81769.1
-0.035	81756.1
-0.030	81741.0
-0.025	81715.0
-0.020	81713.9
-0.015	81700.9
-0.010	81711.8
-0.005	81689.7
0.000	81650.5
0.005	81632.4
0.010	81631.4
0.015	81556.3
0.020	81478.3
0.025	81505.3
0.030	81627.3
0.035	81652.3
0.040	81628.5
0.045	81664.6
0.050	81675.8
0.055	81644.1
0.060	81634.3
0.065	81691.4
0.070	81749.4
0.075	81740.5
0.080	81685.5
0.085	81629.4
0.090	81576.3
0.095	81554.2
0.100	81540.0
0.105	81561.8
0.110	81614.6
0.115	81633.5
0.120	81621.4
0.125	81627.4
0.130	81633.3
0.135	81617.4
0.140	81628.4
0.145	81646.4
0.150	81658.5
0.155	81673.5
0.160	81687.5
0.165	81668.6
0.170	81655.6
0.175	81620.6
0.180	81608.6
0.185	81572.6
0.190	81593.6
0.195	81635.6
0.200	81680.5
0.205	81692.5
0.210	81666.5
0.215	81646.5
0.220	81647.5
0.225	81657.5
0.230	81670.5
0.235	81688.5
0.240	81696.5
0.245	81690.5
0.250	81648.5
0.255	81620.5
0.260	81627.5
0.265	81643.5
0.270	81655.5
0.275	81662.5
0.280	81658.5
0.285	81663.4
0.290	81697.4
0.295	81701.4
0.300	81687.4
0.305	81675.4
0.310	81668.4
0.315	81665.4
0.320	81632.4
0.325	81627.4
0.330	81647.4
0.335	81661.4
0.340	81661.4
0.345	81653.4
0.350	81651.4
0.355	81641.4
0.360	81647.4
0.365	81656.3
0.370	81662.3
0.375	81660.3
0.380	81670.3
0.385	81623.3
0.390	81602.4
0.395	81613.3
0.400	81632.3
0.405	81630.3
0.410	81647.3
0.415	81655.3
0.420	81672.3
0.425	81686.2
0.430	81695.2
0.435	81679.2
0.440	81683.2
0.445	81692.2
0.450	81649.2
0.455	81630.2
0.460	81651.2
0.465	81663.2
0.470	81679.2
0.475	81680.2
0.480	81675.2
0.485	81659.2
0.490	81648.2
0.495	81637.2
0.500	81627.2
0.505	81605.2
0.510	81613.2
0.515	81602.2
0.520	81601.2
0.525	81625.1
0.530	81655.1
0.535	81635.1
0.540	81643.1
0.545	81637.1
0.550	81650.1
0.555	81660.1
0.560	81662.0
0.565	81646.0
0.570	81630.0
0.575	81621.0
0.580	81632.0
0.585	81589.0
0.590	81600.0
0.595	81625.0
0.600	81631.0
0.605	81620.0
0.610	81636.0
0.615	81640.9
0.620	81638.9
0.625	81641.9
0.630	81645.9
0.635	81643.9
0.640	81656.9
0.645	81628.9
0.650	81596.9
0.655	81602.9
0.660	81618.9
0.665	81663.9
0.670	81659.9
0.675	81643.9
0.680	81658.9
0.685	81670.9
0.690	81673.9
0.695	81645.9
0.700	81645.9
0.705	81631.9
0.710	81631.9
0.715	81616.9
0.720	81617.9
0.725	81611.9
0.730	81614.9
0.735	81606.9
0.740	81585.9
0.745	81590.9
0.750	81601.9
0.755	81598.9
0.760	81604.9
0.765	81600.9
0.770	81606.9
0.775	81613.9
0.780	81602.9
0.785	81568.9
0.790	81573.9
0.795	81600.9
0.800	81613.8
0.805	81610.8
0.810	81610.8
0.815	81612.8
0.820	81613.8
0.825	81618.8
0.830	81621.7
0.835	81612.7
0.840	81612.7
0.845	81608.7
0.850	81580.7
0.855	81574.7
0.860	81594.7
0.865	81608.6
0.870	81589.6
0.875	81576.6
0.880	81575.6
0.885	81570.6
0.890	81555.6
0.895	81551.6
0.900	81553.6
0.905	81548.6
0.910	81528.7
0.915	81498.7
0.920	81500.7
0.925	81506.7
0.930	81548.6
0.935	81546.6
0.940	81544.6
0.945	81551.6
0.950	81570.6
0.955	81558.6
0.960	81558.6
0.965	81561.6
0.970	81574.6
0.975	81562.6
0.980	81559.6
0.985	81535.6
0.990	81546.5
0.995	81558.5
1.000	81554.5
1.005	81528.5
1.010	81518.5
1.015	81497.5
1.020	81491.5
1.025	81496.5
1.030	81500.5
1.035	81492.5
1.040	81509.5
1.045	81516.5
1.050	81502.5
1.055	81498.5
1.060	81531.5
1.065	81556.5
1.070	81566.5
1.075	81566.5
1.080	81577.5
1.085	81597.5
1.090	81600.5
1.095	81620.4
1.100	81625.4
1.105	81626.4
1.110	81626.4
1.115	81591.4
1.120	81564.5
1.125	81560.5
1.130	81594.4
1.135	81587.4
1.140	81587.4
1.145	81574.4
1.150	81555.4
1.155	81546.4
1.160	81544.4
1.165	81545.4
1.170	81551.3
1.175	81551.3
1.180	81526.3
1.185	81496.3
1.190	81499.3
1.195	81523.3
1.200	81528.3
1.205	81545.3
1.210	81554.3
1.215	81559.3
1.220	81568.3
1.225	81592.2
1.230	81609.2
1.235	81615.2
1.240	81618.2
1.245	81622.2
1.250	81601.2
1.255	81609.2
1.260	81631.2
1.265	81635.2
1.270	81646.2
1.275	81650.2
1.280	81657.2
1.285	81669.1
1.290	81678.1
1.295	81669.1
1.300	81678.1
1.305	81681.1
1.310	81693.1
1.315	81658.1
1.320	81638.1
1.325	81645.1
1.330	81680.1
1.335	81672.1
1.340	81674.1
1.345	81682.1
1.350	81689.1
1.355	81680.1
1.360	81696.1
1.365	81690.1
1.370	81696.1
1.375	81686.1
1.380	81677.1
1.385	81666.1
1.390	81691.1
1.395	81706.1
1.400	81719.0
1.405	81699.0
1.410	81693.0
1.415	81698.0
1.420	81705.0
1.425	81700.0
1.430	81695.0
1.435	81703.0
1.440	81689.0
1.445	81678.0
1.450	81627.0
1.455	81627.0
1.460	81654.0
1.465	81675.0
1.470	81685.0
1.475	81668.0
1.480	81655.0
1.485	81645.0
1.490	81634.0
1.495	81633.0
1.500	81640.0
1.505	81647.9
1.510	81684.9
1.515	81666.9
1.520	81658.9
1.525	81677.9
1.530	81671.9
1.535	81661.9
1.540	81644.9
1.545	81625.9
1.550	81635.9
1.555	81621.9
1.560	81628.9
1.565	81634.9
1.570	81645.9
1.575	81637.9
1.580	81636.9
1.585	81609.9
1.590	81609.9
1.595	81634.9
1.600	81633.9
1.605	81626.9
1.610	81616.9
1.615	81619.9
1.620	81624.9
1.625	81621.8
1.630	81620.8
1.635	81610.8
1.640	81591.8
1.645	81580.8
1.650	81556.8
1.655	81541.8
1.660	81561.8
1.665	81564.8
1.670	81560.8
1.675	81541.8
1.680	81533.8
1.685	81506.9
1.690	81477.9
1.695	81444.9
1.700	81430.9
1.705	81419.9
1.710	81391.0
1.715	81304.0
1.720	81240.1
1.725	81229.1
1.730	81265.1
1.735	81297.1
1.740	81321.1
1.745	81327.0
1.750	81310.0
1.755	81248.1
1.760	81158.2
1.765	81069.2
1.770	81030.2
1.775	81032.2
1.780	81077.2
1.785	81103.2
1.790	81142.2
1.795	81142.1
1.800	81126.2
1.805	81093.2
1.810	81064.2
1.815	81019.2
1.820	80999.2
1.825	81034.2
1.830	81108.1
1.835	81163.1
1.840	81216.0
1.845	81250.0
1.850	81242.0
1.855	81260.0
1.860	81299.0
1.865	81318.9
1.870	81328.9
1.875	81339.9
1.880	81374.9
1.885	81381.9
1.890	81363.9
1.895	81389.9
1.900	81433.8
1.905	81484.8
1.910	81510.8
1.915	81482.8
1.920	81489.8
1.925	81513.8
1.930	81535.8
1.935	81498.8
1.940	81487.8
1.945	81466.8
1.950	81474.8
1.955	81492.8
1.960	81504.8
1.965	81502.8
1.970	81511.8
1.975	81515.8
1.980	81511.8
1.985	81496.8
1.990	81505.8
1.995	81527.7
2.000	81505.7
2.005	81510.7
2.010	81537.7
2.015	81534.7
2.020	81533.7
2.025	81526.7
2.030	81506.7
2.035	81475.7
2.040	81485.7
2.045	81481.7
2.050	81455.8
2.055	81463.7
2.060	81479.7
2.065	81485.7
2.070	81482.7
2.075	81484.7
2.080	81506.7
2.085	81511.7
2.090	81495.7
2.095	81476.7
2.100	81472.7
2.105	81474.8
2.110	81481.8
2.115	81458.8
2.120	81465.8
2.125	81468.8
2.130	81488.8
2.135	81478.8
2.140	81469.8
2.145	81460.8
2.150	81465.8
2.155	81460.8
2.160	81459.8
2.165	81458.8
2.170	81470.8
2.175	81474.8
2.180	81470.8
2.185	81446.8
2.190	81472.8
2.195	81481.8
2.200	81459.8
2.205	81448.8
2.210	81451.8
2.215	81468.7
2.220	81479.7
2.225	81470.7
2.230	81466.8
2.235	81445.8
2.240	81432.8
2.245	81426.8
2.250	81379.9
2.255	81389.9
2.260	81423.9
2.265	81450.8
2.270	81472.8
2.275	81469.8
2.280	81474.8
2.285	81466.8
2.290	81469.8
2.295	81480.8
2.300	81472.8
2.305	81464.8
2.310	81454.8
2.315	81426.8
2.320	81437.8
2.325	81453.8
2.330	81471.8
2.335	81451.8
2.340	81441.8
2.345	81421.8
2.350	81384.8
2.355	81382.8
2.360	81418.8
2.365	81429.8
2.370	81444.8
2.375	81406.8
2.380	81354.8
2.385	81315.9
2.390	81353.9
2.395	81404.9
2.400	81432.8
2.405	81450.8
2.410	81472.8
2.415	81484.8
2.420	81465.8
2.425	81447.9
2.430	81447.9
2.435	81466.9
2.440	81495.8
2.445	81496.8
2.450	81478.9
2.455	81494.9
2.460	81534.8
2.465	81520.8
2.470	81496.8
2.475	81477.9
2.480	81477.9
2.485	81474.9
2.490	81479.8
2.495	81479.8
2.500	81518.8
2.505	81530.8
2.510	81508.8
2.515	81485.8
2.520	81480.9
2.525	81484.9
2.530	81516.9
2.535	81512.9
2.540	81516.9
2.545	81486.9
2.550	81497.9
2.555	81497.9
2.560	81514.9
2.565	81530.9
2.570	81544.9
2.575	81547.9
2.580	81516.9
2.585	81500.9
2.590	81531.9
2.595	81535.9
2.600	81527.9
2.605	81525.9
2.610	81535.9
2.615	81548.9
2.620	81564.9
2.625	81563.9
2.630	81577.9
2.635	81544.9
2.640	81534.9
2.645	81513.9
2.650	81481.9
2.655	81497.9
2.660	81528.9
2.665	81540.9
2.670	81561.9
2.675	81569.9
2.680	81562.0
2.685	81543.0
2.690	81524.0
2.695	81500.0
2.700	81508.0
2.705	81550.0
2.710	81576.0
2.715	81556.0
2.720	81566.0
2.725	81587.0
2.730	81609.0
2.735	81603.0
2.740	81589.0
2.745	81563.0
2.750	81547.0
2.755	81511.1
2.760	81520.1
2.765	81533.1
2.770	81545.1
2.775	81547.1
2.780	81528.2
2.785	81520.2
2.790	81549.2
2.795	81562.2
2.800	81552.2
2.805	81526.2
2.810	81542.2
2.815	81552.2
2.820	81594.2
2.825	81609.1
2.830	81628.1
2.835	81618.1
2.840	81612.1
2.845	81576.1
2.850	81505.2
2.855	81506.2
2.860	81546.2
2.865	81581.1
2.870	81588.1
2.875	81580.2
2.880	81587.2
2.885	81577.2
2.890	81563.2
2.895	81553.2
2.900	81589.2
2.905	81609.2
2.910	81619.2
2.915	81588.3
2.920	81601.3
2.925	81625.3
2.930	81655.3
2.935	81642.3
2.940	81613.3
2.945	81590.3
2.950	81603.3
2.955	81598.3
2.960	81614.3
2.965	81622.3
2.970	81645.3
2.975	81629.3
2.980	81603.4
2.985	81583.4
2.990	81584.4
2.995	81594.4
3.000	81576.4
3.005	81557.5
3.010	81559.5
3.015	81584.4
3.020	81607.4
3.025	81627.4
3.030	81640.4
3.035	81657.4
3.040	81665.4
3.045	81653.5
3.050	81638.5
3.055	81641.5
3.060	81681.5
3.065	81693.5
3.070	81691.5
3.075	81676.5
3.080	81668.5
3.085	81645.5
3.090	81636.5
3.095	81646.5
3.100	81668.5
3.105	81669.6
3.110	81695.5
3.115	81662.6
3.120	81675.6
3.125	81675.6
3.130	81674.6
3.135	81664.6
3.140	81664.6
3.145	81687.6
3.150	81694.6
3.155	81721.6
3.160	81719.6
3.165	81702.6
3.170	81694.6
3.175	81684.7
3.180	81654.7
3.185	81644.7
3.190	81669.7
3.195	81698.7
3.200	81698.7
3.205	81699.7
3.210	81709.7
3.215	81707.7
3.220	81711.7
3.225	81733.7
3.230	81740.7
3.235	81714.8
3.240	81697.8
3.245	81677.8
3.250	81670.8
3.255	81693.8
3.260	81737.8
3.265	81725.8
3.270	81707.8
3.275	81695.8
3.280	81704.8
3.285	81701.8
3.290	81700.8
3.295	81689.8
3.300	81686.8
3.305	81699.8
3.310	81694.7
3.315	81657.7
3.320	81675.7
3.325	81716.6
3.330	81761.6
3.335	81790.5
3.340	81819.5
3.345	81778.5
3.350	81741.5
3.355	81676.6
3.360	81634.7
3.365	81664.7
3.370	81731.7
3.375	81754.7
3.380	81723.8
3.385	81714.9
3.390	81766.0
3.395	81762.2
3.400	81714.4
3.405	81697.5
3.410	81785.6
3.415	81853.6
3.420	81831.7
3.425	81808.7
3.430	81792.7
3.435	81792.7
3.440	81813.7
3.445	81788.7
3.450	81767.7
3.455	81795.6
3.460	81843.6
3.465	81848.6
3.470	81861.6
3.475	81855.6
3.480	81856.7
3.485	81852.7
3.490	81855.7
3.495	81848.8
3.500	81836.9
3.505	81836.9
3.510	81850.0
3.515	81811.1
3.520	81814.2
3.525	81845.2
3.530	81852.3
3.535	81838.4
3.540	81841.4
3.545	81837.5
3.550	81834.6
3.555	81823.6
3.560	81829.7
3.565	81817.7
3.570	81823.8
3.575	81820.8
3.580	81779.9
3.585	81775.9
3.590	81782.9
3.595	81802.0
3.600	81794.0
3.605	81792.0
3.610	81798.0
3.615	81825.0
3.620	81836.0
3.625	81835.0
3.630	81812.1
3.635	81774.1
3.640	81726.2
3.645	81656.2
3.650	81645.3
3.655	81697.2
3.660	81771.2
3.665	81792.2
3.670	81807.2
3.675	81816.2
3.680	81822.2
3.685	81815.2
3.690	81818.2
3.695	81829.2
3.700	81831.3
3.705	81824.3
3.710	81811.3
3.715	81798.3
3.720	81806.3
3.725	81830.3
3.730	81849.3
3.735	81861.4
3.740	81868.4
3.745	81866.4
3.750	81872.4
3.755	81863.4
3.760	81881.4
3.765	81862.5
3.770	81871.5
3.775	81869.5
3.780	81849.6
3.785	81848.6
3.790	81883.6
3.795	81902.6
3.800	81894.6
3.805	81896.6
3.810	81903.7
3.815	81903.7
3.820	81918.7
3.825	81913.8
3.830	81923.8
3.835	81933.8
3.840	81941.8
3.845	81914.9
3.850	81915.9
3.855	81916.0
3.860	81927.0
3.865	81932.0
3.870	81930.1
3.875	81917.1
3.880	81911.2
3.885	81905.2
3.890	81893.3
3.895	81870.3
3.900	81841.4
3.905	81802.5
3.910	81793.5
3.915	81764.6
3.920	81765.7
3.925	81782.7
3.930	81768.8
3.935	81723.9
3.940	81705.9
3.945	81694.0
3.950	81680.1
3.955	81666.2
3.960	81643.3
3.965	81609.4
3.970	81604.5
3.975	81584.7
3.980	81241.1
3.985	80726.6
3.990	80571.8
3.995	80979.7
4.000	81419.7
4.005	81517.8
4.010	81498.1
4.015	81498.4
4.020	81339.9
4.025	81135.3
4.030	81178.6
4.035	81312.8
4.040	81357.9
4.045	81292.1
4.050	81199.3
4.055	81159.4
4.060	81144.3
4.065	81081.1
4.070	81012.9
4.075	80970.5
4.080	80968.0
4.085	81004.3
4.090	81087.4
4.095	81182.4
4.100	81293.4
4.105	81390.5
4.110	81462.7
4.115	81488.2
4.120	81521.7
4.125	81570.4
4.130	81587.3
4.135	81596.2
4.140	81600.1
4.145	81601.1
4.150	81601.0
4.155	81594.0
4.160	81590.0
4.165	81583.0
4.170	81588.0
4.175	81592.9
4.180	81577.9
4.185	81599.9
4.190	81628.9
4.195	81617.9
4.200	81601.9
4.205	81573.9
4.210	81551.9
4.215	81551.9
4.220	81574.9
4.225	81596.9
4.230	81608.9
4.235	81607.9
4.240	81598.9
4.245	81578.9
4.250	81581.9
4.255	81581.9
4.260	81584.9
4.265	81593.9
4.270	81590.9
4.275	81589.9
4.280	81612.9
4.285	81604.9
4.290	81584.9
4.295	81584.9
4.300	81571.9
4.305	81564.9
4.310	81559.9
4.315	81533.9
4.320	81541.9
4.325	81546.9
4.330	81545.9
4.335	81529.9
4.340	81532.9
4.345	81518.9
4.350	81547.9
4.355	81548.8
4.360	81550.8
4.365	81542.8
4.370	81545.8
4.375	81533.8
4.380	81507.9
4.385	81514.8
4.390	81534.8
4.395	81543.8
4.400	81539.8
4.405	81529.8
4.410	81524.8
4.415	81523.8
4.420	81535.8
4.425	81538.8
4.430	81543.8
4.435	81554.8
4.440	81564.8
4.445	81521.8
4.450	81515.8
4.455	81529.8
4.460	81539.8
4.465	81544.8
4.470	81553.7
4.475	81554.7
4.480	81548.7
4.485	81539.7
4.490	81552.7
4.495	81562.7
4.500	81575.7
4.505	81591.7
4.510	81592.7
4.515	81582.7
4.520	81586.7
4.525	81613.7
4.530	81598.7
4.535	81587.7
4.540	81577.7
4.545	81577.6
4.550	81583.6
4.555	81583.6
4.560	81593.6
4.565	81612.6
4.570	81620.6
4.575	81618.6
4.580	81592.6
4.585	81577.6
4.590	81594.6
4.595	81607.6
4.600	81589.6
4.605	81576.6
4.610	81583.6
4.615	81572.6
4.620	81586.6
4.625	81596.6
4.630	81619.5
4.635	81611.6
4.640	81606.6
4.645	81560.6
4.650	81539.6
4.655	81547.6
4.660	81571.5
4.665	81562.5
4.670	81562.5
4.675	81574.5
4.680	81585.5
4.685	81580.5
4.690	81573.5
4.695	81563.5
4.700	81549.5
4.705	81528.5
4.710	81504.5
4.715	81492.5
4.720	81518.5
4.725	81534.5
4.730	81542.5
4.735	81536.5
4.740	81533.5
4.745	81535.5
4.750	81544.5
4.755	81539.5
4.760	81543.4
4.765	81542.4
4.770	81549.4
4.775	81543.4
4.780	81499.4
4.785	81498.4
4.790	81513.4
4.795	81507.4
4.800	81511.4
4.805	81512.4
4.810	81519.3
4.815	81535.3
4.820	81548.3
4.825	81547.3
4.830	81543.3
4.835	81537.3
4.840	81534.3
4.845	81493.3
4.850	81484.3
4.855	81495.3
4.860	81492.3
4.865	81491.3
4.870	81479.3
4.875	81485.3
4.880	81488.3
4.885	81504.2
4.890	81515.2
4.895	81525.2
4.900	81514.2
4.905	81500.2
4.910	81501.2
4.915	81476.2
4.920	81490.2
4.925	81517.2
4.930	81514.2
4.935	81493.2
4.940	81497.1
4.945	81496.1
4.950	81507.1
4.955	81522.1
4.960	81528.1
4.965	81525.0
4.970	81535.0
4.975	81525.0
4.980	81496.0
4.985	81493.0
4.990	81519.0
4.995	81520.9
5.000	81523.9
5.005	81512.9
5.010	81528.9
5.015	81511.9
5.020	81498.9
5.025	81488.9
5.030	81500.8
5.035	81498.8
5.040	81511.8
5.045	81503.8
5.050	81494.8
5.055	81507.7
5.060	81527.7
5.065	81539.7
5.070	81554.6
5.075	81540.6
5.080	81505.6
5.085	81488.6
5.090	81489.6
5.095	81489.6
5.100	81504.6
5.105	81510.5
5.110	81480.5
5.115	81473.5
5.120	81520.5
5.125	81541.4
5.130	81567.4
5.135	81562.3
5.140	81526.3
5.145	81508.3
5.150	81524.3
5.155	81539.2
5.160	81533.2
5.165	81534.1
5.170	81549.1
5.175	81531.0
5.180	81522.0
5.185	81517.0
5.190	81526.9
5.195	81522.9
5.200	81532.8
5.205	81510.8
5.210	81500.7
5.215	81507.7
5.220	81524.6
5.225	81514.5
5.230	81521.4
5.235	81526.4
5.240	81518.3
5.245	81470.3
5.250	81464.2
5.255	81459.1
5.260	81470.1
5.265	81458.0
5.270	81436.9
5.275	81427.8
5.280	81391.7
5.285	81373.5
5.290	81319.4
5.295	81268.3
5.300	81213.1
5.305	81147.9
5.310	81062.7
5.315	80970.5
5.320	80893.3
5.325	80801.1
5.330	80703.9
5.335	80588.8
5.340	80539.7
5.345	80438.7
5.350	80379.8
5.355	80360.9
5.360	80343.0
5.365	80333.3
5.370	80407.7
5.375	80473.1
5.380	80493.7
5.385	80563.3
5.390	80723.2
5.395	80954.0
5.400	81196.8
5.405	81432.3
5.410	81590.6
5.415	81672.7
5.420	81719.8
5.425	81744.9
5.430	81764.9
5.435	81759.9
5.440	81763.9
5.445	81732.9
5.450	81732.9
5.455	81743.9
5.460	81757.9
5.465	81761.9
5.470	81761.9
5.475	81750.9
5.480	81759.9
5.485	81764.9
5.490	81772.9
5.495	81760.9
5.500	81755.9
5.505	81757.9
5.510	81742.9
5.515	81726.9
5.520	81733.9
5.525	81759.9
5.530	81759.9
5.535	81747.9
5.540	81755.9
5.545	81747.9
5.550	81758.9
5.555	81761.9
5.560	81763.9
5.565	81763.9
5.570	81774.9
5.575	81741.9
5.580	81725.9
5.585	81727.9
5.590	81762.9
5.595	81762.9
5.600	81762.9
5.605	81752.9
5.610	81761.9
5.615	81766.9
5.620	81768.9
5.625	81775.9
5.630	81777.9
5.635	81761.9
5.640	81770.9
5.645	81754.9
5.650	81750.9
5.655	81767.9
5.660	81781.0
5.665	81773.0
5.670	81764.0
5.675	81761.0
5.680	81775.0
5.685	81761.0
5.690	81755.0
5.695	81745.1
5.700	81747.1
5.705	81754.1
5.710	81736.1
5.715	81728.1
5.720	81743.0
5.725	81772.0
5.730	81775.0
5.735	81760.0
5.740	81751.0
5.745	81741.0
5.750	81745.0
5.755	81730.0
5.760	81720.0
5.765	81723.0
5.770	81714.0
5.775	81703.0
5.780	81688.0
5.785	81697.0
5.790	81718.9
5.795	81712.9
5.800	81705.9
5.805	81705.9
5.810	81704.9
5.815	81715.9
5.820	81721.9
5.825	81718.9
5.830	81718.9
5.835	81711.9
5.840	81721.9
5.845	81696.9
5.850	81701.9
5.855	81719.9
5.860	81741.9
5.865	81742.9
5.870	81749.9
5.875	81742.9
5.880	81755.9
5.885	81733.9
5.890	81741.9
5.895	81743.9
5.900	81740.9
5.905	81738.9
5.910	81702.0
5.915	81692.0
5.920	81714.9
5.925	81719.9
5.930	81727.9
5.935	81712.9
5.940	81708.0
5.945	81708.0
5.950	81721.9
5.955	81713.9
5.960	81707.0
5.965	81709.0
5.970	81703.0
5.975	81684.0
5.980	81663.0
5.985	81664.0
5.990	81693.0
5.995	81693.0
6.000	81702.0
6.005	81695.0
6.010	81693.0
6.015	81701.0
6.020	81713.0
6.025	81710.0
6.030	81703.0
6.035	81701.0
6.040	81680.0
6.045	81657.0
6.050	81661.0
6.055	81674.0
6.060	81675.0
6.065	81668.0
6.070	81659.0
6.075	81654.0
6.080	81653.0
6.085	81660.0
6.090	81655.0
6.095	81646.0
6.100	81650.0
6.105	81653.0
6.110	81621.0
6.115	81615.0
6.120	81630.0
6.125	81652.0
6.130	81652.0
6.135	81656.0
6.140	81663.0
6.145	81664.0
6.150	81666.0
6.155	81674.0
6.160	81677.0
6.165	81680.0
6.170	81681.0
6.175	81673.0
6.180	81651.0
6.185	81666.0
6.190	81693.0
6.195	81683.0
6.200	81671.0
6.205	81681.0
6.210	81674.0
6.215	81687.0
6.220	81693.0
6.225	81692.0
6.230	81684.0
6.235	81685.0
6.240	81677.0
6.245	81653.0
6.250	81661.0
6.255	81681.0
6.260	81701.0
6.265	81699.0
6.270	81702.0
6.275	81703.0
6.280	81712.0
6.285	81701.0
6.290	81707.0
6.295	81705.0
6.300	81708.0
6.305	81700.0
6.310	81657.0
6.315	81666.0
6.320	81683.0
6.325	81699.0
6.330	81696.0
6.335	81665.0
6.340	81660.0
6.345	81647.0
6.350	81627.0
6.355	81603.1
6.360	81588.1
6.365	81545.1
6.370	81511.1
6.375	81438.2
6.380	81395.2
6.385	81359.2
6.390	81346.3
6.395	81306.3
6.400	81263.3
6.405	81211.4
6.410	81141.4
6.415	81103.4
6.420	81046.5
6.425	80998.5
6.430	80966.5
6.435	80968.5
6.440	81000.5
6.445	81018.5
6.450	81090.5
6.455	81191.4
6.460	81259.3
6.465	81313.3
6.470	81384.2
6.475	81447.2
6.480	81490.2
6.485	81527.1
6.490	81555.1
6.495	81585.1
6.500	81606.1
6.505	81629.1
6.510	81609.1
6.515	81607.1
6.520	81643.0
6.525	81659.0
6.530	81669.0
6.535	81679.0
6.540	81680.0
6.545	81680.0
6.550	81690.0
6.555	81687.0
6.560	81707.0
6.565	81713.0
6.570	81719.0
6.575	81708.0
6.580	81702.0
6.585	81723.0
6.590	81764.0
6.595	81748.0
6.600	81755.0
6.605	81770.0
6.610	81758.0
6.615	81779.0
6.620	81787.9
6.625	81792.9
6.630	81798.9
6.635	81802.9
6.640	81795.9
6.645	81762.0
6.650	81783.0
6.655	81807.9
6.660	81822.9
6.665	81820.9
6.670	81824.9
6.675	81825.9
6.680	81824.9
6.685	81825.9
6.690	81846.9
6.695	81846.9
6.700	81840.9
6.705	81844.9
6.710	81809.9
6.715	81818.9
6.720	81847.9
6.725	81866.9
6.730	81857.9
6.735	81842.9
6.740	81855.9
6.745	81850.9
6.750	81856.9
6.755	81855.9
6.760	81863.9
6.765	81853.9
6.770	81858.9
6.775	81838.9
6.780	81827.9
6.785	81840.9
6.790	81867.9
6.795	81864.9
6.800	81864.9
6.805	81860.9
6.810	81859.9
6.815	81859.9
6.820	81869.9
6.825	81863.9
6.830	81869.9
6.835	81860.9
6.840	81853.9
6.845	81832.9
6.850	81840.9
6.855	81869.9
6.860	81879.9
6.865	81868.9
6.870	81873.9
6.875	81868.9
6.880	81866.9
6.885	81889.9
6.890	81886.9
6.895	81884.9
6.900	81889.9
6.905	81881.9
6.910	81857.9
6.915	81846.9
6.920	81869.9
6.925	81876.9
6.930	81891.9
6.935	81880.9
6.940	81889.9
6.945	81873.9
6.950	81877.9
6.955	81885.9
6.960	81896.9
6.965	81888.9
6.970	81882.9
6.975	81846.9
6.980	81836.9
6.985	81855.9
6.990	81872.9
6.995	81864.9
7.000	81852.9
7.005	81846.9
7.010	81854.9
7.015	81840.9
7.020	81849.9
7.025	81843.9
7.030	81842.9
7.035	81849.9
7.040	81829.9
7.045	81807.0
7.050	81807.0
7.055	81831.9
7.060	81831.9
7.065	81826.9
7.070	81821.0
7.075	81818.0
7.080	81826.0
7.085	81818.0
7.090	81810.0
7.095	81806.0
7.100	81806.0
7.105	81790.0
7.110	81758.0
7.115	81767.0
7.120	81785.0
7.125	81797.0
7.130	81792.0
7.135	81786.0
7.140	81780.0
7.145	81781.0
7.150	81781.0
7.155	81777.0
7.160	81776.0
7.165	81779.0
7.170	81772.0
7.175	81749.0
7.180	81737.0
7.185	81748.0
7.190	81771.0
7.195	81769.0
7.200	81769.0
7.205	81761.0
7.210	81763.0
7.215	81771.0
7.220	81767.0
7.225	81753.0
7.230	81764.0
7.235	81757.0
7.240	81741.0
7.245	81711.1
7.250	81729.0
7.255	81752.0
7.260	81755.0
7.265	81747.0
7.270	81745.0
7.275	81742.0
7.280	81738.0
7.285	81744.0
7.290	81737.0
7.295	81733.0
7.300	81729.0
7.305	81737.0
7.310	81696.1
7.315	81693.1
7.320	81725.1
7.325	81722.1
7.330	81719.1
7.335	81724.1
7.340	81721.1
7.345	81722.1
7.350	81718.1
7.355	81725.1
7.360	81729.1
7.365	81724.1
7.370	81719.1
7.375	81690.1
7.380	81675.1
7.385	81693.1
7.390	81711.1
7.395	81701.1
7.400	81701.1
7.405	81712.1
7.410	81713.1
7.415	81709.1
7.420	81723.1
7.425	81725.1
7.430	81721.1
7.435	81725.1
7.440	81719.1
7.445	81691.1
7.450	81706.1
7.455	81730.1
7.460	81740.1
7.465	81739.1
7.470	81741.1
7.475	81745.1
7.480	81743.1
7.485	81752.1
7.490	81762.1
7.495	81756.1
7.500	81759.1
7.505	81756.1
7.510	81725.1
7.515	81724.1
7.520	81762.1
7.525	81770.1
7.530	81770.1
7.535	81743.1
7.540	81748.1
7.545	81749.1
7.550	81758.1
7.555	81753.1
7.560	81758.1
7.565	81772.1
7.570	81767.1
7.575	81741.1
7.580	81734.1
7.585	81745.1
7.590	81764.1
7.595	81759.1
7.600	81753.1
7.605	81755.1
7.610	81761.1
7.615	81749.1
7.620	81764.1
7.625	81755.1
7.630	81763.1
7.635	81745.1
7.640	81725.1
7.645	81708.1
7.650	81725.1
7.655	81748.1
7.660	81760.1
7.665	81761.1
7.670	81751.1
7.675	81749.1
7.680	81761.1
7.685	81767.1
7.690	81772.1
7.695	81772.1
7.700	81780.1
7.705	81766.1
7.710	81735.1
7.715	81737.1
7.720	81760.1
7.725	81759.1
7.730	81766.1
7.735	81760.1
7.740	81748.1
7.745	81756.1
7.750	81760.1
7.755	81764.1
7.760	81773.1
7.765	81780.1
7.770	81780.1
7.775	81745.1
7.780	81755.1
7.785	81775.1
7.790	81784.1
7.795	81781.1
7.800	81778.1
7.805	81771.1
7.810	81778.1
7.815	81776.1
7.820	81779.1
7.825	81789.1
7.830	81792.1
7.835	81793.1
7.840	81778.1
7.845	81760.1
7.850	81765.1
7.855	81790.1
7.860	81799.1
7.865	81791.1
7.870	81789.1
7.875	81799.1
7.880	81805.1
7.885	81800.1
7.890	81806.1
7.895	81791.1
7.900	81804.1
7.905	81798.1
7.910	81762.1
7.915	81764.1
7.920	81781.1
7.925	81778.1
7.930	81759.1
7.935	81745.1
7.940	81730.2
7.945	81717.2
7.950	81721.2
7.955	81721.2
7.960	81718.2
7.965	81719.2
7.970	81745.2
7.975	81731.2
7.980	81740.2
7.985	81776.1
7.990	81806.1
7.995	81817.1
8.000	81826.1
8.005	81825.1
8.010	81829.1
8.015	81828.1
8.020	81835.1
8.025	81836.1
8.030	81833.1
8.035	81844.1
8.040	81817.1
8.045	81802.1
8.050	81824.1
8.055	81838.1
8.060	81840.1
8.065	81837.1
8.070	81836.1
8.075	81828.1
8.080	81832.1
8.085	81828.1
8.090	81842.1
8.095	81833.1
8.100	81841.1
8.105	81830.1
8.110	81801.1
8.115	81806.1
8.120	81837.1
8.125	81839.1
8.130	81834.1
8.135	81842.1
8.140	81848.1
8.145	81854.1
8.150	81848.1
8.155	81850.1
8.160	81852.1
8.165	81846.1
8.170	81851.1
8.175	81809.2
8.180	81819.2
8.185	81832.2
8.190	81845.1
8.195	81831.2
8.200	81831.2
8.205	81821.2
8.210	81825.2
8.215	81822.2
8.220	81821.2
8.225	81816.2
8.230	81804.2
8.235	81805.2
8.240	81753.2
8.245	81720.3
8.250	81714.3
8.255	81714.3
8.260	81692.3
8.265	81687.3
8.270	81688.3
8.275	81693.3
8.280	81694.3
8.285	81651.3
8.290	81617.3
8.295	81596.4
8.300	81564.4
8.305	81561.4
8.310	81574.4
8.315	81649.3
8.320	81742.3
8.325	81770.3
8.330	81779.2
8.335	81785.2
8.340	81781.3
8.345	81783.3
8.350	81787.3
8.355	81770.3
8.360	81743.3
8.365	81718.3
8.370	81657.4
8.375	81549.4
8.380	81494.5
8.385	81470.5
8.390	81474.5
8.395	81561.4
8.400	81693.3
8.405	81747.3
8.410	81772.3
8.415	81785.3
8.420	81789.3
8.425	81783.3
8.430	81788.3
8.435	81787.3
8.440	81753.3
8.445	81741.3
8.450	81749.3
8.455	81756.3
8.460	81738.3
8.465	81695.4
8.470	81646.4
8.475	81556.5
8.480	81473.5
8.485	81395.6
8.490	81413.6
8.495	81498.5
8.500	81622.4
8.505	81713.4
8.510	81700.4
8.515	81730.4
8.520	81761.3
8.525	81764.3
8.530	81774.3
8.535	81765.4
8.540	81761.4
8.545	81766.4
8.550	81758.4
8.555	81750.4
8.560	81754.4
8.565	81749.4
8.570	81756.4
8.575	81716.4
8.580	81715.4
8.585	81746.4
8.590	81756.4
8.595	81741.4
8.600	81734.4
8.605	81722.4
8.610	81714.4
8.615	81692.4
8.620	81648.5
8.625	81557.6
8.630	81424.7
8.635	81148.9
8.640	80895.1
8.645	80945.0
8.650	81244.8
8.655	81518.6
8.660	81649.5
8.665	81686.5
8.670	81695.5
8.675	81698.5
8.680	81697.5
8.685	81699.5
8.690	81698.5
8.695	81694.5
8.700	81683.5
8.705	81670.5
8.710	81653.5
8.715	81653.6
8.720	81679.5
8.725	81679.5
8.730	81668.6
8.735	81651.6
8.740	81655.6
8.745	81646.6
8.750	81643.6
8.755	81642.6
8.760	81646.6
8.765	81647.6
8.770	81640.6
8.775	81612.6
8.780	81613.6
8.785	81637.6
8.790	81644.6
8.795	81641.6
8.800	81643.6
8.805	81635.6
8.810	81645.6
8.815	81642.6
8.820	81647.6
8.825	81638.7
8.830	81637.7
8.835	81646.7
8.840	81632.7
8.845	81620.7
8.850	81630.7
8.855	81654.7
8.860	81649.7
8.865	81633.7
8.870	81636.7
8.875	81637.7
8.880	81633.7
8.885	81630.7
8.890	81637.7
8.895	81625.7
8.900	81645.7
8.905	81591.8
8.910	81274.0
8.915	80890.3
8.920	81062.2
8.925	81497.9
8.930	81647.8
8.935	81649.8
8.940	81646.8
8.945	81650.8
8.950	81650.8
8.955	81648.8
8.960	81641.8
8.965	81636.8
8.970	81602.9
8.975	81526.9
8.980	81158.3
8.985	79183.8
8.990	74789.0
8.995	69531.8
9.000	70111.1
9.005	76654.2
9.010	80628.5
9.015	81486.0
9.020	81631.9
9.025	81624.0
9.030	81570.0
9.035	81601.0
9.040	81630.0
9.045	81651.0
9.050	81670.0
9.055	81698.0
9.060	81704.0
9.065	81700.0
9.070	81706.0
9.075	81703.0
9.080	81707.0
9.085	81714.0
9.090	81702.0
9.095	81692.1
9.100	81698.1
9.105	81678.1
9.110	81672.1
9.115	81682.1
9.120	81718.1
9.125	81690.1
9.130	81697.2
9.135	81691.2
9.140	81695.2
9.145	81703.2
9.150	81717.2
9.155	81707.2
9.160	81713.3
9.165	81716.3
9.170	81721.3
9.175	81686.3
9.180	81681.4
9.185	81710.4
9.190	81725.4
9.195	81731.4
9.200	81738.4
9.205	81737.4
9.210	81745.5
9.215	81745.5
9.220	81749.5
9.225	81757.5
9.230	81749.6
9.235	81745.6
9.240	81712.7
9.245	81695.7
9.250	81723.7
9.255	81721.8
9.260	81669.8
9.265	81665.9
9.270	81650.9
9.275	81630.0
9.280	81619.0
9.285	81628.1
9.290	81628.1
9.295	81619.2
9.300	81645.2
9.305	81631.3
9.310	81630.4
9.315	81628.5
9.320	81642.5
9.325	81617.7
9.330	81524.8
9.335	81454.0
9.340	81339.3
9.345	81166.6
9.350	81118.8
9.355	81146.0
9.360	80957.4
9.365	80448.1
9.370	80023.6
9.375	80064.8
9.380	80478.7
9.385	80797.6
9.390	80828.6
9.395	80750.7
9.400	80709.7
9.405	80709.5
9.410	80780.3
9.415	80888.9
9.420	81004.4
9.425	81118.8
9.430	81227.1
9.435	81312.2
9.440	81353.4
9.445	81404.8
9.450	81474.3
9.455	81526.0
9.460	81545.8
9.465	81562.8
9.470	81575.7
9.475	81576.7
9.480	81581.7
9.485	81582.7
9.490	81588.7
9.495	81595.7
9.500	81589.7
9.505	81560.7
9.510	81554.7
9.515	81560.7
9.520	81588.7
9.525	81595.6
9.530	81581.7
9.535	81574.7
9.540	81579.7
9.545	81572.7
9.550	81576.7
9.555	81580.7
9.560	81590.7
9.565	81596.6
9.570	81588.6
9.575	81560.7
9.580	81566.7
9.585	81589.6
9.590	81598.6
9.595	81596.6
9.600	81596.6
9.605	81598.6
9.610	81612.6
9.615	81598.6
9.620	81595.6
9.625	81599.6
9.630	81599.6
9.635	81594.6
9.640	81570.7
9.645	81580.7
9.650	81596.6
9.655	81609.6
9.660	81602.6
9.665	81590.6
9.670	81596.6
9.675	81584.7
9.680	81591.6
9.685	81590.6
9.690	81595.6
9.695	81604.6
9.700	81613.6
9.705	81584.6
9.710	81565.7
9.715	81570.7
9.720	81594.6
9.725	81599.6
9.730	81604.6
9.735	81593.6
9.740	81592.6
9.745	81598.6
9.750	81597.6
9.755	81595.6
9.760	81603.6
9.765	81607.6
9.770	81584.6
9.775	81546.7
9.780	81555.7
9.785	81579.7
9.790	81578.7
9.795	81570.7
9.800	81563.7
9.805	81563.7
9.810	81566.7
9.815	81551.7
9.820	81551.7
9.825	81547.7
9.830	81553.7
9.835	81532.7
9.840	81509.7
9.845	81510.7
9.850	81512.7
9.855	81535.7
9.860	81535.7
9.865	81524.7
9.870	81511.7
9.875	81511.7
9.880	81526.7
9.885	81518.7
9.890	81519.7
9.895	81511.7
9.900	81513.7
9.905	81470.7
9.910	81464.7
9.915	81482.7
9.920	81493.7
9.925	81485.7
9.930	81469.7
9.935	81470.7
9.940	81469.7
9.945	81465.7
9.950	81474.7
9.955	81475.7
9.960	81465.7
9.965	81455.7
9.970	81446.7
9.975	81405.8
9.980	81406.8
9.985	81423.8
9.990	81440.8
9.995	81424.8
10.000	81434.8
10.005	81426.8
10.010	81438.8
10.015	81431.8
10.020	81438.8
10.025	81436.8
10.030	81424.8
10.035	81435.8
10.040	81398.8
10.045	81402.8
10.050	81405.8
10.055	81422.8
10.060	81404.8
10.065	81393.8
10.070	81394.8
10.075	81389.8
10.080	81379.8
10.085	81377.8
10.090	81379.8
10.095	81389.8
10.100	81384.8
10.105	81365.8
10.110	81350.8
10.115	81354.8
10.120	81385.8
10.125	81379.8
10.130	81385.8
10.135	81381.8
10.140	81383.8
10.145	81373.8
10.150	81369.8
10.155	81372.8
10.160	81369.8
10.165	81371.8
10.170	81361.8
10.175	81351.8
10.180	81372.8
10.185	81384.8
10.190	81388.8
10.195	81377.8
10.200	81370.8
10.205	81380.8
10.210	81378.8
10.215	81382.8
10.220	81389.8
10.225	81383.8
10.230	81390.8
10.235	81399.8
10.240	81378.8
10.245	81382.8
10.250	81412.8
10.255	81423.8
10.260	81428.8
10.265	81428.8
10.270	81435.7
10.275	81441.7
10.280	81463.7
10.285	81457.7
10.290	81464.7
10.295	81446.7
10.300	81448.7
10.305	81414.8
10.310	81411.8
10.315	81442.7
10.320	81459.7
10.325	81458.7
10.330	81456.7
10.335	81464.7
10.340	81451.7
10.345	81454.7
10.350	81471.7
10.355	81467.7
10.360	81482.7
10.365	81489.7
10.370	81482.7
10.375	81445.7
10.380	81469.7
10.385	81496.7
10.390	81508.7
10.395	81495.7
10.400	81492.7
10.405	81499.7
10.410	81502.7
10.415	81502.7
10.420	81502.7
10.425	81489.7
10.430	81491.7
10.435	81482.7
10.440	81455.7
10.445	81485.7
10.450	81507.7
10.455	81512.7
10.460	81516.7
10.465	81517.7
10.470	81518.7
10.475	81526.7
10.480	81536.7
10.485	81526.7
10.490	81525.7
10.495	81536.7
10.500	81532.7
10.505	81488.7
10.510	81481.7
10.515	81452.7
10.520	81417.8
10.525	81376.8
10.530	81453.7
10.535	81513.7
10.540	81547.7
10.545	81546.7
10.550	81555.6
10.555	81552.6
10.560	81553.6
10.565	81556.6
10.570	81539.7
10.575	81518.7
10.580	81535.7
10.585	81561.6
10.590	81549.6
10.595	81531.7
10.600	81537.7
10.605	81525.7
10.610	81524.7
10.615	81536.7
10.620	81541.7
10.625	81543.7
10.630	81551.6
10.635	81542.6
10.640	81515.7
10.645	81512.7
10.650	81534.7
10.655	81535.7
10.660	81546.6
10.665	81546.6
10.670	81551.6
10.675	81555.6
10.680	81558.6
10.685	81549.6
10.690	81559.6
10.695	81564.6
10.700	81548.6
10.705	81507.7
10.710	81509.7
10.715	81540.6
10.720	81553.6
10.725	81549.6
10.730	81547.6
10.735	81534.7
10.740	81545.6
10.745	81546.6
10.750	81553.6
10.755	81558.6
10.760	81564.6
10.765	81554.6
10.770	81529.7
10.775	81518.7
10.780	81528.7
10.785	81553.6
10.790	81559.6
10.795	81540.6
10.800	81554.6
10.805	81560.6
10.810	81560.6
10.815	81555.6
10.820	81581.6
10.825	81565.6
10.830	81567.6
10.835	81550.6
10.840	81522.7
10.845	81525.7
10.850	81541.6
10.855	81540.6
10.860	81538.6
10.865	81539.6
10.870	81532.6
10.875	81535.6
10.880	81544.6
10.885	81538.6
10.890	81532.6
10.895	81535.6
10.900	81536.6
10.905	81487.7
10.910	81485.7
10.915	81509.7
10.920	81532.6
10.925	81522.7
10.930	81520.7
10.935	81511.7
10.940	81520.7
10.945	81512.7
10.950	81523.7
10.955	81508.7
10.960	81520.7
10.965	81523.7
10.970	81495.7
10.975	81479.7
10.980	81488.7
10.985	81516.7
10.990	81514.7
10.995	81510.7
11.000	81509.7
11.005	81499.7
11.010	81502.7
11.015	81492.7
11.020	81492.7
11.025	81496.7
11.030	81509.7
11.035	81497.7
11.040	81462.7
11.045	81459.7
11.050	81478.7
11.055	81483.7
11.060	81482.7
11.065	81482.7
11.070	81475.7
11.075	81474.7
11.080	81483.7
11.085	81461.7
11.090	81456.7
11.095	81462.7
11.100	81458.7
11.105	81412.7
11.110	81409.7
11.115	81427.7
11.120	81435.7
11.125	81425.7
11.130	81429.7
11.135	81423.7
11.140	81422.7
11.145	81426.7
11.150	81429.7
11.155	81429.7
11.160	81424.7
11.165	81427.7
11.170	81400.7
11.175	81377.8
11.180	81396.7
11.185	81421.7
11.190	81409.7
11.195	81405.7
11.200	81417.7
11.205	81420.7
11.210	81407.7
11.215	81405.7
11.220	81409.7
11.225	81408.7
11.230	81406.7
11.235	81395.7
11.240	81371.8
11.245	81380.8
11.250	81406.7
11.255	81410.7
11.260	81398.7
11.265	81394.7
11.270	81392.7
11.275	81388.7
11.280	81383.7
11.285	81388.7
11.290	81390.7
11.295	81396.7
11.300	81397.7
11.305	81364.8
11.310	81360.8
11.315	81389.7
11.320	81403.7
11.325	81399.7
11.330	81401.7
11.335	81400.7
11.340	81402.7
11.345	81410.7
11.350	81424.7
11.355	81420.7
11.360	81417.7
11.365	81404.7
11.370	81384.7
11.375	81363.8
11.380	81392.7
11.385	81412.7
11.390	81412.7
11.395	81400.7
11.400	81403.7
11.405	81405.7
11.410	81409.7
11.415	81411.7
11.420	81417.7
11.425	81412.7
11.430	81420.7
11.435	81406.7
11.440	81383.7
11.445	81392.7
11.450	81419.7
11.455	81423.7
11.460	81427.7
11.465	81419.7
11.470	81423.7
11.475	81408.7
11.480	81420.7
11.485	81428.7
11.490	81424.7
11.495	81419.7
11.500	81420.7
11.505	81388.7
11.510	81396.7
11.515	81406.7
11.520	81408.7
11.525	81408.7
11.530	81413.7
11.535	81404.7
11.540	81406.7
11.545	81415.7
11.550	81409.7
11.555	81403.7
11.560	81412.7
11.565	81409.7
11.570	81382.7
11.575	81375.7
11.580	81393.7
11.585	81424.7
11.590	81419.7
11.595	81420.7
11.600	81426.7
11.605	81423.7
11.610	81429.7
11.615	81433.7
11.620	81432.7
11.625	81425.7
11.630	81423.7
11.635	81404.7
11.640	81381.7
11.645	81383.7
11.650	81424.7
11.655	81421.7
11.660	81399.7
11.665	81402.7
11.670	81395.7
11.675	81385.7
11.680	81391.7
11.685	81399.7
11.690	81417.7
11.695	81414.7
11.700	81415.7
11.705	81385.7
11.710	81380.7
11.715	81402.7
11.720	81404.7
11.725	81396.7
11.730	81397.7
11.735	81393.7
11.740	81392.7
11.745	81387.7
11.750	81388.7
11.755	81391.7
11.760	81405.7
11.765	81395.7
11.770	81360.8
11.775	81355.8
11.780	81380.7
11.785	81407.7
11.790	81393.7
11.795	81386.7
11.800	81382.7
11.805	81372.7
11.810	81375.7
11.815	81376.7
11.820	81384.7
11.825	81373.7
11.830	81374.7
11.835	81366.7
11.840	81354.8
11.845	81352.8
11.850	81387.7
11.855	81385.7
11.860	81385.7
11.865	81374.7
11.870	81381.7
11.875	81374.7
11.880	81382.7
11.885	81384.7
11.890	81388.7
11.895	81374.7
11.900	81382.7
11.905	81346.8
11.910	81341.8
11.915	81371.7
11.920	81385.7
11.925	81363.7
11.930	81372.7
11.935	81370.7
11.940	81368.7
11.945	81366.7
11.950	81363.7
11.955	81367.7
11.960	81359.7
11.965	81363.7
11.970	81328.8
11.975	81327.8
11.980	81343.8
11.985	81369.7
11.990	81376.7
11.995	81357.8
12.000	81360.7
12.005	81357.7
12.010	81356.7
12.015	81360.7
12.020	81370.7
12.025	81368.7
12.030	81368.7
12.035	81332.8
12.040	81326.8
12.045	81337.8
12.050	81366.7
12.055	81357.7
12.060	81338.8
12.065	81321.8
12.070	81320.8
12.075	81326.8
12.080	81342.8
12.085	81356.7
12.090	81368.7
12.095	81372.7
12.100	81368.7
12.105	81337.8
12.110	81350.7
12.115	81373.7
12.120	81386.7
12.125	81391.7
12.130	81389.7
12.135	81379.7
12.140	81375.7
12.145	81373.7
12.150	81380.7
12.155	81393.7
12.160	81394.7
12.165	81380.7
12.170	81351.7
12.175	81354.7
12.180	81371.7
12.185	81389.7
12.190	81384.7
12.195	81379.7
12.200	81393.7
12.205	81382.7
12.210	81389.7
12.215	81394.7
12.220	81397.7
12.225	81398.7
12.230	81409.7
12.235	81384.7
12.240	81369.7
12.245	81390.7
12.250	81424.7
12.255	81431.7
12.260	81429.7
12.265	81434.7
12.270	81433.7
12.275	81429.7
12.280	81435.7
12.285	81435.7
12.290	81441.7
12.295	81449.7
12.300	81437.7
12.305	81406.7
12.310	81433.7
12.315	81458.7
12.320	81475.6
12.325	81455.7
12.330	81449.7
12.335	81452.7
12.340	81453.7
12.345	81461.7
12.350	81468.6
12.355	81469.6
12.360	81473.6
12.365	81477.6
12.370	81450.7
12.375	81448.7
12.380	81462.7
12.385	81479.6
12.390	81480.6
12.395	81489.6
12.400	81495.6
12.405	81496.6
12.410	81499.6
12.415	81516.6
12.420	81524.6
12.425	81517.6
12.430	81515.6
12.435	81503.6
12.440	81501.6
12.445	81506.6
12.450	81548.6
12.455	81537.6
12.460	81527.6
12.465	81525.6
12.470	81541.6
12.475	81522.6
12.480	81525.6
12.485	81538.6
12.490	81547.6
12.495	81552.6
12.500	81537.6
12.505	81527.6
12.510	81526.6
12.515	81559.6
12.520	81571.6
12.525	81573.6
12.530	81578.6
12.535	81570.6
12.540	81577.6
12.545	81577.6
12.550	81593.5
12.555	81587.6
12.560	81593.5
12.565	81593.5
12.570	81558.6
12.575	81559.6
12.580	81592.5
12.585	81600.5
12.590	81594.5
12.595	81594.5
12.600	81599.5
12.605	81588.5
12.610	81598.5
12.615	81590.5
12.620	81590.5
12.625	81609.5
12.630	81609.5
12.635	81588.5
12.640	81576.6
12.645	81593.5
12.650	81621.5
12.655	81629.5
12.660	81624.5
12.665	81634.5
12.670	81631.5
12.675	81628.5
12.680	81626.5
12.685	81639.5
12.690	81638.5
12.695	81636.5
12.700	81624.5
12.705	81596.5
12.710	81612.5
12.715	81643.5
12.720	81653.5
12.725	81644.5
12.730	81638.5
12.735	81638.5
12.740	81645.5
12.745	81642.5
12.750	81651.5
12.755	81656.5
12.760	81665.5
12.765	81660.5
12.770	81631.5
12.775	81626.5
12.780	81645.5
12.785	81663.5
12.790	81668.5
12.795	81661.5
12.800	81675.5
12.805	81678.5
12.810	81674.5
12.815	81673.5
12.820	81680.5
12.825	81687.5
12.830	81685.5
12.835	81655.5
12.840	81650.5
12.845	81665.5
12.850	81687.5
12.855	81684.5
12.860	81672.5
12.865	81670.5
12.870	81673.5
12.875	81666.5
12.880	81668.5
12.885	81667.5
12.890	81686.5
12.895	81685.5
12.900	81675.5
12.905	81642.5
12.910	81658.5
12.915	81681.5
12.920	81691.5
12.925	81697.5
12.930	81695.5
12.935	81699.4
12.940	81708.4
12.945	81703.4
12.950	81708.4
12.955	81709.4
12.960	81700.4
12.965	81697.4
12.970	81669.5
12.975	81675.5
12.980	81693.4
12.985	81707.4
12.990	81714.4
12.995	81692.5
13.000	81701.4
13.005	81704.4
13.010	81713.4
13.015	81707.4
13.020	81711.4
13.025	81711.4
13.030	81716.4
13.035	81689.5
13.040	81673.5
13.045	81689.5
13.050	81716.4
13.055	81716.4
13.060	81711.4
13.065	81709.4
13.070	81708.4
13.075	81694.4
13.080	81707.4
13.085	81707.4
13.090	81710.4
13.095	81713.4
13.100	81693.4
13.105	81664.5
13.110	81684.5
13.115	81707.4
13.120	81717.4
13.125	81699.4
13.130	81703.4
13.135	81701.4
13.140	81689.4
13.145	81700.4
13.150	81702.4
13.155	81693.4
13.160	81688.4
13.165	81687.5
13.170	81660.5
13.175	81654.5
13.180	81678.5
13.185	81697.4
13.190	81690.4
13.195	81669.5
13.200	81675.5
13.205	81670.5
13.210	81667.5
13.215	81676.5
13.220	81670.5
13.225	81664.5
13.230	81668.5
13.235	81633.5
13.240	81624.5
13.245	81636.5
13.250	81657.5
13.255	81646.5
13.260	81645.5
13.265	81636.5
13.270	81637.5
13.275	81628.5
13.280	81634.5
13.285	81638.5
13.290	81636.5
13.295	81631.5
13.300	81612.5
13.305	81578.5
13.310	81604.5
13.315	81610.5
13.320	81618.5
13.325	81613.5
13.330	81613.5
13.335	81608.5
13.340	81610.5
13.345	81595.5
13.350	81607.5
13.355	81604.5
13.360	81600.5
13.365	81593.5
13.370	81567.5
13.375	81570.5
13.380	81589.5
13.385	81595.5
13.390	81585.5
13.395	81589.5
13.400	81588.5
13.405	81571.5
13.410	81578.5
13.415	81580.5
13.420	81588.5
13.425	81583.5
13.430	81584.5
13.435	81549.5
13.440	81540.5
13.445	81556.5
13.450	81581.5
13.455	81587.5
13.460	81580.5
13.465	81569.5
13.470	81575.5
13.475	81586.5
13.480	81587.5
13.485	81575.5
13.490	81577.5
13.495	81572.5
13.500	81553.5
13.505	81529.6
13.510	81558.5
13.515	81566.5
13.520	81566.5
13.525	81558.5
13.530	81550.5
13.535	81551.5
13.540	81553.5
13.545	81560.5
13.550	81559.5
13.555	81565.5
13.560	81564.5
13.565	81564.5
13.570	81526.6
13.575	81526.6
13.580	81559.5
13.585	81559.5
13.590	81569.5
13.595	81562.5
13.600	81569.5
13.605	81572.5
13.610	81576.5
13.615	81584.5
13.620	81583.5
13.625	81589.5
13.630	81589.5
13.635	81550.5
13.640	81548.5
13.645	81563.5
13.650	81590.5
13.655	81593.5
13.660	81581.5
13.665	81579.5
13.670	81583.5
13.675	81580.5
13.680	81582.5
13.685	81594.5
13.690	81594.5
13.695	81607.5
13.700	81584.5
13.705	81569.5
13.710	81578.5
13.715	81612.5
13.720	81611.5
13.725	81608.5
13.730	81621.5
13.735	81613.5
13.740	81615.5
13.745	81624.5
13.750	81638.5
13.755	81617.5
13.760	81622.5
13.765	81621.5
13.770	81598.5
13.775	81606.5
13.780	81637.5
13.785	81640.5
13.790	81632.5
13.795	81636.5
13.800	81643.5
13.805	81643.5
13.810	81654.4
13.815	81649.4
13.820	81640.5
13.825	81648.4
13.830	81653.4
13.835	81622.5
13.840	81622.5
13.845	81638.5
13.850	81665.4
13.855	81655.4
13.860	81669.4
13.865	81666.4
13.870	81662.4
13.875	81662.4
13.880	81666.4
13.885	81675.4
13.890	81666.4
13.895	81667.4
13.900	81647.4
13.905	81640.4
13.910	81656.4
13.915	81678.4
13.920	81669.4
13.925	81660.4
13.930	81663.4
13.935	81662.4
13.940	81663.4
13.945	81669.4
13.950	81675.4
13.955	81661.4
13.960	81664.4
13.965	81660.4
13.970	81634.4
13.975	81643.4
13.980	81667.4
13.985	81665.4
13.990	81660.4
13.995	81669.4
14.000	81665.4
14.005	81662.4
14.010	81684.4
14.015	81673.4
14.020	81676.4
14.025	81672.4
14.030	81689.4
14.035	81645.4
14.040	81654.4
14.045	81668.4
14.050	81686.4
14.055	81680.4
14.060	81668.4
14.065	81677.4
14.070	81664.4
14.075	81661.4
14.080	81678.4
14.085	81679.4
14.090	81688.4
14.095	81682.4
14.100	81658.4
14.105	81642.4
14.110	81660.4
14.115	81676.4
14.120	81668.4
14.125	81677.4
14.130	81680.4
14.135	81678.4
14.140	81683.4
14.145	81689.4
14.150	81696.4
14.155	81688.4
14.160	81687.4
14.165	81675.4
14.170	81658.4
14.175	81664.4
14.180	81689.4
14.185	81684.4
14.190	81686.4
14.195	81677.4
14.200	81670.4
14.205	81665.4
14.210	81673.4
14.215	81670.4
14.220	81674.4
14.225	81681.4
14.230	81687.4
14.235	81652.4
14.240	81659.4
14.245	81678.4
14.250	81688.4
14.255	81682.4
14.260	81682.4
14.265	81686.4
14.270	81690.4
14.275	81676.4
14.280	81685.4
14.285	81685.4
14.290	81683.4
14.295	81679.4
14.300	81661.4
14.305	81639.4
14.310	81666.4
14.315	81678.4
14.320	81682.4
14.325	81676.4
14.330	81673.4
14.335	81666.4
14.340	81669.4
14.345	81675.4
14.350	81669.4
14.355	81677.4
14.360	81688.4
14.365	81674.4
14.370	81651.4
14.375	81645.4
14.380	81674.4
14.385	81677.4
14.390	81678.4
14.395	81676.4
14.400	81677.4
14.405	81684.4
14.410	81686.4
14.415	81680.4
14.420	81682.4
14.425	81672.4
14.430	81674.4
14.435	81633.4
14.440	81645.4
14.445	81670.4
14.450	81675.4
14.455	81672.4
14.460	81667.4
14.465	81662.4
14.470	81663.4
14.475	81663.4
14.480	81665.4
14.485	81664.4
14.490	81661.4
14.495	81666.4
14.500	81637.4
14.505	81624.4
14.510	81642.4
14.515	81676.4
14.520	81672.4
14.525	81675.4
14.530	81666.4
14.535	81674.4
14.540	81662.4
14.545	81663.4
14.550	81665.4
14.555	81665.4
14.560	81672.4
14.565	81649.4
14.570	81625.4
14.575	81639.4
14.580	81666.4
14.585	81647.4
14.590	81647.4
14.595	81648.4
14.600	81652.4
14.605	81641.4
14.610	81651.4
14.615	81644.4
14.620	81649.4
14.625	81658.4
14.630	81643.4
14.635	81607.4
14.640	81610.4
14.645	81632.4
14.650	81639.4
14.655	81646.4
14.660	81644.4
14.665	81635.4
14.670	81636.4
14.675	81623.4
14.680	81634.4
14.685	81625.4
14.690	81636.4
14.695	81628.4
14.700	81595.4
14.705	81592.4
14.710	81607.4
14.715	81608.4
14.720	81615.4
14.725	81609.4
14.730	81592.4
14.735	81591.4
14.740	81585.4
14.745	81581.4
14.750	81586.4
14.755	81587.4
14.760	81584.4
14.765	81570.5
14.770	81550.5
14.775	81555.5
14.780	81580.4
14.785	81573.5
14.790	81577.5
14.795	81569.5
14.800	81561.5
14.805	81554.5
14.810	81558.5
14.815	81554.5
14.820	81548.5
14.825	81547.5
14.830	81547.5
14.835	81515.5
14.840	81513.5
14.845	81534.5
14.850	81544.5
14.855	81532.5
14.860	81530.5
14.865	81528.5
14.870	81523.5
14.875	81531.5
14.880	81528.5
14.885	81531.5
14.890	81539.5
14.895	81544.5
14.900	81514.5
14.905	81496.5
14.910	81515.5
14.915	81541.5
14.920	81542.5
14.925	81548.5
14.930	81544.5
14.935	81553.5
14.940	81559.5
14.945	81554.5
14.950	81571.4
14.955	81574.4
14.960	81567.4
14.965	81546.5
14.970	81536.5
14.975	81546.5
14.980	81573.4
14.985	81568.4
14.990	81564.5
14.995	81567.4
15.000	81565.4
15.005	81556.5
15.010	81565.4
15.015	81583.4
15.020	81583.4
15.025	81576.4
15.030	81573.4
15.035	81552.5
15.040	81550.5
15.045	81571.4
15.050	81589.4
15.055	81583.4
15.060	81588.4
15.065	81582.4
15.070	81589.4
15.075	81591.4
15.080	81592.4
15.085	81589.4
15.090	81585.4
15.095	81582.4
15.100	81561.4
15.105	81561.4
15.110	81584.4
15.115	81590.4
15.120	81597.4
15.125	81572.4
15.130	81575.4
15.135	81575.4
15.140	81572.4
15.145	81570.4
15.150	81574.4
15.155	81577.4
15.160	81572.4
15.165	81550.5
15.170	81532.5
15.175	81541.5
15.180	81555.4
15.185	81558.4
15.190	81564.4
15.195	81552.4
15.200	81557.4
15.205	81545.4
15.210	81556.4
15.215	81550.4
15.220	81556.4
15.225	81552.4
15.230	81546.4
15.235	81504.5
15.240	81517.5
15.245	81544.4
15.250	81532.5
15.255	81530.5
15.260	81522.5
15.265	81520.5
15.270	81516.5
15.275	81513.5
15.280	81509.5
15.285	81516.5
15.290	81519.5
15.295	81512.5
15.300	81479.5
15.305	81485.5
15.310	81494.5
15.315	81506.5
15.320	81500.5
15.325	81501.5
15.330	81502.5
15.335	81497.5
15.340	81482.5
15.345	81490.5
15.350	81489.5
15.355	81484.5
15.360	81482.5
15.365	81459.5
15.370	81451.5
15.375	81460.5
15.380	81489.5
15.385	81478.5
15.390	81467.5
15.395	81462.5
15.400	81473.5
15.405	81465.5
15.410	81463.5
15.415	81459.5
15.420	81459.5
15.425	81466.5
15.430	81442.5
15.435	81420.5
15.440	81431.5
15.445	81459.5
15.450	81457.5
15.455	81455.5
15.460	81460.5
15.465	81462.5
15.470	81474.5
15.475	81467.5
15.480	81465.5
15.485	81462.5
15.490	81463.5
15.495	81459.5
15.500	81426.5
15.505	81439.5
15.510	81454.5
15.515	81464.5
15.520	81471.5
15.525	81455.5
15.530	81455.5
15.535	81449.5
15.540	81453.5
15.545	81455.5
15.550	81470.5
15.555	81464.5
15.560	81473.5
15.565	81443.5
15.570	81442.5
15.575	81441.5
15.580	81477.5
15.585	81476.5
15.590	81477.5
15.595	81479.5
15.600	81476.5
15.605	81479.5
15.610	81488.5
15.615	81487.5
15.620	81488.5
15.625	81487.5
15.630	81477.5
15.635	81460.5
15.640	81474.5
15.645	81506.5
15.650	81506.5
15.655	81498.5
15.660	81503.5
15.665	81498.5
15.670	81501.5
15.675	81501.4
15.680	81512.4
15.685	81505.5
15.690	81511.4
15.695	81515.4
15.700	81487.5
15.705	81484.5
15.710	81501.4
15.715	81518.4
15.720	81521.4
15.725	81513.4
15.730	81516.4
15.735	81515.4
15.740	81513.4
15.745	81526.4
15.750	81523.4
15.755	81512.4
15.760	81520.4
15.765	81502.4
15.770	81496.5
15.775	81512.4
15.780	81538.4
15.785	81535.4
15.790	81536.4
15.795	81526.4
15.800	81517.4
15.805	81515.4
15.810	81523.4
15.815	81525.4
15.820	81532.4
15.825	81543.4
15.830	81518.4
15.835	81497.4
15.840	81511.4
15.845	81535.4
15.850	81546.4
15.855	81552.4
15.860	81556.4
15.865	81556.4
15.870	81564.4
15.875	81552.4
15.880	81545.4
15.885	81539.4
15.890	81550.4
15.895	81536.4
15.900	81505.4
15.905	81510.4
15.910	81545.4
15.915	81543.4
15.920	81549.4
15.925	81544.4
15.930	81528.4
15.935	81531.4
15.940	81544.4
15.945	81537.4
15.950	81546.4
15.955	81532.4
15.960	81540.4
15.965	81515.4
15.970	81514.4
15.975	81525.4
15.980	81542.4
15.985	81537.4
15.990	81538.4
15.995	81533.4
16.000	81534.4
16.005	81534.4
16.010	81540.4
16.015	81544.4
16.020	81542.4
16.025	81533.4
16.030	81509.4
16.035	81484.4
16.040	81510.4
16.045	81533.4
16.050	81536.4
16.055	81516.4
16.060	81514.4
16.065	81505.4
16.070	81507.4
16.075	81517.4
16.080	81511.4
16.085	81512.4
16.090	81521.4
16.095	81511.4
16.100	81470.5
16.105	81482.4
16.110	81496.4
16.115	81508.4
16.120	81517.4
16.125	81509.4
16.130	81522.4
16.135	81519.4
16.140	81512.4
16.145	81512.4
16.150	81522.4
16.155	81525.4
16.160	81526.4
16.165	81500.4
16.170	81496.4
16.175	81506.4
16.180	81525.4
16.185	81511.4
16.190	81501.4
16.195	81499.4
16.200	81510.4
16.205	81504.4
16.210	81511.4
16.215	81496.4
16.220	81513.4
16.225	81503.4
16.230	81489.4
16.235	81467.4
16.240	81472.4
16.245	81499.4
16.250	81498.4
16.255	81495.4
16.260	81490.4
16.265	81494.4
16.270	81489.4
16.275	81495.4
16.280	81486.4
16.285	81486.4
16.290	81477.4
16.295	81469.4
16.300	81448.4
16.305	81452.4
16.310	81478.4
16.315	81477.4
16.320	81480.4
16.325	81468.4
16.330	81473.4
16.335	81451.4
16.340	81466.4
16.345	81470.4
16.350	81461.4
16.355	81462.4
16.360	81454.4
16.365	81424.5
16.370	81409.5
16.375	81433.5
16.380	81460.4
16.385	81438.4
16.390	81444.4
16.395	81439.4
16.400	81446.4
16.405	81443.4
16.410	81465.4
16.415	81469.4
16.420	81458.4
16.425	81459.4
16.430	81435.4
16.435	81418.5
16.440	81439.4
16.445	81463.4
16.450	81463.4
16.455	81449.4
16.460	81449.4
16.465	81450.4
16.470	81464.4
16.475	81451.4
16.480	81470.4
16.485	81462.4
16.490	81468.4
16.495	81459.4
16.500	81443.4
16.505	81450.4
16.510	81463.4
16.515	81477.4
16.520	81482.4
16.525	81493.4
16.530	81483.4
16.535	81484.4
16.540	81493.4
16.545	81491.4
16.550	81494.4
16.555	81484.4
16.560	81486.4
16.565	81460.4
16.570	81457.4
16.575	81471.4
16.580	81487.4
16.585	81479.4
16.590	81487.4
16.595	81471.4
16.600	81468.4
16.605	81466.4
16.610	81473.4
16.615	81455.4
16.620	81466.4
16.625	81471.4
16.630	81447.4
16.635	81420.4
16.640	81434.4
16.645	81462.4
16.650	81451.4
16.655	81446.4
16.660	81452.4
16.665	81447.4
16.670	81446.4
16.675	81445.4
16.680	81448.4
16.685	81442.4
16.690	81448.4
16.695	81440.4
16.700	81409.4
16.705	81407.4
16.710	81430.4
16.715	81429.4
16.720	81417.4
16.725	81401.5
16.730	81404.4
16.735	81398.5
16.740	81396.5
16.745	81391.5
16.750	81364.5
16.755	81360.5
16.760	81368.5
16.765	81330.5
16.770	81334.5
16.775	81350.5
16.780	81358.5
16.785	81357.5
16.790	81353.5
16.795	81337.5
16.800	81318.5
16.805	81330.5
16.810	81331.5
16.815	81326.5
16.820	81325.5
16.825	81312.5
16.830	81279.5
16.835	81260.5
16.840	81276.5
16.845	81277.5
16.850	81257.5
16.855	81254.5
16.860	81245.6
16.865	81230.6
16.870	81221.6
16.875	81213.6
16.880	81220.6
16.885	81210.6
16.890	81216.6
16.895	81210.6
16.900	81195.6
16.905	81195.6
16.910	81222.6
16.915	81228.6
16.920	81223.6
16.925	81208.6
16.930	81200.6
16.935	81213.6
16.940	81222.6
16.945	81229.6
16.950	81236.6
16.955	81245.5
16.960	81253.5
16.965	81221.6
16.970	81230.6
16.975	81245.5
16.980	81245.5
16.985	81233.6
16.990	81237.5
16.995	81249.5
17.000	81259.5
17.005	81251.5
17.010	81269.5
17.015	81257.5
17.020	81267.5
17.025	81284.5
17.030	81271.5
17.035	81259.5
17.040	81280.5
17.045	81314.5
17.050	81312.5
17.055	81309.5
17.060	81310.5
17.065	81312.5
17.070	81306.5
17.075	81319.5
17.080	81314.5
17.085	81306.5
17.090	81312.5
17.095	81293.5
17.100	81280.5
17.105	81299.5
17.110	81336.5
17.115	81331.5
17.120	81326.5
17.125	81321.5
17.130	81317.5
17.135	81313.5
17.140	81323.5
17.145	81314.5
17.150	81322.5
17.155	81324.5
17.160	81335.5
17.165	81314.5
17.170	81311.5
17.175	81338.5
17.180	81352.4
17.185	81343.5
17.190	81338.5
17.195	81335.5
17.200	81339.5
17.205	81355.4
17.210	81348.4
17.215	81341.4
17.220	81334.5
17.225	81336.5
17.230	81316.5
17.235	81295.5
17.240	81315.5
17.245	81338.4
17.250	81339.4
17.255	81330.5
17.260	81320.5
17.265	81324.5
17.270	81334.4
17.275	81315.5
17.280	81320.5
17.285	81328.4
17.290	81333.4
17.295	81315.5
17.300	81282.5
17.305	81293.5
17.310	81325.4
17.315	81326.5
17.320	81324.5
17.325	81309.5
17.330	81308.5
17.335	81309.5
17.340	81316.5
17.345	81324.4
17.350	81316.5
17.355	81309.5
17.360	81310.5
17.365	81284.5
17.370	81288.5
17.375	81312.5
17.380	81300.5
17.385	81306.5
17.390	81314.5
17.395	81310.5
17.400	81314.4
17.405	81303.5
17.410	81321.4
17.415	81318.4
17.420	81330.4
17.425	81329.4
17.430	81300.5
17.435	81282.5
17.440	81306.5
17.445	81342.4
17.450	81347.4
17.455	81336.4
17.460	81342.4
17.465	81343.4
17.470	81347.4
17.475	81346.4
17.480	81350.4
17.485	81356.4
17.490	81346.4
17.495	81330.4
17.500	81315.4
17.505	81339.4
17.510	81364.4
17.515	81349.4
17.520	81341.4
17.525	81343.4
17.530	81336.4
17.535	81321.4
17.540	81326.4
17.545	81331.4
17.550	81336.4
17.555	81326.4
17.560	81323.4
17.565	81298.4
17.570	81304.4
17.575	81324.4
17.580	81342.4
17.585	81338.4
17.590	81339.4
17.595	81337.4
17.600	81347.4
17.605	81360.4
17.610	81356.4
17.615	81353.4
17.620	81357.4
17.625	81353.4
17.630	81312.4
17.635	81325.4
17.640	81345.4
17.645	81356.4
17.650	81350.4
17.655	81347.4
17.660	81355.4
17.665	81359.4
17.670	81377.4
17.675	81367.4
17.680	81372.4
17.685	81365.4
17.690	81380.4
17.695	81355.4
17.700	81344.4
17.705	81370.4
17.710	81398.3
17.715	81390.4
17.720	81392.4
17.725	81397.3
17.730	81403.3
17.735	81409.3
17.740	81415.3
17.745	81419.3
17.750	81432.3
17.755	81427.3
17.760	81436.3
17.765	81401.3
17.770	81418.3
17.775	81442.3
17.780	81458.3
17.785	81443.3
17.790	81445.3
17.795	81454.3
17.800	81462.3
17.805	81467.3
17.810	81482.3
17.815	81482.3
17.820	81497.3
17.825	81488.3
17.830	81471.3
17.835	81462.3
17.840	81496.3
17.845	81509.2
17.850	81526.2
17.855	81522.2
17.860	81534.2
17.865	81542.2
17.870	81538.2
17.875	81537.2
17.880	81547.2
17.885	81568.2
17.890	81554.2
17.895	81539.2
17.900	81521.2
17.905	81539.2
17.910	81567.2
17.915	81549.2
17.920	81556.2
17.925	81545.2
17.930	81549.2
17.935	81545.2
17.940	81542.2
17.945	81535.2
17.950	81539.2
17.955	81538.2
17.960	81539.2
17.965	81489.2
17.970	81491.2
17.975	81528.2
17.980	81542.2
17.985	81522.2
17.990	81529.2
17.995	81531.2
18.000	81535.2
18.005	81528.2
18.010	81529.2
18.015	81512.2
18.020	81503.2
18.025	81515.2
18.030	81481.2
18.035	81482.2
18.040	81493.2
18.045	81499.2
18.050	81497.2
18.055	81485.2
18.060	81487.2
18.065	81487.2
18.070	81488.2
18.075	81481.2
18.080	81483.2
18.085	81497.2
18.090	81495.2
18.095	81472.2
18.100	81460.3
18.105	81474.2
18.110	81499.2
18.115	81490.2
18.120	81492.2
18.125	81511.2
18.130	81515.2
18.135	81510.2
18.140	81509.2
18.145	81497.2
18.150	81487.2
18.155	81486.2
18.160	81480.2
18.165	81460.2
18.170	81459.2
18.175	81478.2
18.180	81477.2
18.185	81471.2
18.190	81463.2
18.195	81459.2
18.200	81456.2
18.205	81461.2
18.210	81464.2
18.215	81462.2
18.220	81457.2
18.225	81449.2
18.230	81412.3
18.235	81419.3
18.240	81441.2
18.245	81452.2
18.250	81452.2
18.255	81434.2
18.260	81431.2
18.265	81435.2
18.270	81456.2
18.275	81452.2
18.280	81453.2
18.285	81457.2
18.290	81461.2
18.295	81427.2
18.300	81413.3
18.305	81423.2
18.310	81449.2
18.315	81440.2
18.320	81420.2
18.325	81440.2
18.330	81455.2
18.335	81444.2
18.340	81449.2
18.345	81442.2
18.350	81455.2
18.355	81441.2
18.360	81433.2
18.365	81409.2
18.370	81416.2
18.375	81434.2
18.380	81433.2
18.385	81427.2
18.390	81424.2
18.395	81416.2
18.400	81425.2
18.405	81425.2
18.410	81422.2
18.415	81418.2
18.420	81419.2
18.425	81412.2
18.430	81379.3
18.435	81367.3
18.440	81389.3
18.445	81392.2
18.450	81383.3
18.455	81366.3
18.460	81374.3
18.465	81376.3
18.470	81362.3
18.475	81347.3
18.480	81348.3
18.485	81334.3
18.490	81336.3
18.495	81308.3
18.500	81299.3
18.505	81304.3
18.510	81320.3
18.515	81302.3
18.520	81307.3
18.525	81303.3
18.530	81309.3
18.535	81309.3
18.540	81297.3
18.545	81283.3
18.550	81289.3
18.555	81292.3
18.560	81269.3
18.565	81262.3
18.570	81269.3
18.575	81282.3
18.580	81284.3
18.585	81276.3
18.590	81268.3
18.595	81272.3
18.600	81276.3
18.605	81276.3
18.610	81276.3
18.615	81275.3
18.620	81281.3
18.625	81270.3
18.630	81224.3
18.635	81210.4
18.640	81245.3
18.645	81246.3
18.650	81255.3
18.655	81258.3
18.660	81258.3
18.665	81237.3
18.670	81240.3
18.675	81246.3
18.680	81235.3
18.685	81236.3
18.690	81244.3
18.695	81195.4
18.700	81191.4
18.705	81222.3
18.710	81237.3
18.715	81234.3
18.720	81242.3
18.725	81212.3
18.730	81219.3
18.735	81218.3
18.740	81206.3
18.745	81220.3
18.750	81227.3
18.755	81227.3
18.760	81216.3
18.765	81184.4
18.770	81201.3
18.775	81216.3
18.780	81225.3
18.785	81210.3
18.790	81209.3
18.795	81191.3
18.800	81194.3
18.805	81188.3
18.810	81202.3
18.815	81190.3
18.820	81174.3
18.825	81183.3
18.830	81155.4
18.835	81161.4
18.840	81182.3
18.845	81164.3
18.850	81132.4
18.855	81112.4
18.860	81107.4
18.865	81102.4
18.870	81103.4
18.875	81098.4
18.880	81071.4
18.885	81060.4
18.890	81050.4
18.895	81024.5
18.900	81006.5
18.905	81017.5
18.910	81033.4
18.915	81041.4
18.920	81069.4
18.925	81082.4
18.930	81081.4
18.935	81054.4
18.940	81058.4
18.945	81055.4
18.950	81047.4
18.955	81042.4
18.960	81046.4
18.965	81056.4
18.970	81086.4
18.975	81122.4
18.980	81147.3
18.985	81149.3
18.990	81176.3
18.995	81189.3
19.000	81169.3
19.005	81156.3
19.010	81161.3
19.015	81170.3
19.020	81188.3
19.025	81195.3
19.030	81166.3
19.035	81159.3
19.040	81183.3
19.045	81193.3
19.050	81204.3
19.055	81205.3
19.060	81209.3
19.065	81203.3
19.070	81218.3
19.075	81211.3
19.080	81218.3
19.085	81223.3
19.090	81234.2
19.095	81198.3
19.100	81189.3
19.105	81211.3
19.110	81212.3
19.115	81194.3
19.120	81198.3
19.125	81199.3
19.130	81180.3
19.135	81174.3
19.140	81184.3
19.145	81197.3
19.150	81216.2
19.155	81210.3
19.160	81183.3
19.165	81147.3
19.170	81157.3
19.175	81174.3
19.180	81160.3
19.185	81154.3
19.190	81150.3
19.195	81111.3
19.200	81096.3
19.205	81093.3
19.210	81074.3
19.215	81058.3
19.220	81058.3
19.225	81031.4
19.230	80982.4
19.235	80969.4
19.240	80986.4
19.245	80990.4
19.250	80993.4
19.255	81002.4
19.260	80996.4
19.265	80994.4
19.270	81003.4
19.275	81015.4
19.280	81032.4
19.285	81019.4
19.290	81024.4
19.295	80988.4
19.300	80997.4
19.305	81017.4
19.310	81055.3
19.315	81062.3
19.320	81063.3
19.325	81071.3
19.330	81085.3
19.335	81086.3
19.340	81104.3
19.345	81113.3
19.350	81154.2
19.355	81164.2
19.360	81140.2
19.365	81124.3
19.370	81142.2
19.375	81168.2
19.380	81178.2
19.385	81172.2
19.390	81162.2
19.395	81147.2
19.400	81149.2
19.405	81141.2
19.410	81161.2
19.415	81164.2
19.420	81174.2
19.425	81172.2
19.430	81148.2
19.435	81144.2
19.440	81164.2
19.445	81161.2
19.450	81164.2
19.455	81148.2
19.460	81161.2
19.465	81171.2
19.470	81165.2
19.475	81155.2
19.480	81158.2
19.485	81157.2
19.490	81150.2
19.495	81106.2
19.500	81097.2
19.505	81105.2
19.510	81115.2
19.515	81091.2
19.520	81085.2
19.525	81078.2
19.530	81073.2
19.535	81071.2
19.540	81065.3
19.545	81062.3
19.550	81060.3
19.555	81070.2
19.560	81050.3
19.565	81013.3
19.570	81014.3
19.575	81030.3
19.580	81018.3
19.585	81005.3
19.590	81016.3
19.595	81011.3
19.600	81028.3
19.605	81010.3
19.610	81007.3
19.615	81000.3
19.620	81025.3
19.625	81013.3
19.630	80987.3
19.635	81001.3
19.640	81031.2
19.645	81004.3
19.650	80952.3
19.655	80915.3
19.660	80916.3
19.665	80917.3
19.670	80927.3
19.675	80934.3
19.680	80930.3
19.685	80904.3
19.690	80890.3
19.695	80861.4
19.700	80865.4
19.705	80877.3
19.710	80882.3
19.715	80861.4
19.720	80871.3
19.725	80859.3
19.730	80882.3
19.735	80887.3
19.740	80888.3
19.745	80854.3
19.750	80846.3
19.755	80860.3
19.760	80847.3
19.765	80833.3
19.770	80832.3
19.775	80825.4
19.780	80792.4
19.785	80779.4
19.790	80782.4
19.795	80779.4
19.800	80781.4
19.805	80769.4
19.810	80762.4
19.815	80754.4
19.820	80760.4
19.825	80744.4
19.830	80721.4
19.835	80727.4
19.840	80748.4
19.845	80742.4
19.850	80752.4
19.855	80766.4
19.860	80782.3
19.865	80792.3
19.870	80819.3
19.875	80836.3
19.880	80859.3
19.885	80864.3
19.890	80880.3
19.895	80859.3
19.900	80877.3
19.905	80908.2
19.910	80948.2
19.915	80956.2
19.920	80958.2
19.925	80978.2
19.930	80974.2
19.935	80968.2
19.940	80984.2
19.945	80984.2
19.950	81000.1
19.955	80990.1
19.960	80973.2
19.965	80968.2
19.970	81003.1
19.975	81022.1
19.980	81022.1
19.985	81030.1
19.990	81038.1
19.995	81032.1
20.000	81026.1
20.005	81028.1
20.010	81029.1
20.015	81021.1
20.020	81013.1
20.025	80992.1
20.030	80968.1
20.035	80978.1
20.040	80984.1
20.045	80988.1
20.050	80982.1
20.055	80961.1
20.060	80935.1
20.065	80926.1
20.070	80933.1
20.075	80927.1
20.080	80928.1
20.085	80932.1
20.090	80946.1
20.095	80916.1
20.100	80913.1
20.105	80919.1
20.110	80932.1
20.115	80918.1
20.120	80903.1
20.125	80905.1
20.130	80914.1
20.135	80917.1
20.140	80902.1
20.145	80884.1
20.150	80877.1
20.155	80864.1
20.160	80824.2
20.165	80799.2
20.170	80813.2
20.175	80818.2
20.180	80797.2
20.185	80760.2
20.190	80749.2
20.195	80743.2
20.200	80732.2
20.205	80705.2
20.210	80685.2
20.215	80662.3
20.220	80654.3
20.225	80631.3
20.230	80599.3
20.235	80574.3
20.240	80588.3
20.245	80603.3
20.250	80624.3
20.255	80624.3
20.260	80645.2
20.265	80650.2
20.270	80658.2
20.275	80653.2
20.280	80650.2
20.285	80653.2
20.290	80651.2
20.295	80598.2
20.300	80594.3
20.305	80607.2
20.310	80608.2
20.315	80582.2
20.320	80551.3
20.325	80541.3
20.330	80546.3
20.335	80527.3
20.340	80505.3
20.345	80464.3
20.350	80404.4
20.355	80367.4
20.360	80317.4
20.365	80287.4
20.370	80276.4
20.375	80274.4
20.380	80238.5
20.385	80214.5
20.390	80217.5
20.395	80222.5
20.400	80242.4
20.405	80252.4
20.410	80270.4
20.415	80267.4
20.420	80286.4
20.425	80273.4
20.430	80266.4
20.435	80294.4
20.440	80351.3
20.445	80358.3
20.450	80368.3
20.455	80342.3
20.460	80335.3
20.465	80312.3
20.470	80315.3
20.475	80306.3
20.480	80279.3
20.485	80242.4
20.490	80243.4
20.495	80226.4
20.500	80230.4
20.505	80220.4
20.510	80199.4
20.515	80181.4
20.520	80137.4
20.525	80056.5
20.530	80001.5
20.535	79960.5
20.540	79915.6
20.545	79897.6
20.550	79897.6
20.555	79866.6
20.560	79815.6
20.565	79819.6
20.570	79824.6
20.575	79803.6
20.580	79771.6
20.585	79726.7
20.590	79727.7
20.595	79771.6
20.600	79826.6
20.605	79829.6
20.610	79858.5
20.615	79876.5
20.620	79901.5
20.625	79898.5
20.630	79898.5
20.635	79894.5
20.640	79900.5
20.645	79854.5
20.650	79794.5
20.655	79759.6
20.660	79721.6
20.665	79663.6
20.670	79625.6
20.675	79555.7
20.680	79502.7
20.685	79432.8
20.690	79358.8
20.695	79303.8
20.700	79325.8
20.705	79325.8
20.710	79331.8
20.715	79301.8
20.720	79249.9
20.725	79185.9
20.730	79097.0
20.735	79018.0
20.740	79020.0
20.745	79070.0
20.750	79112.9
20.755	79145.9
20.760	79151.9
20.765	79164.8
20.770	79207.8
20.775	79253.8
20.780	79287.7
20.785	79290.7
20.790	79310.7
20.795	79312.7
20.800	79295.7
20.805	79286.7
20.810	79303.6
20.815	79311.6
20.820	79347.6
20.825	79306.6
20.830	79277.6
20.835	79274.6
20.840	79272.6
20.845	79249.6
20.850	79210.6
20.855	79155.7
20.860	79064.7
20.865	78975.8
20.870	78870.9
20.875	78755.9
20.880	78636.0
20.885	78562.1
20.890	78461.1
20.895	78374.2
20.900	78410.2
20.905	78431.1
20.910	78428.1
20.915	78490.1
20.920	78632.9
20.925	78812.8
20.930	78962.6
20.935	78972.6
20.940	78935.6
20.945	78842.7
20.950	78695.8
20.955	78435.0
20.960	78182.2
20.965	78017.3
20.970	77989.3
20.975	78066.2
20.980	78299.0
20.985	78551.8
20.990	78668.7
20.995	78800.6
21.000	78964.4
21.005	79193.2
21.010	79344.1
21.015	79439.0
21.020	79484.9
21.025	79393.0
21.030	79192.1
21.035	78998.3
21.040	78998.2
21.045	79108.1
21.050	79213.0
21.055	79308.9
21.060	79377.8
21.065	79345.8
21.070	79151.0
21.075	78994.1
21.080	78979.0
21.085	79008.0
21.090	78977.0
21.095	78773.1
21.100	78262.5
21.105	77791.8
21.110	77366.1
21.115	76719.6
21.120	76386.8
21.125	76665.6
21.130	76883.4
21.135	76629.5
21.140	76636.5
21.145	77537.8
21.150	78476.0
21.155	78320.0
21.160	77962.3
21.165	77976.2
21.170	77925.2
21.175	77684.3
21.180	77637.3
21.185	77800.1
21.190	77524.3
21.195	75972.4
21.200	73407.4
21.205	72369.2
21.210	73574.1
21.215	74118.5
21.220	73416.1
21.225	73167.2
21.230	75300.3
21.235	77137.7
21.240	77032.7
21.245	76335.2
21.250	75824.5
21.255	75398.7
21.260	75003.0
21.265	74617.3
21.270	74222.6
21.275	74128.7
21.280	74467.5
21.285	74790.4
21.290	74833.6
21.295	74762.9
21.300	74938.1
21.305	75471.0
21.310	76272.8
21.315	77135.5
21.320	77986.3
21.325	78834.1
21.330	79713.9
21.335	80580.7
21.340	81333.5
21.345	81882.3
21.350	82259.2
21.355	82491.1
21.360	82589.1
21.365	82633.1
21.370	82694.0
21.375	82715.0
21.380	82721.0
21.385	82710.0
21.390	82729.0
21.395	82724.0
21.400	82729.0
21.405	82735.0
21.410	82737.0
21.415	82740.0
21.420	82740.0
21.425	82723.0
21.430	82702.0
21.435	82722.0
21.440	82744.0
21.445	82744.0
21.450	82741.0
21.455	82735.0
21.460	82748.0
21.465	82743.0
21.470	82751.0
21.475	82744.0
21.480	82758.0
21.485	82742.0
21.490	82728.0
21.495	82711.0
21.500	82727.0
21.505	82752.0
21.510	82751.0
21.515	82748.0
21.520	82745.0
21.525	82737.0
21.530	82741.0
21.535	82740.0
21.540	82746.0
21.545	82750.0
21.550	82757.0
21.555	82743.0
21.560	82725.0
21.565	82713.0
21.570	82731.0
21.575	82751.0
21.580	82748.0
21.585	82747.0
21.590	82752.0
21.595	82749.0
21.600	82754.0
21.605	82753.0
21.610	82759.0
21.615	82757.0
21.620	82757.0
21.625	82717.0
21.630	82721.0
21.635	82738.0
21.640	82762.0
21.645	82748.0
21.650	82755.0
21.655	82742.0
21.660	82750.0
21.665	82735.0
21.670	82742.0
21.675	82746.0
21.680	82752.0
21.685	82756.0
21.690	82742.0
21.695	82719.0
21.700	82721.0
21.705	82753.0
21.710	82762.0
21.715	82754.0
21.720	82756.0
21.725	82755.0
21.730	82765.0
21.735	82761.0
21.740	82765.0
21.745	82762.0
21.750	82764.0
21.755	82751.0
21.760	82724.0
21.765	82725.0
21.770	82758.0
21.775	82752.0
21.780	82761.0
21.785	82751.0
21.790	82745.0
21.795	82748.0
21.800	82758.0
21.805	82755.0
21.810	82757.0
21.815	82753.0
21.820	82757.0
21.825	82734.0
21.830	82719.0
21.835	82731.0
21.840	82767.0
21.845	82757.0
21.850	82759.0
21.855	82761.0
21.860	82761.0
21.865	82768.0
21.870	82768.0
21.875	82760.0
21.880	82765.0
21.885	82763.0
21.890	82743.0
21.895	82725.0
21.900	82752.0
21.905	82769.0
21.910	82760.0
21.915	82759.0
21.920	82763.0
21.925	82746.0
21.930	82755.0
21.935	82760.0
21.940	82762.0
21.945	82759.0
21.950	82767.0
21.955	82752.0
21.960	82728.0
21.965	82732.0
21.970	82758.0
21.975	82766.0
21.980	82768.0
21.985	82766.0
21.990	82758.0
21.995	82765.0
22.000	82762.0
22.005	82766.0
22.010	82781.0
22.015	82764.0
22.020	82761.0
22.025	82736.0
22.030	82738.0
22.035	82751.0
22.040	82769.0
22.045	82759.0
22.050	82761.0
22.055	82751.0
22.060	82756.0
22.065	82760.0
22.070	82765.0
22.075	82759.0
22.080	82766.0
22.085	82767.0
22.090	82736.0
22.095	82732.0
22.100	82738.0
22.105	82768.0
22.110	82771.0
22.115	82758.0
22.120	82767.0
22.125	82763.0
22.130	82770.0
22.135	82776.0
22.140	82768.0
22.145	82768.0
22.150	82761.0
22.155	82758.0
22.160	82738.0
22.165	82738.0
22.170	82762.0
22.175	82774.0
22.180	82766.0
22.185	82760.0
22.190	82766.0
22.195	82752.0
22.200	82762.0
22.205	82766.0
22.210	82769.0
22.215	82759.0
22.220	82763.0
22.225	82745.0
22.230	82738.0
22.235	82750.0
22.240	82774.0
22.245	82768.0
22.250	82764.0
22.255	82763.0
22.260	82771.0
22.265	82775.0
22.270	82775.0
22.275	82780.0
22.280	82777.0
22.285	82777.0
22.290	82758.0
22.295	82738.0
22.300	82751.0
22.305	82778.0
22.310	82782.0
22.315	82758.0
22.320	82761.0
22.325	82762.0
22.330	82765.0
22.335	82756.0
22.340	82770.0
22.345	82761.0
22.350	82766.0
22.355	82769.0
22.360	82738.0
22.365	82742.0
22.370	82755.0
22.375	82776.0
22.380	82770.0
22.385	82774.0
22.390	82770.0
22.395	82785.0
22.400	82782.0
22.405	82782.0
22.410	82790.0
22.415	82778.0
22.420	82771.0
22.425	82745.0
22.430	82751.0
22.435	82760.0
22.440	82778.0
22.445	82774.0
22.450	82777.0
22.455	82770.0
22.460	82780.0
22.465	82766.0
22.470	82772.0
22.475	82773.0
22.480	82770.0
22.485	82773.0
22.490	82769.0
22.495	82735.0
22.500	82750.0
22.505	82782.0
22.510	82783.0
22.515	82781.0
22.520	82781.0
22.525	82789.0
22.530	82795.0
22.535	82783.0
22.540	82791.0
22.545	82789.0
22.550	82793.0
22.555	82769.0
22.560	82751.0
22.565	82762.0
22.570	82778.0
22.575	82787.0
22.580	82785.0
22.585	82779.0
22.590	82771.0
22.595	82777.0
22.600	82783.0
22.605	82774.0
22.610	82777.0
22.615	82778.0
22.620	82790.0
22.625	82743.0
22.630	82754.0
22.635	82770.0
22.640	82789.0
22.645	82783.0
22.650	82787.0
22.655	82778.0
22.660	82791.0
22.665	82788.0
22.670	82799.0
22.675	82794.0
22.680	82789.0
22.685	82793.0
22.690	82765.0
22.695	82760.0
22.700	82775.0
22.705	82801.0
22.710	82785.0
22.715	82784.0
22.720	82782.0
22.725	82779.0
22.730	82784.0
22.735	82785.0
22.740	82786.0
22.745	82786.0
22.750	82799.0
22.755	82772.0
22.760	82753.0
22.765	82760.0
22.770	82784.0
22.775	82780.0
22.780	82797.0
22.785	82791.0
22.790	82795.0
22.795	82797.0
22.800	82789.0
22.805	82795.0
22.810	82796.0
22.815	82800.0
22.820	82800.0
22.825	82756.0
22.830	82764.0
22.835	82789.0
22.840	82801.0
22.845	82792.0
22.850	82785.0
22.855	82785.0
22.860	82785.0
22.865	82787.0
22.870	82792.0
22.875	82789.0
22.880	82797.0
22.885	82790.0
22.890	82768.0
22.895	82753.0
22.900	82772.0
22.905	82795.0
22.910	82804.0
22.915	82799.0
22.920	82806.0
22.925	82797.0
22.930	82814.0
22.935	82797.0
22.940	82817.0
22.945	82806.0
22.950	82802.0
22.955	82788.0
22.960	82773.0
22.965	82780.0
22.970	82806.0
22.975	82805.0
22.980	82792.0
22.985	82796.0
22.990	82797.0
22.995	82797.0
23.000	82792.0
23.005	82789.0
23.010	82798.0
23.015	82797.0
23.020	82799.0
23.025	82764.0
23.030	82766.0
23.035	82777.0
23.040	82802.0
23.045	82796.0
23.050	82800.0
23.055	82798.0
23.060	82807.0
23.065	82802.0
23.070	82808.0
23.075	82809.0
23.080	82806.0
23.085	82809.0
23.090	82775.0
23.095	82773.0
23.100	82785.0
23.105	82813.0
23.110	82811.0
23.115	82796.0
23.120	82797.0
23.125	82799.0
23.130	82801.0
23.135	82799.0
23.140	82797.0
23.145	82796.0
23.150	82796.0
23.155	82789.0
23.160	82767.0
23.165	82774.0
23.170	82805.0
23.175	82804.0
23.180	82799.0
23.185	82806.0
23.190	82804.0
23.195	82807.0
23.200	82807.0
23.205	82812.0
23.210	82811.0
23.215	82800.0
23.220	82806.0
23.225	82778.0
23.230	82780.0
23.235	82797.0
23.240	82809.0
23.245	82810.0
23.250	82803.0
23.255	82801.0
23.260	82803.0
23.265	82797.0
23.270	82797.0
23.275	82800.0
23.280	82805.0
23.285	82800.0
23.290	82779.0
23.295	82769.0
23.300	82793.0
23.305	82807.0
23.310	82808.0
23.315	82808.0
23.320	82809.0
23.325	82807.0
23.330	82813.0
23.335	82794.0
23.340	82810.0
23.345	82808.0
23.350	82810.0
23.355	82788.0
23.360	82772.0
23.365	82788.0
23.370	82813.0
23.375	82804.0
23.380	82805.0
23.385	82807.0
23.390	82808.0
23.395	82796.0
23.400	82800.0
23.405	82803.0
23.410	82803.0
23.415	82804.0
23.420	82804.0
23.425	82772.0
23.430	82784.0
23.435	82794.0
23.440	82812.0
23.445	82809.0
23.450	82816.9
23.455	82806.0
23.460	82812.0
23.465	82812.0
23.470	82818.9
23.475	82808.0
23.480	82813.0
23.485	82807.0
23.490	82775.0
23.495	82767.0
23.500	82800.0
23.505	82816.9
23.510	82806.0
23.515	82797.0
23.520	82808.0
23.525	82800.0
23.530	82808.0
23.535	82802.0
23.540	82805.0
23.545	82806.0
23.550	82808.0
23.555	82781.0
23.560	82772.0
23.565	82771.0
23.570	82805.0
23.575	82806.0
23.580	82807.0
23.585	82811.0
23.590	82815.9
23.595	82806.0
23.600	82810.0
23.605	82809.0
23.610	82812.0
23.615	82810.0
23.620	82801.0
23.625	82769.0
23.630	82777.0
23.635	82798.0
23.640	82813.0
23.645	82799.0
23.650	82799.0
23.655	82800.0
23.660	82797.0
23.665	82796.0
23.670	82799.0
23.675	82797.0
23.680	82802.0
23.685	82795.0
23.690	82774.0
23.695	82762.0
23.700	82781.0
23.705	82804.0
23.710	82804.0
23.715	82805.0
23.720	82797.0
23.725	82805.0
23.730	82805.0
23.735	82805.0
23.740	82807.0
23.745	82810.0
23.750	82807.0
23.755	82775.0
23.760	82769.0
23.765	82783.0
23.770	82808.0
23.775	82812.0
23.780	82795.0
23.785	82795.0
23.790	82794.0
23.795	82788.0
23.800	82790.0
23.805	82796.0
23.810	82795.0
23.815	82794.0
23.820	82793.0
23.825	82759.0
23.830	82766.0
23.835	82791.0
23.840	82800.0
23.845	82796.0
23.850	82803.0
23.855	82794.0
23.860	82802.0
23.865	82795.0
23.870	82801.0
23.875	82792.0
23.880	82799.0
23.885	82794.0
23.890	82766.0
23.895	82771.0
23.900	82791.0
23.905	82806.0
23.910	82798.0
23.915	82788.0
23.920	82788.0
23.925	82781.0
23.930	82786.0
23.935	82790.0
23.940	82791.0
23.945	82795.0
23.950	82799.0
23.955	82767.0
23.960	82755.0
23.965	82768.0
23.970	82800.0
23.975	82797.0
23.980	82799.0
23.985	82789.0
23.990	82791.0
23.995	82785.0
24.000	82792.0
24.005	82801.0
24.010	82801.0
24.015	82798.0
24.020	82779.0
24.025	82753.0
24.030	82768.0
24.035	82800.0
24.040	82795.0
24.045	82777.0
24.050	82779.0
24.055	82770.0
24.060	82776.0
24.065	82783.0
24.070	82787.0
24.075	82781.0
24.080	82791.0
24.085	82787.0
24.090	82758.0
24.095	82747.0
24.100	82768.0
24.105	82783.0
24.110	82791.0
24.115	82784.0
24.120	82783.0
24.125	82785.0
24.130	82784.0
24.135	82775.0
24.140	82796.0
24.145	82787.0
24.150	82794.0
24.155	82760.0
24.160	82748.0
24.165	82765.0
24.170	82784.0
24.175	82779.0
24.180	82778.0
24.185	82773.0
24.190	82779.0
24.195	82766.0
24.200	82774.0
24.205	82776.0
24.210	82778.0
24.215	82776.0
24.220	82772.0
24.225	82740.0
24.230	82749.0
24.235	82773.0
24.240	82785.0
24.245	82777.0
24.250	82779.0
24.255	82781.0
24.260	82779.0
24.265	82777.0
24.270	82783.0
24.275	82783.0
24.280	82787.0
24.285	82778.0
24.290	82750.0
24.295	82750.0
24.300	82773.0
24.305	82776.0
24.310	82775.0
24.315	82766.0
24.320	82768.0
24.325	82767.0
24.330	82762.0
24.335	82765.0
24.340	82767.0
24.345	82770.0
24.350	82779.0
24.355	82743.0
24.360	82738.0
24.365	82752.0
24.370	82772.0
24.375	82768.0
24.380	82774.0
24.385	82772.0
24.390	82771.0
24.395	82771.0
24.400	82780.0
24.405	82774.0
24.410	82772.0
24.415	82771.0
24.420	82756.0
24.425	82733.0
24.430	82759.0
24.435	82767.0
24.440	82772.0
24.445	82759.0
24.450	82752.0
24.455	82762.0
24.460	82759.0
24.465	82765.0
24.470	82764.0
24.475	82767.0
24.480	82769.0
24.485	82760.0
24.490	82733.0
24.495	82728.0
24.500	82760.0
24.505	82765.0
24.510	82776.0
24.515	82770.0
24.520	82767.0
24.525	82763.0
24.530	82769.0
24.535	82772.0
24.540	82773.0
24.545	82768.0
24.550	82766.0
24.555	82741.0
24.560	82735.0
24.565	82752.0
24.570	82770.0
24.575	82755.0
24.580	82763.0
24.585	82763.0
24.590	82757.0
24.595	82756.0
24.600	82763.0
24.605	82759.0
24.610	82766.0
24.615	82762.0
24.620	82745.0
24.625	82723.0
24.630	82729.0
24.635	82757.0
24.640	82765.0
24.645	82766.0
24.650	82761.0
24.655	82765.0
24.660	82771.0
24.665	82760.0
24.670	82769.0
24.675	82758.0
24.680	82766.0
24.685	82764.0
24.690	82743.0
24.695	82738.0
24.700	82760.0
24.705	82767.0
24.710	82761.0
24.715	82753.0
24.720	82755.0
24.725	82759.0
24.730	82755.0
24.735	82757.0
24.740	82750.0
24.745	82763.0
24.750	82755.0
24.755	82732.0
24.760	82727.0
24.765	82739.0
24.770	82764.0
24.775	82753.0
24.780	82766.0
24.785	82761.0
24.790	82772.0
24.795	82767.0
24.800	82764.0
24.805	82763.0
24.810	82760.0
24.815	82761.0
24.820	82744.0
24.825	82726.0
24.830	82737.0
24.835	82760.0
24.840	82762.0
24.845	82760.0
24.850	82748.0
24.855	82756.0
24.860	82742.0
24.865	82742.0
24.870	82753.0
24.875	82753.0
24.880	82759.0
24.885	82748.0
24.890	82719.0
24.895	82710.0
24.900	82741.0
24.905	82755.0
24.910	82759.0
24.915	82761.0
24.920	82744.0
24.925	82753.0
24.930	82755.0
24.935	82758.0
24.940	82762.0
24.945	82756.0
24.950	82762.0
24.955	82726.0
24.960	82726.0
24.965	82738.0
24.970	82756.0
24.975	82745.0
24.980	82749.0
24.985	82745.0
24.990	82745.0
24.995	82742.0
25.000	82747.0
25.005	82754.0
25.010	82750.0
25.015	82750.0
25.020	82733.0
25.025	82708.0
25.030	82721.0
25.035	82745.0
25.040	82752.0
25.045	82750.0
25.050	82749.0
25.055	82741.0
25.060	82748.0
25.065	82746.0
25.070	82756.0
25.075	82753.0
25.080	82758.0
25.085	82743.0
25.090	82712.0
25.095	82721.0
25.100	82749.0
25.105	82753.0
25.110	82740.0
25.115	82741.0
25.120	82741.0
25.125	82738.0
25.130	82741.0
25.135	82750.0
25.140	82747.0
25.145	82749.0
25.150	82752.0
25.155	82707.0
25.160	82714.0
25.165	82728.0
25.170	82742.0
25.175	82749.0
25.180	82760.0
25.185	82748.0
25.190	82741.0
25.195	82746.0
25.200	82748.0
25.205	82744.0
25.210	82746.0
25.215	82751.0
25.220	82726.0
25.225	82700.0
25.230	82723.0
25.235	82753.0
25.240	82748.0
25.245	82742.0
25.250	82744.0
25.255	82739.0
25.260	82737.0
25.265	82740.0
25.270	82746.0
25.275	82743.0
25.280	82754.0
25.285	82733.0
25.290	82712.0
25.295	82699.0
25.300	82735.0
25.305	82742.0
25.310	82749.0
25.315	82743.0
25.320	82745.0
25.325	82742.0
25.330	82741.0
25.335	82749.0
25.340	82757.0
25.345	82744.0
25.350	82748.0
25.355	82712.0
25.360	82700.0
25.365	82738.0
25.370	82746.0
25.375	82741.0
25.380	82741.0
25.385	82730.0
25.390	82739.0
25.395	82728.0
25.400	82741.0
25.405	82741.0
25.410	82737.0
25.415	82739.0
25.420	82726.0
25.425	82712.0
25.430	82711.0
25.435	82743.0
25.440	82737.0
25.445	82742.0
25.450	82744.0
25.455	82741.0
25.460	82744.0
25.465	82742.0
25.470	82749.0
25.475	82746.0
25.480	82748.0
25.485	82736.0
25.490	82713.0
25.495	82721.0
25.500	82752.0
25.505	82742.0
25.510	82745.0
25.515	82736.0
25.520	82742.0
25.525	82738.0
25.530	82732.0
25.535	82739.0
25.540	82744.0
25.545	82741.0
25.550	82741.0
25.555	82702.0
25.560	82709.0
25.565	82720.0
25.570	82751.0
25.575	82741.0
25.580	82748.0
25.585	82751.0
25.590	82749.0
25.595	82756.0
25.600	82756.0
25.605	82751.0
25.610	82754.0
25.615	82747.0
25.620	82713.0
25.625	82710.0
25.630	82733.0
25.635	82751.0
25.640	82753.0
25.645	82743.0
25.650	82744.0
25.655	82733.0
25.660	82738.0
25.665	82741.0
25.670	82741.0
25.675	82741.0
25.680	82748.0
25.685	82736.0
25.690	82707.0
25.695	82718.0
25.700	82745.0
25.705	82747.0
25.710	82744.0
25.715	82753.0
25.720	82747.0
25.725	82754.0
25.730	82753.0
25.735	82762.0
25.740	82758.0
25.745	82750.0
25.750	82748.0
25.755	82719.0
25.760	82724.0
25.765	82740.0
25.770	82750.0
25.775	82742.0
25.780	82748.0
25.785	82740.0
25.790	82741.0
25.795	82737.0
25.800	82744.0
25.805	82738.0
25.810	82751.0
25.815	82754.0
25.820	82726.0
25.825	82706.0
25.830	82717.0
25.835	82744.0
25.840	82751.0
25.845	82741.0
25.850	82747.0
25.855	82747.0
25.860	82753.0
25.865	82751.0
25.870	82762.0
25.875	82755.0
25.880	82755.0
25.885	82731.0
25.890	82714.0
25.895	82725.0
25.900	82759.0
25.905	82755.0
25.910	82752.0
25.915	82736.0
25.920	82747.0
25.925	82741.0
25.930	82745.0
25.935	82745.0
25.940	82743.0
25.945	82743.0
25.950	82751.0
25.955	82715.0
25.960	82715.0
25.965	82750.0
25.970	82754.0
25.975	82752.0
25.980	82756.0
25.985	82748.0
25.990	82756.0
25.995	82746.0
26.000	82762.0
26.005	82756.0
26.010	82757.0
26.015	82746.0
26.020	82726.0
26.025	82718.0
26.030	82744.0
26.035	82755.0
26.040	82763.0
26.045	82739.0
26.050	82744.0
26.055	82745.0
26.060	82746.0
26.065	82753.0
26.070	82755.0
26.075	82740.0
26.080	82746.0
26.085	82732.0
26.090	82712.0
26.095	82721.0
26.100	82747.0
26.105	82749.0
26.110	82755.0
26.115	82755.0
26.120	82752.0
26.125	82759.0
26.130	82754.0
26.135	82765.0
26.140	82761.0
26.145	82761.0
26.150	82755.0
26.155	82717.0
26.160	82729.0
26.165	82748.0
26.170	82758.0
26.175	82750.0
26.180	82749.0
26.185	82752.0
26.190	82750.0
26.195	82751.0
26.200	82758.0
26.205	82749.0
26.210	82754.0
26.215	82747.0
26.220	82723.0
26.225	82726.0
26.230	82726.0
26.235	82749.0
26.240	82757.0
26.245	82751.0
26.250	82758.0
26.255	82758.0
26.260	82755.0
26.265	82753.0
26.270	82761.0
26.275	82761.0
26.280	82754.0
26.285	82740.0
26.290	82726.0
26.295	82732.0
26.300	82766.0
26.305	82759.0
26.310	82756.0
