PK2650 Power Data
Z Position (mm)	105.000	W Position (deg)	216.00
Preform ID	Diameter (mm)	Time Stamp	Start Time	Operator	Serial Number
Test 1	25	03-Nov-22 18:05:01	03-Nov-22 18:07:09	[no user]	266007708
Radius (mm)	Power
-26.215	83053.7
-26.210	83085.6
-26.205	83092.6
-26.200	83093.6
-26.195	83108.6
-26.190	83100.6
-26.185	83099.6
-26.180	83099.6
-26.175	83086.6
-26.170	83093.6
-26.165	83083.6
-26.160	83093.6
-26.155	83070.6
-26.150	83068.6
-26.145	83083.6
-26.140	83106.6
-26.135	83109.6
-26.130	83103.6
-26.125	83096.6
-26.120	83100.6
-26.115	83097.6
-26.110	83103.6
-26.105	83100.6
-26.100	83109.6
-26.095	83116.6
-26.090	83111.6
-26.085	83092.6
-26.080	83097.6
-26.075	83114.6
-26.070	83128.6
-26.065	83129.6
-26.060	83132.6
-26.055	83127.6
-26.050	83130.6
-26.045	83125.6
-26.040	83134.6
-26.035	83121.6
-26.030	83128.6
-26.025	83118.6
-26.020	83096.6
-26.015	83096.6
-26.010	83135.6
-26.005	83130.6
-26.000	83128.6
-25.995	83118.6
-25.990	83112.6
-25.985	83117.6
-25.980	83122.6
-25.975	83123.6
-25.970	83128.6
-25.965	83134.6
-25.960	83146.6
-25.955	83122.6
-25.950	83103.6
-25.945	83125.6
-25.940	83140.6
-25.935	83148.6
-25.930	83143.6
-25.925	83147.6
-25.920	83144.6
-25.915	83146.6
-25.910	83137.6
-25.905	83129.6
-25.900	83143.6
-25.895	83146.6
-25.890	83123.6
-25.885	83115.6
-25.880	83124.6
-25.875	83149.6
-25.870	83153.6
-25.865	83150.6
-25.860	83139.6
-25.855	83150.6
-25.850	83134.6
-25.845	83144.6
-25.840	83144.6
-25.835	83145.6
-25.830	83153.6
-25.825	83149.6
-25.820	83122.6
-25.815	83106.6
-25.810	83148.6
-25.805	83149.6
-25.800	83150.6
-25.795	83150.6
-25.790	83153.6
-25.785	83149.6
-25.780	83159.6
-25.775	83152.6
-25.770	83150.6
-25.765	83150.6
-25.760	83147.6
-25.755	83122.6
-25.750	83116.6
-25.745	83143.6
-25.740	83167.6
-25.735	83162.6
-25.730	83159.6
-25.725	83145.6
-25.720	83148.6
-25.715	83140.6
-25.710	83138.6
-25.705	83138.6
-25.700	83160.6
-25.695	83162.6
-25.690	83149.6
-25.685	83132.6
-25.680	83140.6
-25.675	83155.6
-25.670	83157.6
-25.665	83157.6
-25.660	83160.6
-25.655	83160.6
-25.650	83162.6
-25.645	83161.6
-25.640	83157.6
-25.635	83148.6
-25.630	83149.6
-25.625	83125.6
-25.620	83124.6
-25.615	83121.6
-25.610	83159.6
-25.605	83154.6
-25.600	83165.6
-25.595	83155.6
-25.590	83152.6
-25.585	83140.6
-25.580	83141.6
-25.575	83139.6
-25.570	83143.6
-25.565	83157.6
-25.560	83162.6
-25.555	83133.6
-25.550	83127.6
-25.545	83146.6
-25.540	83160.6
-25.535	83154.6
-25.530	83154.6
-25.525	83144.6
-25.520	83152.6
-25.515	83147.6
-25.510	83153.6
-25.505	83145.6
-25.500	83153.6
-25.495	83146.6
-25.490	83125.6
-25.485	83112.6
-25.480	83124.6
-25.475	83146.6
-25.470	83154.6
-25.465	83153.6
-25.460	83155.6
-25.455	83142.6
-25.450	83143.6
-25.445	83134.6
-25.440	83138.6
-25.435	83131.6
-25.430	83151.6
-25.425	83140.6
-25.420	83128.6
-25.415	83121.6
-25.410	83157.6
-25.405	83155.6
-25.400	83151.6
-25.395	83150.6
-25.390	83150.6
-25.385	83149.6
-25.380	83143.6
-25.375	83152.6
-25.370	83153.6
-25.365	83147.6
-25.360	83153.6
-25.355	83121.6
-25.350	83110.6
-25.345	83137.6
-25.340	83147.6
-25.335	83148.6
-25.330	83144.6
-25.325	83136.6
-25.320	83140.6
-25.315	83133.6
-25.310	83132.6
-25.305	83133.6
-25.300	83142.6
-25.295	83152.6
-25.290	83132.6
-25.285	83117.6
-25.280	83127.6
-25.275	83155.6
-25.270	83152.6
-25.265	83149.6
-25.260	83145.6
-25.255	83140.6
-25.250	83139.6
-25.245	83133.6
-25.240	83142.6
-25.235	83138.6
-25.230	83149.6
-25.225	83125.6
-25.220	83110.6
-25.215	83113.6
-25.210	83141.6
-25.205	83140.6
-25.200	83141.6
-25.195	83141.6
-25.190	83137.6
-25.185	83136.6
-25.180	83128.6
-25.175	83123.6
-25.170	83132.6
-25.165	83142.6
-25.160	83149.6
-25.155	83122.6
-25.150	83112.6
-25.145	83130.6
-25.140	83147.6
-25.135	83142.6
-25.130	83140.6
-25.125	83140.6
-25.120	83135.6
-25.115	83136.6
-25.110	83134.6
-25.105	83147.6
-25.100	83138.6
-25.095	83149.6
-25.090	83117.6
-25.085	83096.6
-25.080	83113.6
-25.075	83137.6
-25.070	83132.6
-25.065	83133.6
-25.060	83135.6
-25.055	83134.6
-25.050	83128.6
-25.045	83125.6
-25.040	83125.6
-25.035	83130.6
-25.030	83132.6
-25.025	83124.6
-25.020	83107.6
-25.015	83112.6
-25.010	83141.6
-25.005	83141.6
-25.000	83145.6
-24.995	83138.6
-24.990	83139.6
-24.985	83129.6
-24.980	83132.6
-24.975	83121.6
-24.970	83130.6
-24.965	83136.6
-24.960	83126.6
-24.955	83098.6
-24.950	83093.6
-24.945	83119.6
-24.940	83139.6
-24.935	83128.6
-24.930	83130.6
-24.925	83124.6
-24.920	83125.6
-24.915	83121.6
-24.910	83116.6
-24.905	83131.6
-24.900	83132.6
-24.895	83127.6
-24.890	83108.6
-24.885	83096.6
-24.880	83114.6
-24.875	83127.6
-24.870	83133.6
-24.865	83125.6
-24.860	83126.6
-24.855	83125.6
-24.850	83109.6
-24.845	83103.6
-24.840	83114.6
-24.835	83108.6
-24.830	83113.6
-24.825	83092.6
-24.820	83079.6
-24.815	83090.6
-24.810	83122.6
-24.805	83114.6
-24.800	83110.6
-24.795	83108.6
-24.790	83106.6
-24.785	83102.6
-24.780	83106.6
-24.775	83113.6
-24.770	83114.6
-24.765	83119.6
-24.760	83108.6
-24.755	83087.6
-24.750	83079.6
-24.745	83103.6
-24.740	83127.6
-24.735	83111.6
-24.730	83122.6
-24.725	83106.6
-24.720	83108.6
-24.715	83099.6
-24.710	83103.6
-24.705	83101.6
-24.700	83095.6
-24.695	83098.6
-24.690	83078.6
-24.685	83069.7
-24.680	83086.6
-24.675	83106.6
-24.670	83099.6
-24.665	83094.6
-24.660	83088.6
-24.655	83089.6
-24.650	83092.6
-24.645	83091.6
-24.640	83093.6
-24.635	83093.6
-24.630	83102.6
-24.625	83079.6
-24.620	83064.7
-24.615	83061.7
-24.610	83091.6
-24.605	83098.6
-24.600	83107.6
-24.595	83095.6
-24.590	83099.6
-24.585	83079.6
-24.580	83082.6
-24.575	83075.6
-24.570	83082.6
-24.565	83080.6
-24.560	83070.6
-24.555	83050.7
-24.550	83045.7
-24.545	83088.6
-24.540	83087.6
-24.535	83083.6
-24.530	83078.6
-24.525	83070.7
-24.520	83068.7
-24.515	83065.7
-24.510	83079.6
-24.505	83080.6
-24.500	83086.6
-24.495	83085.6
-24.490	83060.7
-24.485	83035.7
-24.480	83064.7
-24.475	83088.6
-24.470	83088.6
-24.465	83091.6
-24.460	83090.6
-24.455	83078.6
-24.450	83076.6
-24.445	83079.6
-24.440	83072.6
-24.435	83058.7
-24.430	83074.7
-24.425	83045.7
-24.420	83040.7
-24.415	83046.7
-24.410	83076.6
-24.405	83069.7
-24.400	83062.7
-24.395	83067.7
-24.390	83064.7
-24.385	83060.7
-24.380	83060.7
-24.375	83062.7
-24.370	83071.7
-24.365	83064.7
-24.360	83064.7
-24.355	83038.7
-24.350	83039.7
-24.345	83062.7
-24.340	83073.7
-24.335	83065.7
-24.330	83074.7
-24.325	83069.7
-24.320	83068.7
-24.315	83064.7
-24.310	83063.7
-24.305	83053.7
-24.300	83049.7
-24.295	83051.7
-24.290	83030.7
-24.285	83019.7
-24.280	83050.7
-24.275	83057.7
-24.270	83060.7
-24.265	83056.7
-24.260	83056.7
-24.255	83046.7
-24.250	83048.7
-24.245	83048.7
-24.240	83061.7
-24.235	83060.7
-24.230	83075.6
-24.225	83061.7
-24.220	83041.7
-24.215	83034.7
-24.210	83069.7
-24.205	83061.7
-24.200	83062.7
-24.195	83067.7
-24.190	83070.7
-24.185	83074.6
-24.180	83056.7
-24.175	83063.7
-24.170	83060.7
-24.165	83055.7
-24.160	83041.7
-24.155	83020.7
-24.150	83029.7
-24.145	83066.7
-24.140	83066.7
-24.135	83070.7
-24.130	83062.7
-24.125	83053.7
-24.120	83053.7
-24.115	83045.7
-24.110	83049.7
-24.105	83057.7
-24.100	83068.7
-24.095	83072.7
-24.090	83053.7
-24.085	83030.7
-24.080	83054.7
-24.075	83060.7
-24.070	83068.7
-24.065	83055.7
-24.060	83073.6
-24.055	83065.7
-24.050	83069.7
-24.045	83052.7
-24.040	83054.7
-24.035	83060.7
-24.030	83066.7
-24.025	83047.7
-24.020	83030.7
-24.015	83042.7
-24.010	83072.7
-24.005	83066.7
-24.000	83074.6
-23.995	83061.7
-23.990	83048.7
-23.985	83053.7
-23.980	83047.7
-23.975	83056.7
-23.970	83053.7
-23.965	83065.7
-23.960	83059.7
-23.955	83044.7
-23.950	83035.7
-23.945	83069.7
-23.940	83069.7
-23.935	83063.7
-23.930	83069.7
-23.925	83068.6
-23.920	83074.6
-23.915	83069.7
-23.910	83072.7
-23.905	83065.7
-23.900	83067.7
-23.895	83049.7
-23.890	83034.7
-23.885	83031.7
-23.880	83055.7
-23.875	83065.7
-23.870	83068.7
-23.865	83070.6
-23.860	83067.7
-23.855	83066.7
-23.850	83071.7
-23.845	83052.7
-23.840	83059.7
-23.835	83063.7
-23.830	83074.7
-23.825	83054.7
-23.820	83044.7
-23.815	83058.7
-23.810	83084.6
-23.805	83081.6
-23.800	83078.6
-23.795	83075.6
-23.790	83080.6
-23.785	83073.7
-23.780	83085.6
-23.775	83088.6
-23.770	83091.6
-23.765	83086.6
-23.760	83070.6
-23.755	83050.7
-23.750	83053.7
-23.745	83084.6
-23.740	83089.6
-23.735	83091.6
-23.730	83093.6
-23.725	83091.6
-23.720	83090.6
-23.715	83086.6
-23.710	83083.6
-23.705	83069.7
-23.700	83091.6
-23.695	83094.6
-23.690	83079.6
-23.685	83067.7
-23.680	83089.6
-23.675	83107.6
-23.670	83099.6
-23.665	83091.6
-23.660	83089.6
-23.655	83090.6
-23.650	83091.6
-23.645	83090.6
-23.640	83099.6
-23.635	83091.6
-23.630	83101.6
-23.625	83063.7
-23.620	83054.7
-23.615	83059.7
-23.610	83101.6
-23.605	83093.6
-23.600	83100.6
-23.595	83095.6
-23.590	83094.6
-23.585	83094.6
-23.580	83091.6
-23.575	83089.6
-23.570	83088.6
-23.565	83096.6
-23.560	83096.6
-23.555	83075.6
-23.550	83080.6
-23.545	83104.6
-23.540	83114.6
-23.535	83106.6
-23.530	83105.6
-23.525	83093.6
-23.520	83097.6
-23.515	83092.6
-23.510	83099.6
-23.505	83101.6
-23.500	83107.6
-23.495	83103.6
-23.490	83085.6
-23.485	83062.7
-23.480	83106.6
-23.475	83101.6
-23.470	83101.6
-23.465	83100.6
-23.460	83095.6
-23.455	83102.6
-23.450	83108.6
-23.445	83108.6
-23.440	83114.6
-23.435	83113.6
-23.430	83123.6
-23.425	83091.6
-23.420	83079.6
-23.415	83095.6
-23.410	83122.6
-23.405	83123.6
-23.400	83124.6
-23.395	83120.6
-23.390	83117.6
-23.385	83118.6
-23.380	83117.6
-23.375	83110.6
-23.370	83124.6
-23.365	83123.6
-23.360	83116.6
-23.355	83081.6
-23.350	83101.6
-23.345	83122.6
-23.340	83130.6
-23.335	83114.6
-23.330	83122.6
-23.325	83119.6
-23.320	83130.6
-23.315	83122.6
-23.310	83116.6
-23.305	83127.6
-23.300	83135.6
-23.295	83136.6
-23.290	83109.6
-23.285	83105.6
-23.280	83134.6
-23.275	83145.6
-23.270	83154.6
-23.265	83142.6
-23.260	83152.6
-23.255	83146.6
-23.250	83136.6
-23.245	83137.6
-23.240	83138.6
-23.235	83134.6
-23.230	83150.6
-23.225	83120.6
-23.220	83114.6
-23.215	83125.6
-23.210	83161.6
-23.205	83147.6
-23.200	83143.6
-23.195	83146.6
-23.190	83148.6
-23.185	83144.6
-23.180	83146.6
-23.175	83140.6
-23.170	83150.6
-23.165	83149.6
-23.160	83155.6
-23.155	83115.6
-23.150	83127.6
-23.145	83160.6
-23.140	83157.6
-23.135	83158.6
-23.130	83168.6
-23.125	83155.6
-23.120	83166.6
-23.115	83150.6
-23.110	83157.6
-23.105	83152.6
-23.100	83158.6
-23.095	83159.6
-23.090	83128.6
-23.085	83128.6
-23.080	83161.6
-23.075	83164.6
-23.070	83155.6
-23.065	83150.6
-23.060	83158.6
-23.055	83150.6
-23.050	83150.6
-23.045	83150.6
-23.040	83158.6
-23.035	83161.6
-23.030	83171.6
-23.025	83149.6
-23.020	83132.6
-23.015	83156.6
-23.010	83176.6
-23.005	83170.6
-23.000	83183.6
-22.995	83178.6
-22.990	83177.6
-22.985	83174.6
-22.980	83169.6
-22.975	83159.6
-22.970	83164.6
-22.965	83166.6
-22.960	83144.6
-22.955	83133.6
-22.950	83146.6
-22.945	83168.6
-22.940	83172.6
-22.935	83165.6
-22.930	83168.6
-22.925	83155.6
-22.920	83161.6
-22.915	83159.6
-22.910	83159.6
-22.905	83160.6
-22.900	83185.6
-22.895	83166.6
-22.890	83143.6
-22.885	83136.6
-22.880	83164.6
-22.875	83173.6
-22.870	83182.6
-22.865	83180.6
-22.860	83180.6
-22.855	83177.6
-22.850	83179.6
-22.845	83160.6
-22.840	83170.6
-22.835	83161.6
-22.830	83166.6
-22.825	83136.6
-22.820	83134.6
-22.815	83151.6
-22.810	83181.6
-22.805	83174.6
-22.800	83172.6
-22.795	83168.6
-22.790	83167.6
-22.785	83156.6
-22.780	83155.6
-22.775	83163.6
-22.770	83172.6
-22.765	83174.6
-22.760	83172.6
-22.755	83150.6
-22.750	83150.6
-22.745	83173.6
-22.740	83182.6
-22.735	83179.6
-22.730	83182.6
-22.725	83186.6
-22.720	83181.6
-22.715	83172.6
-22.710	83172.6
-22.705	83167.6
-22.700	83167.6
-22.695	83160.6
-22.690	83141.6
-22.685	83134.6
-22.680	83177.6
-22.675	83167.6
-22.670	83176.6
-22.665	83164.6
-22.660	83172.6
-22.655	83159.6
-22.650	83166.6
-22.645	83163.6
-22.640	83174.6
-22.635	83168.6
-22.630	83187.6
-22.625	83156.6
-22.620	83146.6
-22.615	83159.6
-22.610	83181.6
-22.605	83177.6
-22.600	83181.6
-22.595	83178.6
-22.590	83176.6
-22.585	83171.6
-22.580	83171.6
-22.575	83174.6
-22.570	83174.6
-22.565	83174.6
-22.560	83147.6
-22.555	83135.6
-22.550	83149.6
-22.545	83179.6
-22.540	83190.6
-22.535	83179.6
-22.530	83176.6
-22.525	83163.6
-22.520	83164.6
-22.515	83163.6
-22.510	83169.6
-22.505	83174.6
-22.500	83183.6
-22.495	83179.6
-22.490	83156.6
-22.485	83141.6
-22.480	83174.6
-22.475	83180.6
-22.470	83186.6
-22.465	83175.6
-22.460	83180.6
-22.455	83176.6
-22.450	83181.6
-22.445	83173.6
-22.440	83177.6
-22.435	83168.6
-22.430	83181.6
-22.425	83151.6
-22.420	83144.6
-22.415	83162.6
-22.410	83189.5
-22.405	83177.6
-22.400	83177.6
-22.395	83182.6
-22.390	83172.6
-22.385	83167.6
-22.380	83177.6
-22.375	83178.6
-22.370	83188.6
-22.365	83178.6
-22.360	83176.6
-22.355	83153.6
-22.350	83154.6
-22.345	83185.6
-22.340	83191.5
-22.335	83186.6
-22.330	83180.6
-22.325	83181.6
-22.320	83191.6
-22.315	83182.6
-22.310	83178.6
-22.305	83183.6
-22.300	83176.6
-22.295	83161.6
-22.290	83149.6
-22.285	83141.6
-22.280	83192.5
-22.275	83186.6
-22.270	83179.6
-22.265	83160.6
-22.260	83169.6
-22.255	83165.6
-22.250	83169.6
-22.245	83167.6
-22.240	83178.6
-22.235	83181.6
-22.230	83185.6
-22.225	83160.6
-22.220	83149.6
-22.215	83167.6
-22.210	83185.6
-22.205	83184.6
-22.200	83180.6
-22.195	83183.6
-22.190	83183.6
-22.185	83180.6
-22.180	83183.6
-22.175	83179.6
-22.170	83178.6
-22.165	83167.6
-22.160	83151.6
-22.155	83132.6
-22.150	83150.6
-22.145	83177.6
-22.140	83177.6
-22.135	83173.6
-22.130	83160.6
-22.125	83161.6
-22.120	83163.6
-22.115	83164.6
-22.110	83168.6
-22.105	83170.6
-22.100	83183.6
-22.095	83168.6
-22.090	83156.6
-22.085	83135.6
-22.080	83187.6
-22.075	83168.6
-22.070	83178.6
-22.065	83174.6
-22.060	83176.6
-22.055	83176.6
-22.050	83167.6
-22.045	83170.6
-22.040	83165.6
-22.035	83166.6
-22.030	83160.6
-22.025	83132.6
-22.020	83122.6
-22.015	83162.6
-22.010	83174.6
-22.005	83162.6
-22.000	83164.6
-21.995	83157.6
-21.990	83158.6
-21.985	83157.6
-21.980	83155.6
-21.975	83152.6
-21.970	83159.6
-21.965	83165.6
-21.960	83152.6
-21.955	83138.6
-21.950	83142.6
-21.945	83164.6
-21.940	83168.6
-21.935	83170.6
-21.930	83158.6
-21.925	83167.6
-21.920	83168.6
-21.915	83160.6
-21.910	83162.6
-21.905	83168.6
-21.900	83154.6
-21.895	83134.6
-21.890	83129.6
-21.885	83130.6
-21.880	83165.6
-21.875	83163.6
-21.870	83161.6
-21.865	83152.6
-21.860	83152.6
-21.855	83143.6
-21.850	83149.6
-21.845	83143.6
-21.840	83151.6
-21.835	83157.6
-21.830	83165.6
-21.825	83135.6
-21.820	83129.6
-21.815	83151.6
-21.810	83165.6
-21.805	83160.6
-21.800	83158.6
-21.795	83151.6
-21.790	83156.6
-21.785	83148.6
-21.780	83158.6
-21.775	83147.6
-21.770	83158.6
-21.765	83146.6
-21.760	83123.6
-21.755	83110.6
-21.750	83122.6
-21.745	83153.6
-21.740	83151.6
-21.735	83147.6
-21.730	83145.6
-21.725	83144.6
-21.720	83147.6
-21.715	83131.6
-21.710	83133.6
-21.705	83138.6
-21.700	83148.6
-21.695	83134.6
-21.690	83119.6
-21.685	83120.6
-21.680	83155.6
-21.675	83160.6
-21.670	83156.6
-21.665	83142.6
-21.660	83139.6
-21.655	83140.6
-21.650	83140.6
-21.645	83139.6
-21.640	83151.6
-21.635	83142.6
-21.630	83130.6
-21.625	83116.6
-21.620	83100.6
-21.615	83126.6
-21.610	83138.6
-21.605	83122.6
-21.600	83141.6
-21.595	83126.6
-21.590	83138.6
-21.585	83120.6
-21.580	83133.6
-21.575	83128.6
-21.570	83129.6
-21.565	83135.6
-21.560	83120.6
-21.555	83101.6
-21.550	83125.6
-21.545	83139.6
-21.540	83146.6
-21.535	83135.6
-21.530	83125.6
-21.525	83121.6
-21.520	83139.6
-21.515	83123.6
-21.510	83132.6
-21.505	83137.6
-21.500	83136.6
-21.495	83114.6
-21.490	83099.6
-21.485	83096.6
-21.480	83134.6
-21.475	83124.6
-21.470	83127.6
-21.465	83125.6
-21.460	83128.6
-21.455	83122.6
-21.450	83128.6
-21.445	83122.6
-21.440	83121.6
-21.435	83131.6
-21.430	83128.6
-21.425	83097.6
-21.420	83087.6
-21.415	83128.6
-21.410	83143.6
-21.405	83143.6
-21.400	83130.6
-21.395	83121.6
-21.390	83120.6
-21.385	83114.6
-21.380	83116.6
-21.375	83125.6
-21.370	83130.6
-21.365	83124.6
-21.360	83100.6
-21.355	83072.6
-21.350	83103.6
-21.345	83106.6
-21.340	83105.6
-21.335	83107.6
-21.330	83104.6
-21.325	83093.6
-21.320	83088.6
-21.315	83066.7
-21.310	83043.7
-21.305	82999.7
-21.300	82946.8
-21.295	82844.9
-21.290	82712.1
-21.285	82540.2
-21.280	82360.5
-21.275	82067.8
-21.270	81696.2
-21.265	81233.7
-21.260	80772.3
-21.255	80312.8
-21.250	79846.4
-21.245	79392.0
-21.240	78850.7
-21.235	78251.5
-21.230	77624.3
-21.225	77005.2
-21.220	76383.0
-21.215	75655.9
-21.210	74750.9
-21.205	73840.9
-21.200	73420.5
-21.195	73232.0
-21.190	72793.4
-21.185	72935.2
-21.180	73687.6
-21.175	73657.4
-21.170	73775.2
-21.165	74661.5
-21.160	75673.7
-21.155	76525.0
-21.150	76874.6
-21.145	76314.0
-21.140	75007.8
-21.135	74706.9
-21.130	75600.2
-21.125	75923.8
-21.120	75537.0
-21.115	76264.5
-21.110	76232.4
-21.105	74709.4
-21.100	75399.9
-21.095	77208.5
-21.090	77917.0
-21.085	78148.7
-21.080	78039.8
-21.075	77599.0
-21.070	76410.9
-21.065	75430.5
-21.060	76359.8
-21.055	77270.2
-21.050	77397.1
-21.045	77832.7
-21.040	78511.1
-21.035	78506.1
-21.030	77515.7
-21.025	75847.9
-21.020	75406.2
-21.015	77072.0
-21.010	78153.2
-21.005	76665.3
-21.000	74695.7
-20.995	75182.3
-20.990	77472.5
-20.985	78604.7
-20.980	78484.8
-20.975	77935.2
-20.970	77826.2
-20.965	78020.1
-20.960	77822.2
-20.955	77641.3
-20.950	78119.9
-20.945	78735.4
-20.940	79003.2
-20.935	78900.3
-20.930	78725.4
-20.925	78599.4
-20.920	78521.5
-20.915	78489.5
-20.910	78427.5
-20.905	78488.5
-20.900	78907.1
-20.895	79322.8
-20.890	79468.7
-20.885	79391.7
-20.880	79157.9
-20.875	78665.3
-20.870	78316.5
-20.865	78351.5
-20.860	78587.3
-20.855	78866.0
-20.850	79042.9
-20.845	79020.9
-20.840	79022.9
-20.835	79136.8
-20.830	79259.7
-20.825	79294.6
-20.820	79255.7
-20.815	79201.7
-20.810	79160.7
-20.805	79093.7
-20.800	79124.7
-20.795	79200.6
-20.790	79288.6
-20.785	79385.5
-20.780	79419.4
-20.775	79390.5
-20.770	79343.5
-20.765	79260.5
-20.760	79149.6
-20.755	79080.6
-20.750	78995.7
-20.745	78871.8
-20.740	78822.8
-20.735	78899.7
-20.730	78964.7
-20.725	79028.6
-20.720	79115.6
-20.715	79182.5
-20.710	79248.4
-20.705	79261.4
-20.700	79230.4
-20.695	79162.5
-20.690	79172.4
-20.685	79238.4
-20.680	79353.3
-20.675	79415.2
-20.670	79435.2
-20.665	79460.2
-20.660	79538.1
-20.655	79585.1
-20.650	79663.0
-20.645	79721.0
-20.640	79759.9
-20.635	79823.9
-20.630	79852.9
-20.625	79848.8
-20.620	79869.8
-20.615	79913.8
-20.610	79949.7
-20.605	79977.7
-20.600	80004.7
-20.595	80028.7
-20.590	80038.7
-20.585	80016.7
-20.580	80000.7
-20.575	79977.7
-20.570	79943.7
-20.565	79917.7
-20.560	79878.7
-20.555	79858.7
-20.550	79873.7
-20.545	79916.7
-20.540	79957.6
-20.535	79968.6
-20.530	79981.6
-20.525	80007.6
-20.520	79988.6
-20.515	79957.6
-20.510	79964.6
-20.505	79988.6
-20.500	80017.6
-20.495	79980.6
-20.490	79950.6
-20.485	79932.6
-20.480	79969.6
-20.475	79976.6
-20.470	80015.5
-20.465	80089.5
-20.460	80162.4
-20.455	80210.4
-20.450	80286.3
-20.445	80294.3
-20.440	80322.3
-20.435	80368.2
-20.430	80388.2
-20.425	80377.2
-20.420	80400.2
-20.415	80450.1
-20.410	80456.1
-20.405	80470.1
-20.400	80485.1
-20.395	80477.1
-20.390	80473.1
-20.385	80479.1
-20.380	80483.1
-20.375	80466.1
-20.370	80479.1
-20.365	80490.1
-20.360	80487.1
-20.355	80459.1
-20.350	80480.1
-20.345	80476.1
-20.340	80455.1
-20.335	80445.1
-20.330	80440.1
-20.325	80447.1
-20.320	80462.1
-20.315	80447.1
-20.310	80435.1
-20.305	80401.1
-20.300	80379.1
-20.295	80350.1
-20.290	80364.1
-20.285	80353.1
-20.280	80359.1
-20.275	80346.1
-20.270	80340.1
-20.265	80313.1
-20.260	80297.1
-20.255	80258.2
-20.250	80243.2
-20.245	80240.2
-20.240	80255.2
-20.235	80257.1
-20.230	80287.1
-20.225	80306.1
-20.220	80336.1
-20.215	80385.0
-20.210	80429.0
-20.205	80458.0
-20.200	80499.9
-20.195	80529.9
-20.190	80556.9
-20.185	80582.9
-20.180	80626.8
-20.175	80642.8
-20.170	80667.8
-20.165	80678.8
-20.160	80674.8
-20.155	80667.8
-20.150	80713.7
-20.145	80724.7
-20.140	80726.7
-20.135	80731.7
-20.130	80722.7
-20.125	80686.7
-20.120	80671.8
-20.115	80670.8
-20.110	80674.8
-20.105	80656.8
-20.100	80638.8
-20.095	80619.8
-20.090	80619.8
-20.085	80644.8
-20.080	80681.7
-20.075	80674.7
-20.070	80660.7
-20.065	80676.7
-20.060	80688.7
-20.055	80698.7
-20.050	80709.7
-20.045	80726.7
-20.040	80738.7
-20.035	80742.7
-20.030	80719.7
-20.025	80710.7
-20.020	80718.7
-20.015	80751.6
-20.010	80762.6
-20.005	80767.6
-20.000	80777.6
-19.995	80801.6
-19.990	80841.6
-19.985	80852.5
-19.980	80872.5
-19.975	80896.5
-19.970	80910.5
-19.965	80923.5
-19.960	80927.5
-19.955	80933.5
-19.950	80982.4
-19.945	80997.4
-19.940	81018.4
-19.935	81010.4
-19.930	81003.4
-19.925	80989.4
-19.920	80989.4
-19.915	80984.4
-19.910	80999.4
-19.905	81008.4
-19.900	81012.4
-19.895	80979.4
-19.890	80971.4
-19.885	80980.4
-19.880	81000.4
-19.875	80993.4
-19.870	80988.4
-19.865	80997.4
-19.860	81006.4
-19.855	81017.4
-19.850	81026.4
-19.845	81039.3
-19.840	81048.3
-19.835	81041.3
-19.830	81027.3
-19.825	80991.4
-19.820	80989.4
-19.815	81007.4
-19.810	81024.3
-19.805	81006.3
-19.800	81013.3
-19.795	80993.4
-19.790	80970.4
-19.785	80943.4
-19.780	80944.4
-19.775	80919.4
-19.770	80905.4
-19.765	80899.4
-19.760	80872.4
-19.755	80857.4
-19.750	80869.4
-19.745	80858.4
-19.740	80843.4
-19.735	80812.5
-19.730	80818.5
-19.725	80804.5
-19.720	80801.5
-19.715	80772.5
-19.710	80760.5
-19.705	80744.5
-19.700	80751.5
-19.695	80740.5
-19.690	80736.5
-19.685	80727.5
-19.680	80751.5
-19.675	80757.5
-19.670	80764.5
-19.665	80776.5
-19.660	80778.5
-19.655	80785.4
-19.650	80784.4
-19.645	80780.4
-19.640	80782.4
-19.635	80788.4
-19.630	80779.4
-19.625	80754.5
-19.620	80761.4
-19.615	80783.4
-19.610	80777.4
-19.605	80781.4
-19.600	80780.4
-19.595	80767.4
-19.590	80770.4
-19.585	80770.4
-19.580	80782.4
-19.575	80784.4
-19.570	80793.4
-19.565	80780.4
-19.560	80758.4
-19.555	80729.4
-19.550	80752.4
-19.545	80759.4
-19.540	80773.4
-19.535	80780.4
-19.530	80800.4
-19.525	80798.4
-19.520	80785.4
-19.515	80761.4
-19.510	80744.4
-19.505	80743.4
-19.500	80761.4
-19.495	80730.4
-19.490	80719.4
-19.485	80729.4
-19.480	80762.4
-19.475	80768.4
-19.470	80779.4
-19.465	80784.4
-19.460	80799.4
-19.455	80811.4
-19.450	80833.3
-19.445	80858.3
-19.440	80911.3
-19.435	80952.2
-19.430	80959.2
-19.425	80921.3
-19.420	80907.3
-19.415	80936.2
-19.410	80965.2
-19.405	80990.2
-19.400	81002.2
-19.395	81017.2
-19.390	81035.2
-19.385	81023.2
-19.380	81048.2
-19.375	81073.1
-19.370	81091.1
-19.365	81093.1
-19.360	81092.1
-19.355	81098.1
-19.350	81142.1
-19.345	81132.1
-19.340	81121.1
-19.335	81111.1
-19.330	81113.1
-19.325	81093.1
-19.320	81096.1
-19.315	81084.1
-19.310	81085.1
-19.305	81080.1
-19.300	81084.1
-19.295	81053.1
-19.290	81020.1
-19.285	81009.2
-19.280	81020.1
-19.275	81015.1
-19.270	81008.2
-19.265	81015.2
-19.260	81008.1
-19.255	81002.2
-19.250	81003.2
-19.245	80985.2
-19.240	80960.2
-19.235	80947.2
-19.230	80925.2
-19.225	80914.2
-19.220	80931.2
-19.215	80986.2
-19.210	81005.1
-19.205	80978.2
-19.200	80973.2
-19.195	80964.2
-19.190	81002.1
-19.185	81026.1
-19.180	81038.1
-19.175	81046.1
-19.170	81063.1
-19.165	81081.1
-19.160	81078.1
-19.155	81101.1
-19.150	81170.0
-19.145	81204.0
-19.140	81230.0
-19.135	81249.9
-19.130	81261.9
-19.125	81268.9
-19.120	81301.9
-19.115	81305.9
-19.110	81318.9
-19.105	81319.9
-19.100	81343.9
-19.095	81316.9
-19.090	81328.9
-19.085	81353.9
-19.080	81382.8
-19.075	81381.8
-19.070	81370.8
-19.065	81361.8
-19.060	81349.8
-19.055	81337.9
-19.050	81337.9
-19.045	81324.9
-19.040	81328.9
-19.035	81328.9
-19.030	81314.9
-19.025	81283.9
-19.020	81272.9
-19.015	81282.9
-19.010	81260.9
-19.005	81237.9
-19.000	81250.9
-18.995	81234.9
-18.990	81221.9
-18.985	81201.9
-18.980	81201.9
-18.975	81189.0
-18.970	81174.0
-18.965	81156.0
-18.960	81153.0
-18.955	81164.0
-18.950	81205.9
-18.945	81212.9
-18.940	81207.9
-18.935	81198.9
-18.930	81188.9
-18.925	81172.0
-18.920	81175.0
-18.915	81181.9
-18.910	81190.9
-18.905	81202.9
-18.900	81209.9
-18.895	81192.9
-18.890	81184.9
-18.885	81200.9
-18.880	81225.9
-18.875	81220.9
-18.870	81209.9
-18.865	81193.9
-18.860	81182.9
-18.855	81181.9
-18.850	81182.9
-18.845	81177.9
-18.840	81173.9
-18.835	81180.9
-18.830	81165.9
-18.825	81147.9
-18.820	81179.9
-18.815	81215.9
-18.810	81232.9
-18.805	81213.9
-18.800	81217.9
-18.795	81207.9
-18.790	81201.9
-18.785	81180.9
-18.780	81184.9
-18.775	81190.9
-18.770	81196.9
-18.765	81184.9
-18.760	81170.9
-18.755	81152.9
-18.750	81176.9
-18.745	81171.9
-18.740	81178.9
-18.735	81166.9
-18.730	81176.9
-18.725	81178.9
-18.720	81201.9
-18.715	81197.9
-18.710	81199.9
-18.705	81184.9
-18.700	81192.9
-18.695	81172.9
-18.690	81167.9
-18.685	81176.9
-18.680	81191.9
-18.675	81193.9
-18.670	81211.9
-18.665	81231.8
-18.660	81260.8
-18.655	81251.8
-18.650	81279.8
-18.645	81306.8
-18.640	81328.8
-18.635	81349.8
-18.630	81356.7
-18.625	81336.8
-18.620	81364.7
-18.615	81402.7
-18.610	81438.7
-18.605	81428.7
-18.600	81430.7
-18.595	81417.7
-18.590	81420.7
-18.585	81417.7
-18.580	81434.7
-18.575	81448.7
-18.570	81466.7
-18.565	81450.7
-18.560	81439.7
-18.555	81441.7
-18.550	81477.6
-18.545	81477.6
-18.540	81471.6
-18.535	81475.6
-18.530	81491.6
-18.525	81497.6
-18.520	81512.6
-18.515	81515.6
-18.510	81524.6
-18.505	81513.6
-18.500	81532.6
-18.495	81511.6
-18.490	81513.6
-18.485	81548.6
-18.480	81567.6
-18.475	81568.6
-18.470	81568.6
-18.465	81571.6
-18.460	81581.6
-18.455	81567.6
-18.450	81561.6
-18.445	81556.6
-18.440	81561.6
-18.435	81565.6
-18.430	81552.6
-18.425	81547.6
-18.420	81573.6
-18.415	81576.6
-18.410	81580.5
-18.405	81570.6
-18.400	81585.5
-18.395	81571.6
-18.390	81581.5
-18.385	81579.5
-18.380	81572.5
-18.375	81568.5
-18.370	81578.5
-18.365	81559.6
-18.360	81540.6
-18.355	81532.6
-18.350	81576.5
-18.345	81575.5
-18.340	81587.5
-18.335	81568.5
-18.330	81562.5
-18.325	81559.6
-18.320	81563.5
-18.315	81569.5
-18.310	81580.5
-18.305	81578.5
-18.300	81577.5
-18.295	81557.5
-18.290	81570.5
-18.285	81588.5
-18.280	81590.5
-18.275	81583.5
-18.270	81571.5
-18.265	81580.5
-18.260	81582.5
-18.255	81582.5
-18.250	81584.5
-18.245	81590.5
-18.240	81599.5
-18.235	81587.5
-18.230	81547.5
-18.225	81535.6
-18.220	81562.5
-18.215	81591.5
-18.210	81599.5
-18.205	81597.5
-18.200	81608.5
-18.195	81603.5
-18.190	81613.5
-18.185	81609.5
-18.180	81608.5
-18.175	81611.5
-18.170	81617.5
-18.165	81586.5
-18.160	81580.5
-18.155	81591.5
-18.150	81629.5
-18.145	81609.5
-18.140	81614.5
-18.135	81613.5
-18.130	81613.5
-18.125	81618.5
-18.120	81621.5
-18.115	81610.5
-18.110	81619.5
-18.105	81614.5
-18.100	81611.5
-18.095	81571.5
-18.090	81543.5
-18.085	81563.5
-18.080	81576.5
-18.075	81568.5
-18.070	81549.5
-18.065	81545.5
-18.060	81540.5
-18.055	81535.5
-18.050	81521.5
-18.045	81495.6
-18.040	81494.6
-18.035	81484.6
-18.030	81463.6
-18.025	81442.6
-18.020	81446.6
-18.015	81460.6
-18.010	81432.6
-18.005	81408.6
-18.000	81421.6
-17.995	81425.6
-17.990	81426.6
-17.985	81415.6
-17.980	81403.6
-17.975	81391.6
-17.970	81395.6
-17.965	81364.6
-17.960	81359.6
-17.955	81347.7
-17.950	81386.6
-17.945	81372.6
-17.940	81380.6
-17.935	81368.6
-17.930	81368.6
-17.925	81367.6
-17.920	81377.6
-17.915	81383.6
-17.910	81399.6
-17.905	81404.6
-17.900	81417.6
-17.895	81392.6
-17.890	81389.6
-17.885	81428.6
-17.880	81440.6
-17.875	81445.6
-17.870	81457.6
-17.865	81464.6
-17.860	81464.6
-17.855	81473.5
-17.850	81479.5
-17.845	81487.5
-17.840	81503.5
-17.835	81509.5
-17.830	81495.5
-17.825	81487.5
-17.820	81502.5
-17.815	81534.5
-17.810	81537.5
-17.805	81540.5
-17.800	81548.5
-17.795	81549.5
-17.790	81549.5
-17.785	81537.5
-17.780	81550.5
-17.775	81546.5
-17.770	81552.5
-17.765	81528.5
-17.760	81522.5
-17.755	81522.5
-17.750	81559.5
-17.745	81559.5
-17.740	81566.5
-17.735	81550.5
-17.730	81542.5
-17.725	81538.5
-17.720	81557.5
-17.715	81558.5
-17.710	81565.5
-17.705	81572.5
-17.700	81573.5
-17.695	81546.5
-17.690	81550.5
-17.685	81561.5
-17.680	81576.5
-17.675	81581.4
-17.670	81580.4
-17.665	81582.4
-17.660	81585.4
-17.655	81593.4
-17.650	81606.4
-17.645	81607.4
-17.640	81609.4
-17.635	81604.4
-17.630	81584.4
-17.625	81580.4
-17.620	81609.4
-17.615	81624.4
-17.610	81648.4
-17.605	81638.4
-17.600	81637.4
-17.595	81625.4
-17.590	81634.4
-17.585	81642.4
-17.580	81641.4
-17.575	81645.4
-17.570	81673.4
-17.565	81653.4
-17.560	81631.4
-17.555	81638.4
-17.550	81672.4
-17.545	81672.4
-17.540	81682.4
-17.535	81672.4
-17.530	81663.4
-17.525	81656.4
-17.520	81662.4
-17.515	81655.4
-17.510	81672.4
-17.505	81661.4
-17.500	81642.4
-17.495	81609.4
-17.490	81603.4
-17.485	81628.4
-17.480	81637.4
-17.475	81638.4
-17.470	81640.4
-17.465	81621.4
-17.460	81608.4
-17.455	81602.4
-17.450	81616.4
-17.445	81622.4
-17.440	81631.4
-17.435	81638.4
-17.430	81616.4
-17.425	81614.4
-17.420	81627.4
-17.415	81638.4
-17.410	81645.4
-17.405	81649.4
-17.400	81650.4
-17.395	81640.4
-17.390	81654.4
-17.385	81648.4
-17.380	81648.4
-17.375	81632.4
-17.370	81655.4
-17.365	81640.4
-17.360	81632.4
-17.355	81623.4
-17.350	81661.3
-17.345	81669.3
-17.340	81678.3
-17.335	81687.3
-17.330	81697.3
-17.325	81686.3
-17.320	81690.3
-17.315	81686.3
-17.310	81691.3
-17.305	81691.3
-17.300	81706.3
-17.295	81687.3
-17.290	81680.3
-17.285	81694.3
-17.280	81710.3
-17.275	81705.3
-17.270	81717.3
-17.265	81709.3
-17.260	81707.3
-17.255	81709.3
-17.250	81710.3
-17.245	81714.3
-17.240	81727.3
-17.235	81724.3
-17.230	81714.3
-17.225	81700.3
-17.220	81728.3
-17.215	81745.3
-17.210	81756.3
-17.205	81753.3
-17.200	81757.3
-17.195	81759.3
-17.190	81776.2
-17.185	81761.3
-17.180	81766.2
-17.175	81765.2
-17.170	81785.2
-17.165	81771.2
-17.160	81753.3
-17.155	81768.2
-17.150	81806.2
-17.145	81800.2
-17.140	81807.2
-17.135	81793.2
-17.130	81791.2
-17.125	81784.2
-17.120	81781.2
-17.115	81790.2
-17.110	81797.2
-17.105	81789.2
-17.100	81787.2
-17.095	81767.2
-17.090	81769.2
-17.085	81805.2
-17.080	81804.2
-17.075	81791.2
-17.070	81794.2
-17.065	81782.2
-17.060	81778.2
-17.055	81769.2
-17.050	81754.2
-17.045	81753.2
-17.040	81767.2
-17.035	81759.2
-17.030	81738.3
-17.025	81732.3
-17.020	81759.2
-17.015	81772.2
-17.010	81787.2
-17.005	81774.2
-17.000	81770.2
-16.995	81759.2
-16.990	81769.2
-16.985	81768.2
-16.980	81771.2
-16.975	81790.2
-16.970	81785.2
-16.965	81763.2
-16.960	81749.2
-16.955	81766.2
-16.950	81788.2
-16.945	81784.2
-16.940	81783.2
-16.935	81781.2
-16.930	81773.2
-16.925	81780.2
-16.920	81789.2
-16.915	81799.2
-16.910	81804.2
-16.905	81805.2
-16.900	81801.2
-16.895	81780.2
-16.890	81776.2
-16.885	81810.2
-16.880	81808.2
-16.875	81803.2
-16.870	81809.2
-16.865	81808.2
-16.860	81801.2
-16.855	81802.2
-16.850	81803.2
-16.845	81799.2
-16.840	81803.2
-16.835	81790.2
-16.830	81779.2
-16.825	81762.2
-16.820	81788.2
-16.815	81795.2
-16.810	81794.2
-16.805	81787.2
-16.800	81796.2
-16.795	81792.2
-16.790	81805.2
-16.785	81797.2
-16.780	81797.2
-16.775	81788.2
-16.770	81801.2
-16.765	81764.2
-16.760	81761.2
-16.755	81764.2
-16.750	81795.2
-16.745	81792.2
-16.740	81790.2
-16.735	81780.2
-16.730	81774.2
-16.725	81756.2
-16.720	81749.2
-16.715	81746.2
-16.710	81746.2
-16.705	81734.2
-16.700	81707.3
-16.695	81675.3
-16.690	81685.3
-16.685	81709.2
-16.680	81718.2
-16.675	81704.2
-16.670	81708.2
-16.665	81710.2
-16.660	81707.3
-16.655	81705.3
-16.650	81692.3
-16.645	81693.3
-16.640	81709.2
-16.635	81709.2
-16.630	81683.3
-16.625	81668.3
-16.620	81701.2
-16.615	81723.2
-16.610	81731.2
-16.605	81727.2
-16.600	81725.2
-16.595	81698.2
-16.590	81700.2
-16.585	81696.2
-16.580	81700.2
-16.575	81692.3
-16.570	81708.2
-16.565	81679.3
-16.560	81673.3
-16.555	81680.3
-16.550	81718.2
-16.545	81718.2
-16.540	81710.2
-16.535	81704.2
-16.530	81700.2
-16.525	81695.2
-16.520	81686.2
-16.515	81669.3
-16.510	81681.2
-16.505	81685.2
-16.500	81674.3
-16.495	81650.3
-16.490	81655.3
-16.485	81688.2
-16.480	81690.2
-16.475	81676.2
-16.470	81680.2
-16.465	81674.2
-16.460	81662.3
-16.455	81661.3
-16.450	81663.3
-16.445	81666.3
-16.440	81670.2
-16.435	81669.3
-16.430	81646.3
-16.425	81634.3
-16.420	81669.3
-16.415	81674.2
-16.410	81675.2
-16.405	81655.3
-16.400	81659.3
-16.395	81657.3
-16.390	81656.3
-16.385	81648.3
-16.380	81653.3
-16.375	81651.3
-16.370	81660.3
-16.365	81640.3
-16.360	81631.3
-16.355	81648.3
-16.350	81686.2
-16.345	81682.2
-16.340	81692.2
-16.335	81696.2
-16.330	81700.2
-16.325	81696.2
-16.320	81702.2
-16.315	81697.2
-16.310	81699.2
-16.305	81691.2
-16.300	81685.2
-16.295	81677.2
-16.290	81689.2
-16.285	81719.2
-16.280	81736.2
-16.275	81720.2
-16.270	81722.2
-16.265	81727.2
-16.260	81726.2
-16.255	81724.2
-16.250	81733.2
-16.245	81724.2
-16.240	81736.2
-16.235	81733.2
-16.230	81724.2
-16.225	81708.2
-16.220	81740.2
-16.215	81754.2
-16.210	81767.2
-16.205	81768.2
-16.200	81770.2
-16.195	81770.2
-16.190	81766.2
-16.185	81758.2
-16.180	81755.2
-16.175	81758.2
-16.170	81756.2
-16.165	81719.2
-16.160	81718.2
-16.155	81738.2
-16.150	81761.2
-16.145	81750.2
-16.140	81760.2
-16.135	81753.2
-16.130	81753.2
-16.125	81746.2
-16.120	81755.2
-16.115	81741.2
-16.110	81744.2
-16.105	81737.2
-16.100	81726.2
-16.095	81692.2
-16.090	81698.2
-16.085	81715.2
-16.080	81725.2
-16.075	81721.2
-16.070	81723.2
-16.065	81710.2
-16.060	81708.2
-16.055	81703.2
-16.050	81712.2
-16.045	81692.2
-16.040	81694.2
-16.035	81667.2
-16.030	81639.2
-16.025	81623.3
-16.020	81656.2
-16.015	81656.2
-16.010	81654.2
-16.005	81640.2
-16.000	81627.3
-15.995	81615.3
-15.990	81610.3
-15.985	81610.3
-15.980	81604.3
-15.975	81594.3
-15.970	81597.3
-15.965	81559.3
-15.960	81532.3
-15.955	81556.3
-15.950	81582.3
-15.945	81586.3
-15.940	81584.3
-15.935	81575.3
-15.930	81585.3
-15.925	81578.3
-15.920	81584.3
-15.915	81589.3
-15.910	81591.3
-15.905	81597.3
-15.900	81582.3
-15.895	81562.3
-15.890	81570.3
-15.885	81593.3
-15.880	81592.3
-15.875	81584.3
-15.870	81594.3
-15.865	81588.3
-15.860	81597.3
-15.855	81590.3
-15.850	81603.3
-15.845	81625.2
-15.840	81632.2
-15.835	81629.2
-15.830	81615.3
-15.825	81594.3
-15.820	81646.2
-15.815	81653.2
-15.810	81663.2
-15.805	81667.2
-15.800	81679.2
-15.795	81678.2
-15.790	81680.2
-15.785	81688.2
-15.780	81698.2
-15.775	81686.2
-15.770	81693.2
-15.765	81680.2
-15.760	81674.2
-15.755	81698.2
-15.750	81720.2
-15.745	81717.2
-15.740	81721.2
-15.735	81725.2
-15.730	81734.2
-15.725	81731.2
-15.720	81746.1
-15.715	81752.1
-15.710	81775.1
-15.705	81771.1
-15.700	81768.1
-15.695	81744.1
-15.690	81764.1
-15.685	81786.1
-15.680	81807.1
-15.675	81803.1
-15.670	81803.1
-15.665	81813.1
-15.660	81809.1
-15.655	81797.1
-15.650	81800.1
-15.645	81796.1
-15.640	81805.1
-15.635	81794.1
-15.630	81776.1
-15.625	81766.1
-15.620	81815.1
-15.615	81804.1
-15.610	81805.1
-15.605	81796.1
-15.600	81796.1
-15.595	81789.1
-15.590	81798.1
-15.585	81796.1
-15.580	81800.1
-15.575	81794.1
-15.570	81798.1
-15.565	81768.1
-15.560	81753.1
-15.555	81769.1
-15.550	81795.1
-15.545	81794.1
-15.540	81789.1
-15.535	81787.1
-15.530	81791.1
-15.525	81780.1
-15.520	81775.1
-15.515	81772.1
-15.510	81771.1
-15.505	81767.1
-15.500	81743.1
-15.495	81727.1
-15.490	81732.1
-15.485	81775.1
-15.480	81759.1
-15.475	81751.1
-15.470	81735.1
-15.465	81736.1
-15.460	81737.1
-15.455	81738.1
-15.450	81735.1
-15.445	81736.1
-15.440	81755.1
-15.435	81748.1
-15.430	81724.1
-15.425	81720.1
-15.420	81755.1
-15.415	81749.1
-15.410	81752.1
-15.405	81744.1
-15.400	81748.1
-15.395	81751.1
-15.390	81753.1
-15.385	81750.1
-15.380	81742.1
-15.375	81743.1
-15.370	81737.1
-15.365	81708.1
-15.360	81705.2
-15.355	81718.1
-15.350	81735.1
-15.345	81728.1
-15.340	81735.1
-15.335	81730.1
-15.330	81728.1
-15.325	81727.1
-15.320	81726.1
-15.315	81734.1
-15.310	81738.1
-15.305	81748.1
-15.300	81747.1
-15.295	81715.1
-15.290	81727.1
-15.285	81749.1
-15.280	81755.1
-15.275	81747.1
-15.270	81759.1
-15.265	81760.1
-15.260	81755.1
-15.255	81760.1
-15.250	81760.1
-15.245	81752.1
-15.240	81768.1
-15.235	81756.1
-15.230	81738.1
-15.225	81737.1
-15.220	81774.1
-15.215	81761.1
-15.210	81763.1
-15.205	81757.1
-15.200	81765.1
-15.195	81749.1
-15.190	81757.1
-15.185	81754.1
-15.180	81758.1
-15.175	81748.1
-15.170	81769.1
-15.165	81746.1
-15.160	81735.1
-15.155	81750.1
-15.150	81766.1
-15.145	81745.1
-15.140	81753.1
-15.135	81739.1
-15.130	81742.1
-15.125	81721.1
-15.120	81724.1
-15.115	81713.1
-15.110	81703.1
-15.105	81704.1
-15.100	81676.2
-15.095	81663.2
-15.090	81674.2
-15.085	81684.1
-15.080	81671.2
-15.075	81657.2
-15.070	81649.2
-15.065	81635.2
-15.060	81613.2
-15.055	81600.2
-15.050	81587.2
-15.045	81570.2
-15.040	81568.2
-15.035	81557.2
-15.030	81519.3
-15.025	81499.3
-15.020	81517.3
-15.015	81493.3
-15.010	81473.3
-15.005	81467.3
-15.000	81453.3
-14.995	81446.3
-14.990	81441.3
-14.985	81424.3
-14.980	81433.3
-14.975	81430.3
-14.970	81432.3
-14.965	81402.3
-14.960	81394.4
-14.955	81408.3
-14.950	81428.3
-14.945	81422.3
-14.940	81440.3
-14.935	81433.3
-14.930	81432.3
-14.925	81419.3
-14.920	81410.3
-14.915	81406.3
-14.910	81420.3
-14.905	81420.3
-14.900	81409.3
-14.895	81395.4
-14.890	81408.3
-14.885	81427.3
-14.880	81433.3
-14.875	81437.3
-14.870	81446.3
-14.865	81457.3
-14.860	81480.3
-14.855	81476.3
-14.850	81491.3
-14.845	81504.3
-14.840	81522.3
-14.835	81513.3
-14.830	81516.3
-14.825	81523.3
-14.820	81566.2
-14.815	81582.2
-14.810	81588.2
-14.805	81592.2
-14.800	81591.2
-14.795	81601.2
-14.790	81609.2
-14.785	81607.2
-14.780	81632.2
-14.775	81644.2
-14.770	81650.2
-14.765	81630.2
-14.760	81626.2
-14.755	81673.1
-14.750	81689.1
-14.745	81687.1
-14.740	81697.1
-14.735	81702.1
-14.730	81705.1
-14.725	81706.1
-14.720	81720.1
-14.715	81717.1
-14.710	81726.1
-14.705	81727.1
-14.700	81714.1
-14.695	81699.1
-14.690	81726.1
-14.685	81740.1
-14.680	81752.1
-14.675	81738.1
-14.670	81743.1
-14.665	81737.1
-14.660	81741.1
-14.655	81733.1
-14.650	81735.1
-14.645	81737.1
-14.640	81756.1
-14.635	81743.1
-14.630	81727.1
-14.625	81703.1
-14.620	81743.1
-14.615	81741.1
-14.610	81754.1
-14.605	81738.1
-14.600	81725.1
-14.595	81721.1
-14.590	81719.1
-14.585	81718.1
-14.580	81722.1
-14.575	81715.1
-14.570	81719.1
-14.565	81686.1
-14.560	81697.1
-14.555	81718.1
-14.550	81715.1
-14.545	81694.1
-14.540	81698.1
-14.535	81696.1
-14.530	81700.1
-14.525	81697.1
-14.520	81696.1
-14.515	81700.1
-14.510	81699.1
-14.505	81694.1
-14.500	81670.1
-14.495	81662.1
-14.490	81680.1
-14.485	81694.1
-14.480	81706.1
-14.475	81709.1
-14.470	81713.1
-14.465	81695.1
-14.460	81710.1
-14.455	81692.1
-14.450	81709.1
-14.445	81702.1
-14.440	81713.1
-14.435	81685.1
-14.430	81669.1
-14.425	81693.1
-14.420	81735.1
-14.415	81714.1
-14.410	81714.1
-14.405	81724.1
-14.400	81732.1
-14.395	81725.1
-14.390	81732.1
-14.385	81724.1
-14.380	81734.1
-14.375	81734.1
-14.370	81739.1
-14.365	81723.1
-14.360	81716.1
-14.355	81742.1
-14.350	81759.0
-14.345	81754.1
-14.340	81766.0
-14.335	81773.0
-14.330	81777.0
-14.325	81768.0
-14.320	81775.0
-14.315	81776.0
-14.310	81779.0
-14.305	81767.0
-14.300	81758.0
-14.295	81761.0
-14.290	81784.0
-14.285	81818.0
-14.280	81836.0
-14.275	81815.0
-14.270	81822.0
-14.265	81823.0
-14.260	81835.0
-14.255	81826.0
-14.250	81839.0
-14.245	81842.0
-14.240	81861.0
-14.235	81839.0
-14.230	81823.0
-14.225	81818.0
-14.220	81846.0
-14.215	81849.0
-14.210	81860.0
-14.205	81852.0
-14.200	81856.0
-14.195	81857.0
-14.190	81859.0
-14.185	81849.0
-14.180	81865.0
-14.175	81863.0
-14.170	81853.0
-14.165	81827.0
-14.160	81827.0
-14.155	81851.0
-14.150	81866.0
-14.145	81851.0
-14.140	81854.0
-14.135	81852.0
-14.130	81849.0
-14.125	81848.0
-14.120	81854.0
-14.115	81847.0
-14.110	81859.0
-14.105	81863.0
-14.100	81850.0
-14.095	81824.0
-14.090	81833.0
-14.085	81857.0
-14.080	81852.0
-14.075	81860.0
-14.070	81861.0
-14.065	81854.0
-14.060	81858.0
-14.055	81850.0
-14.050	81863.0
-14.045	81853.0
-14.040	81863.0
-14.035	81841.0
-14.030	81834.0
-14.025	81836.0
-14.020	81863.0
-14.015	81870.0
-14.010	81862.0
-14.005	81856.0
-14.000	81861.0
-13.995	81852.0
-13.990	81856.0
-13.985	81852.0
-13.980	81860.0
-13.975	81867.0
-13.970	81871.9
-13.965	81844.0
-13.960	81845.0
-13.955	81869.9
-13.950	81885.9
-13.945	81873.9
-13.940	81880.9
-13.935	81879.9
-13.930	81869.9
-13.925	81865.0
-13.920	81862.0
-13.915	81868.9
-13.910	81867.9
-13.905	81872.9
-13.900	81855.0
-13.895	81850.0
-13.890	81872.9
-13.885	81885.9
-13.880	81884.9
-13.875	81882.9
-13.870	81874.9
-13.865	81869.9
-13.860	81862.9
-13.855	81880.9
-13.850	81881.9
-13.845	81881.9
-13.840	81882.9
-13.835	81875.9
-13.830	81850.0
-13.825	81857.9
-13.820	81893.9
-13.815	81884.9
-13.810	81890.9
-13.805	81883.9
-13.800	81895.9
-13.795	81882.9
-13.790	81874.9
-13.785	81879.9
-13.780	81877.9
-13.775	81880.9
-13.770	81876.9
-13.765	81841.0
-13.760	81844.0
-13.755	81868.9
-13.750	81871.9
-13.745	81863.9
-13.740	81871.9
-13.735	81872.9
-13.730	81862.9
-13.725	81874.9
-13.720	81876.9
-13.715	81872.9
-13.710	81877.9
-13.705	81883.9
-13.700	81867.9
-13.695	81853.9
-13.690	81884.9
-13.685	81892.9
-13.680	81901.9
-13.675	81899.9
-13.670	81902.9
-13.665	81897.9
-13.660	81899.9
-13.655	81903.9
-13.650	81903.9
-13.645	81896.9
-13.640	81909.9
-13.635	81886.9
-13.630	81879.9
-13.625	81888.9
-13.620	81922.9
-13.615	81906.9
-13.610	81914.9
-13.605	81910.9
-13.600	81914.9
-13.595	81913.9
-13.590	81923.9
-13.585	81917.9
-13.580	81931.9
-13.575	81932.9
-13.570	81926.9
-13.565	81907.9
-13.560	81894.9
-13.555	81925.9
-13.550	81950.9
-13.545	81936.9
-13.540	81957.9
-13.535	81951.9
-13.530	81947.9
-13.525	81939.9
-13.520	81941.9
-13.515	81939.9
-13.510	81947.9
-13.505	81928.9
-13.500	81901.9
-13.495	81899.9
-13.490	81922.9
-13.485	81931.9
-13.480	81926.9
-13.475	81913.9
-13.470	81920.9
-13.465	81908.9
-13.460	81913.9
-13.455	81904.9
-13.450	81907.9
-13.445	81901.9
-13.440	81912.9
-13.435	81890.9
-13.430	81867.9
-13.425	81869.9
-13.420	81902.9
-13.415	81909.9
-13.410	81899.9
-13.405	81896.9
-13.400	81895.9
-13.395	81878.9
-13.390	81871.9
-13.385	81865.9
-13.380	81856.9
-13.375	81854.9
-13.370	81838.9
-13.365	81814.0
-13.360	81814.0
-13.355	81846.9
-13.350	81844.9
-13.345	81825.9
-13.340	81812.0
-13.335	81803.0
-13.330	81806.0
-13.325	81787.0
-13.320	81795.0
-13.315	81782.0
-13.310	81781.0
-13.305	81772.0
-13.300	81738.0
-13.295	81719.0
-13.290	81738.0
-13.285	81757.0
-13.280	81754.0
-13.275	81745.0
-13.270	81745.0
-13.265	81733.0
-13.260	81744.0
-13.255	81737.0
-13.250	81754.0
-13.245	81736.0
-13.240	81749.0
-13.235	81723.0
-13.230	81712.0
-13.225	81727.0
-13.220	81748.0
-13.215	81747.0
-13.210	81748.0
-13.205	81740.0
-13.200	81743.0
-13.195	81740.0
-13.190	81742.0
-13.185	81746.0
-13.180	81754.0
-13.175	81755.0
-13.170	81755.0
-13.165	81735.0
-13.160	81744.0
-13.155	81764.0
-13.150	81770.0
-13.145	81768.0
-13.140	81775.0
-13.135	81775.0
-13.130	81779.0
-13.125	81778.0
-13.120	81796.0
-13.115	81787.0
-13.110	81781.0
-13.105	81784.0
-13.100	81763.0
-13.095	81762.0
-13.090	81792.0
-13.085	81799.0
-13.080	81802.0
-13.075	81799.0
-13.070	81800.0
-13.065	81798.0
-13.060	81802.0
-13.055	81805.0
-13.050	81815.9
-13.045	81824.9
-13.040	81830.9
-13.035	81811.9
-13.030	81804.0
-13.025	81802.0
-13.020	81828.9
-13.015	81835.9
-13.010	81842.9
-13.005	81845.9
-13.000	81841.9
-12.995	81831.9
-12.990	81834.9
-12.985	81836.9
-12.980	81840.9
-12.975	81835.9
-12.970	81819.9
-12.965	81802.0
-12.960	81808.9
-12.955	81844.9
-12.950	81837.9
-12.945	81834.9
-12.940	81828.9
-12.935	81822.9
-12.930	81816.9
-12.925	81818.9
-12.920	81824.9
-12.915	81822.9
-12.910	81831.9
-12.905	81836.9
-12.900	81814.9
-12.895	81787.0
-12.890	81818.9
-12.885	81825.9
-12.880	81827.9
-12.875	81817.9
-12.870	81828.9
-12.865	81810.9
-12.860	81820.9
-12.855	81801.0
-12.850	81815.9
-12.845	81800.0
-12.840	81812.9
-12.835	81777.0
-12.830	81776.0
-12.825	81779.0
-12.820	81816.9
-12.815	81807.9
-12.810	81807.9
-12.805	81801.9
-12.800	81793.9
-12.795	81785.0
-12.790	81795.9
-12.785	81795.9
-12.780	81801.9
-12.775	81805.9
-12.770	81781.0
-12.765	81774.0
-12.760	81770.0
-12.755	81804.9
-12.750	81805.9
-12.745	81804.9
-12.740	81807.9
-12.735	81802.9
-12.730	81803.9
-12.725	81802.9
-12.720	81819.9
-12.715	81809.9
-12.710	81814.9
-12.705	81808.9
-12.700	81785.0
-12.695	81780.0
-12.690	81814.9
-12.685	81821.9
-12.680	81827.9
-12.675	81827.9
-12.670	81832.9
-12.665	81818.9
-12.660	81826.9
-12.655	81827.9
-12.650	81832.9
-12.645	81840.9
-12.640	81856.9
-12.635	81830.9
-12.630	81810.9
-12.625	81830.9
-12.620	81858.9
-12.615	81856.9
-12.610	81860.9
-12.605	81856.9
-12.600	81852.9
-12.595	81845.9
-12.590	81848.9
-12.585	81845.9
-12.580	81844.9
-12.575	81840.9
-12.570	81821.9
-12.565	81808.9
-12.560	81822.9
-12.555	81852.9
-12.550	81859.9
-12.545	81856.9
-12.540	81859.9
-12.535	81859.9
-12.530	81855.9
-12.525	81853.9
-12.520	81859.9
-12.515	81872.9
-12.510	81890.9
-12.505	81889.9
-12.500	81859.9
-12.495	81854.9
-12.490	81878.9
-12.485	81884.9
-12.480	81872.9
-12.475	81886.9
-12.470	81879.9
-12.465	81870.9
-12.460	81863.9
-12.455	81867.9
-12.450	81886.9
-12.445	81878.9
-12.440	81886.9
-12.435	81856.9
-12.430	81845.9
-12.425	81856.9
-12.420	81884.9
-12.415	81883.9
-12.410	81879.9
-12.405	81875.9
-12.400	81880.9
-12.395	81875.9
-12.390	81889.9
-12.385	81873.9
-12.380	81892.9
-12.375	81886.9
-12.370	81878.9
-12.365	81855.9
-12.360	81862.9
-12.355	81893.9
-12.350	81900.9
-12.345	81893.9
-12.340	81887.9
-12.335	81882.9
-12.330	81884.9
-12.325	81875.9
-12.320	81887.9
-12.315	81890.9
-12.310	81888.9
-12.305	81879.9
-12.300	81859.9
-12.295	81857.9
-12.290	81896.9
-12.285	81899.9
-12.280	81901.8
-12.275	81898.9
-12.270	81896.9
-12.265	81898.9
-12.260	81897.9
-12.255	81887.9
-12.250	81888.9
-12.245	81897.9
-12.240	81915.8
-12.235	81883.9
-12.230	81877.9
-12.225	81886.9
-12.220	81907.8
-12.215	81914.8
-12.210	81924.8
-12.205	81915.8
-12.200	81912.8
-12.195	81908.8
-12.190	81910.8
-12.185	81906.8
-12.180	81919.8
-12.175	81921.8
-12.170	81908.8
-12.165	81890.9
-12.160	81911.8
-12.155	81925.8
-12.150	81927.8
-12.145	81924.8
-12.140	81932.8
-12.135	81927.8
-12.130	81931.8
-12.125	81935.8
-12.120	81937.8
-12.115	81928.8
-12.110	81940.8
-12.105	81935.8
-12.100	81924.8
-12.095	81910.8
-12.090	81951.8
-12.085	81958.8
-12.080	81960.8
-12.075	81955.8
-12.070	81952.8
-12.065	81947.8
-12.060	81953.8
-12.055	81954.8
-12.050	81961.8
-12.045	81972.8
-12.040	81963.8
-12.035	81934.8
-12.030	81924.8
-12.025	81948.8
-12.020	81971.8
-12.015	81972.8
-12.010	81966.8
-12.005	81962.8
-12.000	81974.8
-11.995	81977.8
-11.990	81980.8
-11.985	81982.8
-11.980	81980.8
-11.975	81993.8
-11.970	81977.8
-11.965	81956.8
-11.960	81968.8
-11.955	82005.8
-11.950	82014.8
-11.945	82015.8
-11.940	82018.8
-11.935	82010.8
-11.930	82007.8
-11.925	82004.8
-11.920	82001.8
-11.915	82007.8
-11.910	82017.8
-11.905	82004.8
-11.900	81995.8
-11.895	81989.8
-11.890	82026.7
-11.885	82024.7
-11.880	82028.7
-11.875	82008.8
-11.870	82013.7
-11.865	82015.8
-11.860	82025.7
-11.855	82018.7
-11.850	82029.7
-11.845	82028.7
-11.840	82037.7
-11.835	82012.7
-11.830	81989.8
-11.825	82009.8
-11.820	82027.7
-11.815	82031.7
-11.810	82040.7
-11.805	82031.7
-11.800	82040.7
-11.795	82032.7
-11.790	82030.7
-11.785	82018.7
-11.780	82022.7
-11.775	82033.7
-11.770	82010.7
-11.765	82002.8
-11.760	82024.7
-11.755	82038.7
-11.750	82047.7
-11.745	82041.7
-11.740	82036.7
-11.735	82033.7
-11.730	82042.7
-11.725	82029.7
-11.720	82036.7
-11.715	82048.7
-11.710	82057.7
-11.705	82041.7
-11.700	82021.7
-11.695	82002.8
-11.690	82047.7
-11.685	82043.7
-11.680	82052.7
-11.675	82049.7
-11.670	82052.7
-11.665	82045.7
-11.660	82034.7
-11.655	82035.7
-11.650	82043.7
-11.645	82033.7
-11.640	82034.7
-11.635	82006.7
-11.630	81999.8
-11.625	82020.7
-11.620	82033.7
-11.615	82032.7
-11.610	82025.7
-11.605	82019.7
-11.600	82016.7
-11.595	82019.7
-11.590	82024.7
-11.585	82018.7
-11.580	82017.7
-11.575	82022.7
-11.570	82010.7
-11.565	81987.8
-11.560	81999.7
-11.555	82016.7
-11.550	82018.7
-11.545	82017.7
-11.540	82018.7
-11.535	82020.7
-11.530	82019.7
-11.525	82010.7
-11.520	82010.7
-11.515	82008.7
-11.510	82011.7
-11.505	81992.8
-11.500	81976.8
-11.495	81973.8
-11.490	82009.7
-11.485	82011.7
-11.480	82006.7
-11.475	81993.8
-11.470	82005.7
-11.465	81989.8
-11.460	82000.7
-11.455	81993.7
-11.450	82003.7
-11.445	82007.7
-11.440	82010.7
-11.435	81980.8
-11.430	81969.8
-11.425	81992.7
-11.420	82007.7
-11.415	81993.7
-11.410	81994.7
-11.405	81991.7
-11.400	81984.8
-11.395	81985.8
-11.390	81991.8
-11.385	81976.8
-11.380	81982.8
-11.375	81976.8
-11.370	81948.8
-11.365	81933.8
-11.360	81959.8
-11.355	81980.8
-11.350	81986.7
-11.345	81977.8
-11.340	81978.8
-11.335	81970.8
-11.330	81970.8
-11.325	81963.8
-11.320	81955.8
-11.315	81972.8
-11.310	81983.8
-11.305	81973.8
-11.300	81951.8
-11.295	81942.8
-11.290	81975.8
-11.285	81982.8
-11.280	81981.8
-11.275	81978.8
-11.270	81989.7
-11.265	81974.8
-11.260	81973.8
-11.255	81978.8
-11.250	81990.7
-11.245	81983.8
-11.240	81976.8
-11.235	81955.8
-11.230	81950.8
-11.225	81977.8
-11.220	81999.7
-11.215	81982.8
-11.210	81986.7
-11.205	81976.8
-11.200	81981.7
-11.195	81962.8
-11.190	81964.8
-11.185	81961.8
-11.180	81975.8
-11.175	81995.7
-11.170	81980.7
-11.165	81947.8
-11.160	81969.8
-11.155	81993.7
-11.150	81994.7
-11.145	81988.7
-11.140	81984.7
-11.135	81984.7
-11.130	81977.7
-11.125	81977.8
-11.120	81972.8
-11.115	81971.8
-11.110	81977.8
-11.105	81961.8
-11.100	81952.8
-11.095	81946.8
-11.090	81979.7
-11.085	81975.7
-11.080	81986.7
-11.075	81984.7
-11.070	81982.7
-11.065	81979.7
-11.060	81971.8
-11.055	81971.8
-11.050	81975.7
-11.045	81986.7
-11.040	81984.7
-11.035	81962.8
-11.030	81954.8
-11.025	81975.7
-11.020	81994.7
-11.015	81988.7
-11.010	81997.7
-11.005	81988.7
-11.000	81989.7
-10.995	81979.7
-10.990	81986.7
-10.985	81991.7
-10.980	81986.7
-10.975	81970.7
-10.970	81967.8
-10.965	81950.8
-10.960	81963.8
-10.955	81989.7
-10.950	81980.7
-10.945	81979.7
-10.940	81981.7
-10.935	81986.7
-10.930	81974.7
-10.925	81972.7
-10.920	81971.7
-10.915	81984.7
-10.910	81989.7
-10.905	81975.7
-10.900	81959.8
-10.895	81955.8
-10.890	81986.7
-10.885	81985.7
-10.880	81995.7
-10.875	81989.7
-10.870	81995.7
-10.865	81991.7
-10.860	81982.7
-10.855	81995.7
-10.850	81997.7
-10.845	81996.7
-10.840	81983.7
-10.835	81962.7
-10.830	81954.8
-10.825	81973.7
-10.820	81992.7
-10.815	81992.7
-10.810	82002.7
-10.805	81992.7
-10.800	82002.7
-10.795	81998.7
-10.790	82005.7
-10.785	82011.7
-10.780	82022.7
-10.775	82019.7
-10.770	81995.7
-10.765	81986.7
-10.760	82005.7
-10.755	82031.7
-10.750	82043.7
-10.745	82035.7
-10.740	82038.7
-10.735	82026.7
-10.730	82023.7
-10.725	82033.7
-10.720	82039.7
-10.715	82032.7
-10.710	82047.7
-10.705	82018.7
-10.700	82002.7
-10.695	81999.7
-10.690	82039.7
-10.685	82046.7
-10.680	82039.7
-10.675	82048.7
-10.670	82052.7
-10.665	82041.7
-10.660	82044.7
-10.655	82050.7
-10.650	82046.7
-10.645	82055.7
-10.640	82066.7
-10.635	82032.7
-10.630	82025.7
-10.625	82056.7
-10.620	82067.7
-10.615	82069.7
-10.610	82071.7
-10.605	82065.7
-10.600	82060.7
-10.595	82054.7
-10.590	82057.7
-10.585	82057.7
-10.580	82068.7
-10.575	82059.7
-10.570	82040.7
-10.565	82025.7
-10.560	82047.7
-10.555	82070.7
-10.550	82059.7
-10.545	82048.7
-10.540	82058.7
-10.535	82048.7
-10.530	82049.7
-10.525	82040.7
-10.520	82044.7
-10.515	82035.7
-10.510	82055.7
-10.505	82041.7
-10.500	82027.7
-10.495	82024.7
-10.490	82056.7
-10.485	82053.7
-10.480	82056.7
-10.475	82050.7
-10.470	82042.7
-10.465	82023.7
-10.460	82033.7
-10.455	82029.7
-10.450	82041.7
-10.445	82036.7
-10.440	82025.7
-10.435	81992.7
-10.430	81982.7
-10.425	82008.7
-10.420	82003.7
-10.415	81997.7
-10.410	81992.7
-10.405	81989.7
-10.400	82000.7
-10.395	82007.7
-10.390	82011.7
-10.385	82000.7
-10.380	82005.7
-10.375	82001.7
-10.370	81982.7
-10.365	81962.7
-10.360	81983.7
-10.355	82008.7
-10.350	81999.7
-10.345	82003.7
-10.340	82003.7
-10.335	82007.7
-10.330	82005.7
-10.325	81993.7
-10.320	82000.7
-10.315	82001.7
-10.310	82009.7
-10.305	81976.7
-10.300	81976.7
-10.295	81976.7
-10.290	82002.7
-10.285	82001.7
-10.280	82000.7
-10.275	82006.7
-10.270	82012.7
-10.265	81998.7
-10.260	82006.7
-10.255	81994.7
-10.250	82008.7
-10.245	82007.7
-10.240	82010.7
-10.235	81980.7
-10.230	81967.7
-10.225	81997.7
-10.220	82003.7
-10.215	82015.7
-10.210	82013.7
-10.205	82000.7
-10.200	82008.7
-10.195	81993.7
-10.190	81998.7
-10.185	81997.7
-10.180	82003.7
-10.175	82011.7
-10.170	81994.7
-10.165	81979.7
-10.160	82012.7
-10.155	82026.7
-10.150	82022.7
-10.145	82020.7
-10.140	82016.7
-10.135	82019.7
-10.130	82020.7
-10.125	82020.7
-10.120	82016.7
-10.115	82018.7
-10.110	82033.7
-10.105	82003.7
-10.100	81990.7
-10.095	81996.7
-10.090	82020.7
-10.085	82026.7
-10.080	82031.7
-10.075	82039.7
-10.070	82030.7
-10.065	82018.7
-10.060	82011.7
-10.055	82015.7
-10.050	82013.7
-10.045	82022.7
-10.040	82011.7
-10.035	81991.7
-10.030	81999.7
-10.025	82023.7
-10.020	82026.7
-10.015	82007.7
-10.010	82010.7
-10.005	82018.7
-10.000	82019.7
-9.995	82020.7
-9.990	82023.7
-9.985	82027.7
-9.980	82030.7
-9.975	82032.7
-9.970	82008.7
-9.965	81990.7
-9.960	82013.7
-9.955	82032.7
-9.950	82035.7
-9.945	82036.7
-9.940	82031.7
-9.935	82028.7
-9.930	82024.7
-9.925	82023.7
-9.920	82024.7
-9.915	82023.7
-9.910	82027.7
-9.905	81999.7
-9.900	81995.7
-9.895	82013.7
-9.890	82043.7
-9.885	82033.7
-9.880	82028.7
-9.875	82022.7
-9.870	82022.7
-9.865	82016.7
-9.860	82018.7
-9.855	82017.7
-9.850	82026.7
-9.845	82023.7
-9.840	82025.7
-9.835	81999.7
-9.830	81993.7
-9.825	82020.7
-9.820	82015.7
-9.815	82015.7
-9.810	82022.7
-9.805	82013.7
-9.800	82019.7
-9.795	82010.7
-9.790	82018.7
-9.785	82017.7
-9.780	82013.7
-9.775	81993.7
-9.770	81983.7
-9.765	81975.7
-9.760	81996.7
-9.755	82012.7
-9.750	82006.7
-9.745	82004.7
-9.740	81998.7
-9.735	81982.7
-9.730	81988.7
-9.725	81986.7
-9.720	81984.7
-9.715	81988.7
-9.710	81998.7
-9.705	81982.7
-9.700	81969.7
-9.695	81971.7
-9.690	81994.7
-9.685	81998.7
-9.680	82004.7
-9.675	81997.7
-9.670	82002.7
-9.665	81993.7
-9.660	81997.7
-9.655	81998.7
-9.650	82005.7
-9.645	82003.7
-9.640	81985.7
-9.635	81962.7
-9.630	81967.7
-9.625	81996.7
-9.620	82000.7
-9.615	81988.7
-9.610	81995.7
-9.605	81982.7
-9.600	81988.7
-9.595	81976.7
-9.590	81986.7
-9.585	81978.7
-9.580	81994.7
-9.575	81983.7
-9.570	81951.7
-9.565	81919.7
-9.560	81881.8
-9.555	81863.8
-9.550	81942.7
-9.545	81989.7
-9.540	81993.7
-9.535	82000.7
-9.530	81992.7
-9.525	81996.7
-9.520	81997.7
-9.515	81999.7
-9.510	81997.7
-9.505	81967.7
-9.500	81953.7
-9.495	81954.7
-9.490	81977.7
-9.485	81982.6
-9.480	81992.6
-9.475	81973.5
-9.470	81962.4
-9.465	81912.3
-9.460	81875.2
-9.455	81830.0
-9.450	81791.7
-9.445	81752.5
-9.440	81683.2
-9.435	81592.9
-9.430	81501.5
-9.425	81409.1
-9.420	81281.8
-9.415	81194.4
-9.410	81154.9
-9.405	81136.5
-9.400	81197.0
-9.395	81285.6
-9.390	81363.2
-9.385	81451.0
-9.380	81552.1
-9.375	81636.4
-9.370	81667.9
-9.365	81667.3
-9.360	81746.6
-9.355	81830.9
-9.350	81935.0
-9.345	81967.2
-9.340	81925.4
-9.335	81915.5
-9.330	81936.6
-9.325	81888.8
-9.320	81850.9
-9.315	81833.0
-9.310	81815.1
-9.305	81740.2
-9.300	81683.3
-9.295	81666.4
-9.290	81684.4
-9.285	81701.5
-9.280	81697.5
-9.275	81698.5
-9.270	81677.6
-9.265	81674.6
-9.260	81692.7
-9.255	81711.7
-9.250	81718.7
-9.245	81748.7
-9.240	81754.8
-9.235	81748.8
-9.230	81769.8
-9.225	81812.8
-9.220	81840.8
-9.215	81833.9
-9.210	81825.9
-9.205	81820.9
-9.200	81817.0
-9.195	81801.0
-9.190	81798.0
-9.185	81777.1
-9.180	81752.1
-9.175	81727.2
-9.170	81671.2
-9.165	81617.3
-9.160	81615.3
-9.155	81630.3
-9.150	81678.3
-9.145	81607.4
-9.140	81558.4
-9.135	81592.4
-9.130	81690.3
-9.125	81695.3
-9.120	81733.3
-9.115	81787.3
-9.110	81854.3
-9.105	81849.3
-9.100	81862.3
-9.095	81865.3
-9.090	81897.3
-9.085	81894.3
-9.080	81895.3
-9.075	81869.4
-9.070	81852.4
-9.065	81872.4
-9.060	81881.4
-9.055	81884.4
-9.050	81895.4
-9.045	81892.4
-9.040	81889.4
-9.035	81872.4
-9.030	81893.4
-9.025	81923.4
-9.020	81925.4
-9.015	81929.4
-9.010	81937.4
-9.005	81921.5
-9.000	81923.5
-8.995	81919.5
-8.990	81922.5
-8.985	81908.5
-8.980	81920.5
-8.975	81908.5
-8.970	81884.6
-8.965	81871.6
-8.960	81911.5
-8.955	81924.5
-8.950	81923.5
-8.945	81907.6
-8.940	81899.6
-8.935	81905.6
-8.930	81916.6
-8.925	81925.6
-8.920	81927.6
-8.915	81925.6
-8.910	81917.6
-8.905	81900.6
-8.900	81883.6
-8.895	81910.6
-8.890	81930.6
-8.885	81924.6
-8.880	81925.6
-8.875	81914.7
-8.870	81882.7
-8.865	81890.7
-8.860	81925.7
-8.855	81936.7
-8.850	81936.7
-8.845	81947.7
-8.840	81933.7
-8.835	81915.7
-8.830	81938.7
-8.825	81955.7
-8.820	81956.7
-8.815	81953.7
-8.810	81961.7
-8.805	81962.7
-8.800	81953.7
-8.795	81949.7
-8.790	81954.7
-8.785	81965.7
-8.780	81965.7
-8.775	81947.7
-8.770	81896.8
-8.765	81890.8
-8.760	81946.7
-8.755	81965.7
-8.750	81974.7
-8.745	81952.8
-8.740	81949.8
-8.735	81922.8
-8.730	81870.8
-8.725	81799.9
-8.720	81806.9
-8.715	81837.9
-8.710	81776.9
-8.705	81425.2
-8.700	81131.4
-8.695	81286.3
-8.690	81674.0
-8.685	81856.9
-8.680	81904.8
-8.675	81880.9
-8.670	81875.9
-8.665	81870.9
-8.660	81867.9
-8.655	81863.9
-8.650	81875.9
-8.645	81882.9
-8.640	81855.9
-8.635	81819.9
-8.630	81815.9
-8.625	81828.9
-8.620	81815.0
-8.615	81806.0
-8.610	81807.0
-8.605	81793.0
-8.600	81797.0
-8.595	81788.0
-8.590	81789.0
-8.585	81781.0
-8.580	81767.0
-8.575	81753.0
-8.570	81730.1
-8.565	81737.0
-8.560	81777.0
-8.555	81771.0
-8.550	81768.0
-8.545	81778.0
-8.540	81790.0
-8.535	81778.0
-8.530	81792.0
-8.525	81784.0
-8.520	81805.0
-8.515	81834.0
-8.510	81848.0
-8.505	81838.0
-8.500	81867.0
-8.495	81913.0
-8.490	81957.9
-8.485	81968.9
-8.480	81987.9
-8.475	82004.9
-8.470	82009.9
-8.465	82000.9
-8.460	82018.9
-8.455	82020.9
-8.450	82000.9
-8.445	81981.9
-8.440	81964.9
-8.435	81950.0
-8.430	81961.9
-8.425	81978.9
-8.420	81973.9
-8.415	81973.9
-8.410	81978.9
-8.405	81981.9
-8.400	81978.9
-8.395	81976.0
-8.390	81974.0
-8.385	81977.0
-8.380	81988.9
-8.375	81975.0
-8.370	81963.0
-8.365	81951.0
-8.360	81973.0
-8.355	81985.0
-8.350	81984.0
-8.345	81980.0
-8.340	81971.0
-8.335	81970.0
-8.330	81953.0
-8.325	81944.0
-8.320	81938.0
-8.315	81931.0
-8.310	81934.0
-8.305	81914.0
-8.300	81917.0
-8.295	81949.0
-8.290	81972.0
-8.285	81986.0
-8.280	82000.0
-8.275	82021.0
-8.270	82030.0
-8.265	82032.0
-8.260	82032.0
-8.255	82046.0
-8.250	82054.9
-8.245	82055.9
-8.240	82050.0
-8.235	82024.0
-8.230	82036.0
-8.225	82056.0
-8.220	82058.0
-8.215	82055.0
-8.210	82053.0
-8.205	82034.0
-8.200	82041.0
-8.195	82026.0
-8.190	82034.0
-8.185	82022.0
-8.180	82041.0
-8.175	82027.0
-8.170	82015.0
-8.165	82000.0
-8.160	82033.0
-8.155	82029.0
-8.150	82024.0
-8.145	82027.0
-8.140	82027.0
-8.135	82028.0
-8.130	82035.0
-8.125	82028.0
-8.120	82029.0
-8.115	82035.0
-8.110	82042.0
-8.105	82013.0
-8.100	81999.0
-8.095	82020.0
-8.090	82030.0
-8.085	82038.0
-8.080	82029.0
-8.075	82031.0
-8.070	82034.0
-8.065	82030.0
-8.060	82025.0
-8.055	82016.0
-8.050	82023.0
-8.045	82021.0
-8.040	81985.1
-8.035	81981.1
-8.030	81994.1
-8.025	82005.1
-8.020	81998.1
-8.015	81989.1
-8.010	81982.1
-8.005	81972.1
-8.000	81992.1
-7.995	81993.1
-7.990	82002.1
-7.985	81997.1
-7.980	82007.1
-7.975	81986.1
-7.970	81961.1
-7.965	81945.1
-7.960	81990.1
-7.955	81990.1
-7.950	81990.1
-7.945	81999.1
-7.940	82006.1
-7.935	81999.1
-7.930	82018.1
-7.925	82008.1
-7.920	82017.1
-7.915	82022.1
-7.910	82022.1
-7.905	81992.1
-7.900	81982.1
-7.895	82010.1
-7.890	82019.1
-7.885	82007.1
-7.880	82001.1
-7.875	81995.1
-7.870	81992.1
-7.865	81986.1
-7.860	81994.1
-7.855	81993.1
-7.850	82002.1
-7.845	82009.1
-7.840	81990.1
-7.835	81972.1
-7.830	81984.1
-7.825	82008.1
-7.820	82013.1
-7.815	82011.1
-7.810	82007.1
-7.805	82008.1
-7.800	82000.1
-7.795	81991.1
-7.790	81995.1
-7.785	81989.1
-7.780	81997.1
-7.775	81960.1
-7.770	81954.2
-7.765	81948.2
-7.760	81984.1
-7.755	81984.1
-7.750	81968.1
-7.745	81969.1
-7.740	81971.1
-7.735	81961.2
-7.730	81962.2
-7.725	81956.2
-7.720	81962.2
-7.715	81966.2
-7.710	81975.1
-7.705	81950.2
-7.700	81937.2
-7.695	81964.2
-7.690	81980.1
-7.685	81983.1
-7.680	81992.1
-7.675	81992.1
-7.670	81985.1
-7.665	81982.1
-7.660	81990.1
-7.655	81984.1
-7.650	81977.2
-7.645	81986.1
-7.640	81969.2
-7.635	81950.2
-7.630	81969.2
-7.625	81986.2
-7.620	81988.2
-7.615	81978.2
-7.610	81980.2
-7.605	81975.2
-7.600	81975.2
-7.595	81977.2
-7.590	81984.2
-7.585	81982.2
-7.580	81997.2
-7.575	81980.2
-7.570	81961.2
-7.565	81950.2
-7.560	81992.2
-7.555	81984.2
-7.550	81988.2
-7.545	82000.2
-7.540	81995.2
-7.535	81994.2
-7.530	81989.2
-7.525	81983.2
-7.520	81987.2
-7.515	82001.2
-7.510	82000.2
-7.505	81964.2
-7.500	81972.2
-7.495	82003.2
-7.490	82015.1
-7.485	82018.1
-7.480	82018.1
-7.475	82020.2
-7.470	82011.2
-7.465	82003.2
-7.460	82024.2
-7.455	82026.2
-7.450	82027.2
-7.445	82033.1
-7.440	82025.2
-7.435	82000.2
-7.430	82017.2
-7.425	82027.2
-7.420	82036.2
-7.415	82040.1
-7.410	82042.1
-7.405	82036.2
-7.400	82032.2
-7.395	82028.2
-7.390	82028.2
-7.385	82017.2
-7.380	82018.2
-7.375	81994.2
-7.370	81985.2
-7.365	81983.2
-7.360	82026.2
-7.355	82022.2
-7.350	82020.2
-7.345	82013.2
-7.340	82008.2
-7.335	82001.2
-7.330	82006.2
-7.325	82000.2
-7.320	82014.2
-7.315	82021.2
-7.310	82026.2
-7.305	81995.2
-7.300	81987.2
-7.295	81999.2
-7.290	82016.2
-7.285	82020.2
-7.280	82023.2
-7.275	82010.2
-7.270	82018.2
-7.265	82013.2
-7.260	82009.2
-7.255	82008.2
-7.250	82009.2
-7.245	82001.2
-7.240	81979.2
-7.235	81950.2
-7.230	81972.2
-7.225	81977.2
-7.220	81975.2
-7.215	81967.2
-7.210	81969.2
-7.205	81971.2
-7.200	81976.2
-7.195	81966.2
-7.190	81978.2
-7.185	81982.2
-7.180	81993.2
-7.175	81984.2
-7.170	81977.2
-7.165	81993.2
-7.160	82031.2
-7.155	82028.2
-7.150	82030.2
-7.145	82036.2
-7.140	82044.2
-7.135	82046.2
-7.130	82051.2
-7.125	82045.2
-7.120	82052.2
-7.115	82046.2
-7.110	82042.2
-7.105	82027.2
-7.100	82019.2
-7.095	82050.2
-7.090	82049.2
-7.085	82050.2
-7.080	82057.2
-7.075	82061.2
-7.070	82066.2
-7.065	82063.2
-7.060	82063.2
-7.055	82061.2
-7.050	82073.2
-7.045	82065.2
-7.040	82070.2
-7.035	82054.2
-7.030	82086.2
-7.025	82110.1
-7.020	82102.1
-7.015	82109.1
-7.010	82099.1
-7.005	82103.2
-7.000	82106.2
-6.995	82107.1
-6.990	82112.1
-6.985	82109.1
-6.980	82118.1
-6.975	82091.2
-6.970	82079.2
-6.965	82085.2
-6.960	82111.2
-6.955	82106.2
-6.950	82105.2
-6.945	82105.2
-6.940	82107.2
-6.935	82107.2
-6.930	82103.2
-6.925	82099.2
-6.920	82098.2
-6.915	82110.2
-6.910	82104.2
-6.905	82083.2
-6.900	82083.2
-6.895	82106.2
-6.890	82117.1
-6.885	82114.2
-6.880	82111.2
-6.875	82108.2
-6.870	82105.2
-6.865	82098.2
-6.860	82095.2
-6.855	82093.2
-6.850	82108.2
-6.845	82095.2
-6.840	82069.2
-6.835	82065.2
-6.830	82087.2
-6.825	82093.2
-6.820	82091.2
-6.815	82088.2
-6.810	82091.2
-6.805	82093.2
-6.800	82087.2
-6.795	82079.2
-6.790	82083.2
-6.785	82082.2
-6.780	82091.2
-6.775	82068.2
-6.770	82058.2
-6.765	82052.2
-6.760	82083.2
-6.755	82085.2
-6.750	82082.2
-6.745	82081.2
-6.740	82075.2
-6.735	82077.2
-6.730	82073.2
-6.725	82066.2
-6.720	82057.2
-6.715	82071.2
-6.710	82051.2
-6.705	82039.2
-6.700	82028.2
-6.695	82061.2
-6.690	82063.2
-6.685	82058.2
-6.680	82053.2
-6.675	82048.2
-6.670	82042.2
-6.665	82038.2
-6.660	82043.2
-6.655	82049.2
-6.650	82058.2
-6.645	82051.2
-6.640	82032.2
-6.635	82015.2
-6.630	82035.2
-6.625	82033.2
-6.620	82033.2
-6.615	82035.2
-6.610	82033.2
-6.605	82029.2
-6.600	82035.2
-6.595	82021.2
-6.590	82029.2
-6.585	82020.2
-6.580	82028.2
-6.575	82006.3
-6.570	81997.3
-6.565	81989.3
-6.560	82031.2
-6.555	82023.2
-6.550	82021.3
-6.545	82007.3
-6.540	82010.3
-6.535	82015.3
-6.530	82012.3
-6.525	82019.3
-6.520	82016.3
-6.515	82024.2
-6.510	82006.3
-6.505	81982.3
-6.500	81990.3
-6.495	82006.3
-6.490	82015.3
-6.485	82011.3
-6.480	82023.3
-6.475	82008.3
-6.470	82009.3
-6.465	82001.3
-6.460	82004.3
-6.455	81997.3
-6.450	81997.3
-6.445	81999.3
-6.440	81973.3
-6.435	81967.3
-6.430	81991.3
-6.425	82004.3
-6.420	82008.3
-6.415	81990.3
-6.410	81993.3
-6.405	81991.3
-6.400	81989.3
-6.395	81991.3
-6.390	81993.3
-6.385	81999.3
-6.380	82008.3
-6.375	81988.3
-6.370	81971.3
-6.365	81968.3
-6.360	82010.3
-6.355	82005.3
-6.350	82014.3
-6.345	82004.3
-6.340	82014.3
-6.335	82008.3
-6.330	82010.3
-6.325	82004.3
-6.320	82009.3
-6.315	82007.3
-6.310	81987.3
-6.305	81965.3
-6.300	81974.3
-6.295	82014.3
-6.290	82005.3
-6.285	82002.3
-6.280	81998.3
-6.275	81996.3
-6.270	81997.3
-6.265	81991.3
-6.260	81985.3
-6.255	81999.3
-6.250	81999.3
-6.245	82005.3
-6.240	81979.3
-6.235	81974.3
-6.230	81991.3
-6.225	82008.3
-6.220	82017.3
-6.215	82003.3
-6.210	82016.3
-6.205	82010.3
-6.200	82008.3
-6.195	82000.3
-6.190	82001.3
-6.185	82003.3
-6.180	82007.3
-6.175	81973.3
-6.170	81969.3
-6.165	81980.3
-6.160	82005.3
-6.155	82000.3
-6.150	81993.3
-6.145	81985.3
-6.140	81986.3
-6.135	81970.3
-6.130	81973.3
-6.125	81970.3
-6.120	81974.3
-6.115	81995.3
-6.110	81983.3
-6.105	81953.3
-6.100	81953.3
-6.095	81976.3
-6.090	81981.3
-6.085	81985.3
-6.080	81975.3
-6.075	81975.3
-6.070	81963.3
-6.065	81965.3
-6.060	81966.3
-6.055	81968.3
-6.050	81959.3
-6.045	81948.3
-6.040	81939.3
-6.035	81936.3
-6.030	81973.3
-6.025	81973.3
-6.020	81969.3
-6.015	81974.3
-6.010	81977.3
-6.005	81975.3
-6.000	81987.3
-5.995	81983.3
-5.990	81982.3
-5.985	81992.3
-5.980	82005.3
-5.975	81967.3
-5.970	81967.3
-5.965	81993.3
-5.960	82010.3
-5.955	82008.3
-5.950	82010.3
-5.945	81999.3
-5.940	81993.3
-5.935	81992.3
-5.930	82000.3
-5.925	81987.3
-5.920	81988.3
-5.915	81994.3
-5.910	81972.3
-5.905	81952.4
-5.900	81967.3
-5.895	82000.3
-5.890	82011.3
-5.885	81999.3
-5.880	82001.3
-5.875	81995.3
-5.870	81993.3
-5.865	81996.3
-5.860	81996.3
-5.855	82000.3
-5.850	82006.3
-5.845	82005.3
-5.840	81989.3
-5.835	81978.3
-5.830	82004.3
-5.825	82020.3
-5.820	82013.3
-5.815	82002.3
-5.810	82011.3
-5.805	82011.3
-5.800	82015.3
-5.795	82016.3
-5.790	82015.3
-5.785	82009.3
-5.780	81998.3
-5.775	81973.3
-5.770	81965.3
-5.765	81979.3
-5.760	81995.3
-5.755	81995.3
-5.750	81992.3
-5.745	81980.3
-5.740	81981.2
-5.735	81982.2
-5.730	81985.2
-5.725	81985.2
-5.720	81988.2
-5.715	81990.2
-5.710	81989.2
-5.705	81969.2
-5.700	81978.2
-5.695	82000.2
-5.690	82010.2
-5.685	82016.2
-5.680	82010.2
-5.675	81992.2
-5.670	81993.2
-5.665	81990.3
-5.660	81993.3
-5.655	81986.3
-5.650	81987.3
-5.645	81966.3
-5.640	81946.4
-5.635	81945.4
-5.630	81974.4
-5.625	81959.4
-5.620	81968.4
-5.615	81950.4
-5.610	81963.4
-5.605	81974.4
-5.600	81980.4
-5.595	81973.4
-5.590	81977.4
-5.585	81977.4
-5.580	81989.3
-5.575	81963.4
-5.570	81952.4
-5.565	81956.4
-5.560	81973.4
-5.555	81976.4
-5.550	81977.4
-5.545	81969.4
-5.540	81967.4
-5.535	81960.4
-5.530	81961.4
-5.525	81965.4
-5.520	81961.4
-5.515	81961.4
-5.510	81942.4
-5.505	81921.4
-5.500	81929.4
-5.495	81954.4
-5.490	81954.4
-5.485	81945.4
-5.480	81944.4
-5.475	81949.4
-5.470	81948.4
-5.465	81939.4
-5.460	81935.4
-5.455	81923.4
-5.450	81911.5
-5.445	81882.5
-5.440	81827.7
-5.435	81780.8
-5.430	81753.0
-5.425	81704.3
-5.420	81604.7
-5.415	81461.2
-5.410	81372.6
-5.405	81253.2
-5.400	81149.8
-5.395	81043.4
-5.390	80917.1
-5.385	80727.9
-5.380	80612.7
-5.375	80537.3
-5.370	80443.0
-5.365	80347.7
-5.360	80271.3
-5.355	80312.6
-5.350	80474.4
-5.345	80697.0
-5.340	80889.4
-5.335	81033.9
-5.330	81162.4
-5.325	81290.9
-5.320	81399.5
-5.315	81463.2
-5.310	81494.9
-5.305	81502.7
-5.300	81551.5
-5.295	81592.3
-5.290	81601.2
-5.285	81610.0
-5.280	81610.9
-5.275	81604.8
-5.270	81609.7
-5.265	81606.6
-5.260	81627.5
-5.255	81649.4
-5.250	81686.3
-5.245	81687.3
-5.240	81696.2
-5.235	81705.1
-5.230	81735.0
-5.225	81732.0
-5.220	81739.9
-5.215	81727.8
-5.210	81743.8
-5.205	81760.7
-5.200	81784.7
-5.195	81799.6
-5.190	81820.5
-5.185	81818.5
-5.180	81829.4
-5.175	81805.4
-5.170	81805.4
-5.165	81822.3
-5.160	81854.2
-5.155	81857.2
-5.150	81865.2
-5.145	81881.1
-5.140	81888.1
-5.135	81885.1
-5.130	81898.0
-5.125	81885.0
-5.120	81882.0
-5.115	81882.0
-5.110	81855.0
-5.105	81826.0
-5.100	81836.0
-5.095	81863.9
-5.090	81868.9
-5.085	81893.8
-5.080	81906.8
-5.075	81932.8
-5.070	81946.7
-5.065	81954.7
-5.060	81957.7
-5.055	81974.7
-5.050	81976.6
-5.045	81959.6
-5.040	81949.6
-5.035	81943.6
-5.030	81993.5
-5.025	82008.5
-5.020	82021.5
-5.015	82031.5
-5.010	82031.5
-5.005	82023.4
-5.000	82027.4
-4.995	82023.4
-4.990	82023.4
-4.985	82023.4
-4.980	82027.4
-4.975	81989.4
-4.970	81990.4
-4.965	82010.3
-4.960	82030.3
-4.955	82042.3
-4.950	82045.2
-4.945	82047.2
-4.940	82051.2
-4.935	82050.2
-4.930	82052.2
-4.925	82074.2
-4.920	82083.1
-4.915	82086.1
-4.910	82076.1
-4.905	82046.2
-4.900	82053.1
-4.895	82083.1
-4.890	82088.1
-4.885	82068.1
-4.880	82077.1
-4.875	82075.1
-4.870	82075.1
-4.865	82068.1
-4.860	82082.1
-4.855	82088.0
-4.850	82089.0
-4.845	82062.1
-4.840	82040.1
-4.835	82038.1
-4.830	82064.0
-4.825	82065.0
-4.820	82074.0
-4.815	82070.0
-4.810	82078.0
-4.805	82075.0
-4.800	82080.9
-4.795	82075.9
-4.790	82076.9
-4.785	82079.9
-4.780	82079.9
-4.775	82045.9
-4.770	82033.9
-4.765	82031.9
-4.760	82065.9
-4.755	82070.9
-4.750	82101.8
-4.745	82093.8
-4.740	82102.8
-4.735	82094.8
-4.730	82094.8
-4.725	82090.8
-4.720	82080.8
-4.715	82071.8
-4.710	82045.9
-4.705	82030.9
-4.700	82045.8
-4.695	82063.8
-4.690	82076.8
-4.685	82070.8
-4.680	82072.8
-4.675	82066.8
-4.670	82076.8
-4.665	82082.8
-4.660	82084.7
-4.655	82076.7
-4.650	82069.7
-4.645	82059.7
-4.640	82031.7
-4.635	82036.7
-4.630	82069.7
-4.625	82067.7
-4.620	82079.7
-4.615	82065.7
-4.610	82075.7
-4.605	82077.7
-4.600	82074.7
-4.595	82064.7
-4.590	82064.7
-4.585	82066.7
-4.580	82091.7
-4.575	82066.7
-4.570	82053.7
-4.565	82066.7
-4.560	82069.6
-4.555	82077.6
-4.550	82077.6
-4.545	82065.6
-4.540	82063.6
-4.535	82058.6
-4.530	82069.6
-4.525	82067.6
-4.520	82081.6
-4.515	82078.6
-4.510	82057.6
-4.505	82027.6
-4.500	82038.6
-4.495	82064.6
-4.490	82074.6
-4.485	82065.6
-4.480	82074.6
-4.475	82057.6
-4.470	82065.6
-4.465	82060.6
-4.460	82071.6
-4.455	82071.5
-4.450	82066.5
-4.445	82042.6
-4.440	82027.6
-4.435	82026.6
-4.430	82056.5
-4.425	82059.5
-4.420	82058.5
-4.415	82062.5
-4.410	82071.5
-4.405	82071.5
-4.400	82069.5
-4.395	82073.5
-4.390	82073.5
-4.385	82081.5
-4.380	82081.5
-4.375	82056.5
-4.370	82061.5
-4.365	82088.5
-4.360	82107.4
-4.355	82100.5
-4.350	82107.4
-4.345	82118.4
-4.340	82119.4
-4.335	82109.4
-4.330	82110.4
-4.325	82111.4
-4.320	82124.4
-4.315	82125.4
-4.310	82105.4
-4.305	82079.4
-4.300	82111.4
-4.295	82115.4
-4.290	82124.4
-4.285	82118.4
-4.280	82128.4
-4.275	82124.4
-4.270	82122.4
-4.265	82122.4
-4.260	82132.3
-4.255	82133.4
-4.250	82138.3
-4.245	82126.3
-4.240	82105.4
-4.235	82102.4
-4.230	82138.3
-4.225	82135.3
-4.220	82127.4
-4.215	82123.4
-4.210	82121.3
-4.205	82107.4
-4.200	82112.4
-4.195	82100.4
-4.190	82104.3
-4.185	82110.3
-4.180	82093.3
-4.175	82068.3
-4.170	82065.3
-4.165	82086.2
-4.160	82095.2
-4.155	82078.1
-4.150	82078.0
-4.145	82066.9
-4.140	82049.7
-4.135	82042.4
-4.130	82039.1
-4.125	82032.7
-4.120	82029.3
-4.115	81985.8
-4.110	81937.3
-4.105	81893.8
-4.100	81868.1
-4.095	81859.5
-4.090	81820.8
-4.085	81787.2
-4.080	81770.5
-4.075	81716.0
-4.070	81661.5
-4.065	81714.1
-4.060	81800.9
-4.055	81837.9
-4.050	81872.1
-4.045	81881.5
-4.040	81908.9
-4.035	81971.4
-4.030	82079.7
-4.025	82163.0
-4.020	82240.2
-4.015	82235.5
-4.010	82209.7
-4.005	82211.9
-4.000	82237.1
-3.995	82249.2
-3.990	82252.4
-3.985	82243.5
-3.980	82236.6
-3.975	82221.8
-3.970	82220.9
-3.965	82201.0
-3.960	82208.0
-3.955	82193.1
-3.950	82209.2
-3.945	82170.3
-3.940	82147.4
-3.935	82124.4
-3.930	82085.5
-3.925	82067.6
-3.920	82080.6
-3.915	82060.7
-3.910	82071.8
-3.905	82066.9
-3.900	81749.1
-3.895	81435.2
-3.890	81477.3
-3.885	81675.2
-3.880	81719.3
-3.875	81575.5
-3.870	81397.7
-3.865	81403.7
-3.860	81558.5
-3.855	81588.5
-3.850	81622.6
-3.845	81805.5
-3.840	81943.4
-3.835	81904.4
-3.830	81802.5
-3.825	81659.6
-3.820	81626.7
-3.815	81736.7
-3.810	82016.5
-3.805	82198.4
-3.800	82131.4
-3.795	81978.6
-3.790	81971.6
-3.785	82045.6
-3.780	82086.6
-3.775	82070.6
-3.770	82060.7
-3.765	82090.7
-3.760	82064.7
-3.755	82021.7
-3.750	81955.8
-3.745	81914.9
-3.740	81888.9
-3.735	81884.0
-3.730	81897.0
-3.725	81930.9
-3.720	81972.9
-3.715	81989.9
-3.710	81948.0
-3.705	81895.0
-3.700	81918.0
-3.695	81970.0
-3.690	82029.0
-3.685	82076.0
-3.680	82104.9
-3.675	82112.9
-3.670	82103.0
-3.665	82099.0
-3.660	82117.0
-3.655	82109.0
-3.650	82106.0
-3.645	82033.1
-3.640	81968.1
-3.635	81916.2
-3.630	81939.2
-3.625	81939.2
-3.620	81941.2
-3.615	81943.3
-3.610	81986.2
-3.605	82005.3
-3.600	82032.3
-3.595	82021.3
-3.590	81997.3
-3.585	81994.4
-3.580	82005.4
-3.575	81999.5
-3.570	81997.5
-3.565	82041.5
-3.560	82038.6
-3.555	81966.7
-3.550	81866.9
-3.545	81855.9
-3.540	81874.0
-3.535	81905.0
-3.530	81993.0
-3.525	82063.0
-3.520	82105.1
-3.515	82112.1
-3.510	82078.2
-3.505	82035.3
-3.500	82033.4
-3.495	82030.4
-3.490	82030.5
-3.485	82039.5
-3.480	82055.5
-3.475	82081.5
-3.470	82101.5
-3.465	82117.5
-3.460	82116.5
-3.455	82115.5
-3.450	82120.5
-3.445	82111.5
-3.440	82109.5
-3.435	82119.5
-3.430	82153.5
-3.425	82109.6
-3.420	82067.7
-3.415	82058.7
-3.410	82121.7
-3.405	82197.8
-3.400	82249.8
-3.395	82185.0
-3.390	82109.2
-3.385	82077.3
-3.380	82098.4
-3.375	82156.5
-3.370	82167.6
-3.365	82118.7
-3.360	82062.8
-3.355	82052.8
-3.350	82067.7
-3.345	82076.7
-3.340	82089.6
-3.335	82101.5
-3.330	82123.5
-3.325	82147.4
-3.320	82168.4
-3.315	82160.4
-3.310	82096.4
-3.305	82039.4
-3.300	82040.4
-3.295	82058.4
-3.290	82057.4
-3.285	82075.4
-3.280	82075.4
-3.275	82061.4
-3.270	82044.4
-3.265	82042.4
-3.260	82034.4
-3.255	82020.5
-3.250	82011.5
-3.245	81984.5
-3.240	81987.5
-3.235	82013.5
-3.230	82058.5
-3.225	82047.5
-3.220	82029.5
-3.215	81993.5
-3.210	81986.6
-3.205	81965.6
-3.200	81948.6
-3.195	81950.6
-3.190	81975.6
-3.185	81992.6
-3.180	81997.6
-3.175	81987.7
-3.170	81993.7
-3.165	82034.6
-3.160	82046.6
-3.155	82050.6
-3.150	82066.6
-3.145	82067.6
-3.140	82078.6
-3.135	82063.6
-3.130	82073.7
-3.125	82063.7
-3.120	82066.7
-3.115	82058.7
-3.110	82031.7
-3.105	82019.7
-3.100	82055.7
-3.095	82076.7
-3.090	82062.7
-3.085	82059.7
-3.080	82042.7
-3.075	82048.7
-3.070	82114.6
-3.065	82255.3
-3.060	82308.3
-3.055	82252.5
-3.050	82400.5
-3.045	82578.4
-3.040	82519.5
-3.035	82303.8
-3.030	82195.9
-3.025	82271.7
-3.020	82436.6
-3.015	82411.6
-3.010	82113.8
-3.005	81779.1
-3.000	81688.2
-2.995	81776.2
-2.990	81860.2
-2.985	81887.1
-2.980	81917.0
-2.975	81975.0
-2.970	82024.0
-2.965	82095.9
-2.960	82168.9
-2.955	82149.9
-2.950	81998.0
-2.945	81832.2
-2.940	81795.3
-2.935	81871.2
-2.930	81972.1
-2.925	82009.1
-2.920	82009.1
-2.915	82018.1
-2.910	81993.1
-2.905	81949.1
-2.900	81971.1
-2.895	82030.1
-2.890	82064.1
-2.885	82035.1
-2.880	82025.2
-2.875	81995.2
-2.870	81943.3
-2.865	81916.3
-2.860	81920.3
-2.855	81931.3
-2.850	81953.2
-2.845	81928.2
-2.840	81939.2
-2.835	81996.2
-2.830	82042.1
-2.825	82013.2
-2.820	81985.2
-2.815	81953.2
-2.810	81904.2
-2.805	81857.3
-2.800	81890.3
-2.795	81972.2
-2.790	82027.2
-2.785	82032.2
-2.780	82000.2
-2.775	81994.2
-2.770	82009.2
-2.765	82035.2
-2.760	82025.3
-2.755	82074.2
-2.750	82103.2
-2.745	82056.3
-2.740	81995.4
-2.735	81955.4
-2.730	81945.4
-2.725	81952.4
-2.720	81966.4
-2.715	81926.4
-2.710	81913.4
-2.705	81917.4
-2.700	81981.4
-2.695	82005.4
-2.690	82023.4
-2.685	81992.4
-2.680	81957.5
-2.675	81958.5
-2.670	82018.4
-2.665	82036.4
-2.660	81965.5
-2.655	81910.6
-2.650	81912.6
-2.645	81884.6
-2.640	81839.6
-2.635	81799.6
-2.630	81813.6
-2.625	81835.6
-2.620	81857.6
-2.615	81914.5
-2.610	81944.5
-2.605	81956.5
-2.600	81940.5
-2.595	81931.5
-2.590	81916.5
-2.585	81913.5
-2.580	81897.6
-2.575	81893.6
-2.570	81888.6
-2.565	81926.6
-2.560	81931.6
-2.555	81907.6
-2.550	81917.6
-2.545	81953.5
-2.540	81987.5
-2.535	81986.5
-2.530	81948.6
-2.525	81934.6
-2.520	81928.6
-2.515	81906.6
-2.510	81852.6
-2.505	81801.7
-2.500	81822.7
-2.495	81831.7
-2.490	81833.7
-2.485	81837.7
-2.480	81842.7
-2.475	81826.7
-2.470	81822.7
-2.465	81833.7
-2.460	81854.7
-2.455	81860.7
-2.450	81863.7
-2.445	81824.7
-2.440	81804.7
-2.435	81798.7
-2.430	81782.7
-2.425	81759.8
-2.420	81790.8
-2.415	81845.7
-2.410	81881.7
-2.405	81874.7
-2.400	81879.7
-2.395	81872.7
-2.390	81862.7
-2.385	81844.8
-2.380	81816.8
-2.375	81789.8
-2.370	81798.8
-2.365	81857.8
-2.360	81892.7
-2.355	81915.7
-2.350	81919.7
-2.345	81900.7
-2.340	81900.7
-2.335	81881.8
-2.330	81880.8
-2.325	81868.8
-2.320	81887.8
-2.315	81898.7
-2.310	81898.7
-2.305	81914.7
-2.300	81936.7
-2.295	81949.7
-2.290	81952.7
-2.285	81980.7
-2.280	82001.6
-2.275	81996.6
-2.270	81982.7
-2.265	81942.7
-2.260	81919.7
-2.255	81901.7
-2.250	81911.7
-2.245	81898.7
-2.240	81915.7
-2.235	81943.7
-2.230	81969.6
-2.225	81973.6
-2.220	81991.6
-2.215	82000.6
-2.210	81993.6
-2.205	81974.6
-2.200	81987.6
-2.195	82007.6
-2.190	82037.6
-2.185	82045.6
-2.180	82028.6
-2.175	82017.6
-2.170	82019.6
-2.165	82051.6
-2.160	82051.6
-2.155	82048.6
-2.150	82050.6
-2.145	82047.7
-2.140	82048.7
-2.135	82040.7
-2.130	82072.7
-2.125	82090.6
-2.120	82102.6
-2.115	82066.6
-2.110	82010.7
-2.105	81975.7
-2.100	81991.7
-2.095	81992.7
-2.090	82006.7
-2.085	82017.7
-2.080	82032.6
-2.075	82041.6
-2.070	82042.6
-2.065	82044.6
-2.060	82042.6
-2.055	82031.6
-2.050	82019.6
-2.045	81997.7
-2.040	81999.7
-2.035	82005.7
-2.030	82021.7
-2.025	81997.7
-2.020	81987.7
-2.015	81977.7
-2.010	81998.7
-2.005	81988.7
-2.000	81986.7
-1.995	81979.7
-1.990	81978.7
-1.985	81988.7
-1.980	81976.7
-1.975	81973.7
-1.970	81964.7
-1.965	81993.7
-1.960	81990.7
-1.955	81981.7
-1.950	81997.6
-1.945	81984.6
-1.940	81983.6
-1.935	81975.6
-1.930	81989.6
-1.925	81998.6
-1.920	82012.6
-1.915	82007.6
-1.910	81988.6
-1.905	82011.6
-1.900	82061.5
-1.895	82071.5
-1.890	82061.5
-1.885	82052.6
-1.880	82036.6
-1.875	82024.6
-1.870	82004.6
-1.865	82000.6
-1.860	82004.6
-1.855	82013.6
-1.850	82019.6
-1.845	81992.6
-1.840	81994.6
-1.835	82015.6
-1.830	82035.6
-1.825	82014.6
-1.820	82002.6
-1.815	81985.7
-1.810	81968.7
-1.805	81951.7
-1.800	81963.6
-1.795	81955.6
-1.790	81950.6
-1.785	81952.6
-1.780	81926.6
-1.775	81917.6
-1.770	81947.6
-1.765	81981.5
-1.760	81984.5
-1.755	81987.5
-1.750	81991.5
-1.745	81998.5
-1.740	82011.4
-1.735	82027.4
-1.730	82044.4
-1.725	82063.4
-1.720	82077.4
-1.715	82075.4
-1.710	82050.4
-1.705	82038.5
-1.700	82086.4
-1.695	82094.4
-1.690	82091.5
-1.685	82078.5
-1.680	82085.5
-1.675	82091.5
-1.670	82091.4
-1.665	82099.4
-1.660	82122.4
-1.655	82130.4
-1.650	82132.4
-1.645	82122.4
-1.640	82117.4
-1.635	82129.4
-1.630	82137.4
-1.625	82128.4
-1.620	82127.4
-1.615	82102.4
-1.610	82096.4
-1.605	82082.4
-1.600	82075.4
-1.595	82073.4
-1.590	82069.4
-1.585	82063.4
-1.580	82044.4
-1.575	82016.4
-1.570	82026.4
-1.565	82058.3
-1.560	82052.3
-1.555	82046.3
-1.550	82034.3
-1.545	82013.3
-1.540	82003.3
-1.535	81999.3
-1.530	81995.3
-1.525	81973.4
-1.520	81972.4
-1.515	81944.4
-1.510	81926.4
-1.505	81919.4
-1.500	81956.3
-1.495	81936.4
-1.490	81930.4
-1.485	81916.4
-1.480	81927.3
-1.475	81925.3
-1.470	81934.3
-1.465	81931.3
-1.460	81933.3
-1.455	81940.3
-1.450	81946.3
-1.445	81925.3
-1.440	81929.3
-1.435	81964.3
-1.430	81997.3
-1.425	81999.3
-1.420	82001.2
-1.415	81994.3
-1.410	81994.3
-1.405	81991.3
-1.400	81998.3
-1.395	82008.3
-1.390	82004.3
-1.385	82016.2
-1.380	81974.3
-1.375	81971.3
-1.370	81971.2
-1.365	82000.2
-1.360	81981.2
-1.355	81982.2
-1.350	81975.2
-1.345	81966.2
-1.340	81953.2
-1.335	81944.2
-1.330	81950.2
-1.325	81954.2
-1.320	81961.1
-1.315	81953.1
-1.310	81945.1
-1.305	81950.1
-1.300	81984.1
-1.295	81988.1
-1.290	82000.1
-1.285	82012.1
-1.280	82013.1
-1.275	82014.1
-1.270	82025.1
-1.265	82042.1
-1.260	82054.1
-1.255	82057.1
-1.250	82057.1
-1.245	82023.1
-1.240	82024.1
-1.235	82047.0
-1.230	82062.0
-1.225	82070.0
-1.220	82066.0
-1.215	82063.0
-1.210	82085.0
-1.205	82083.0
-1.200	82097.0
-1.195	82115.9
-1.190	82124.9
-1.185	82137.9
-1.180	82120.9
-1.175	82104.0
-1.170	82110.0
-1.165	82132.9
-1.160	82107.0
-1.155	82102.0
-1.150	82107.0
-1.145	82091.0
-1.140	82096.0
-1.135	82080.0
-1.130	82083.0
-1.125	82070.9
-1.120	82058.9
-1.115	82033.9
-1.110	82019.9
-1.105	82012.9
-1.100	82032.9
-1.095	82024.9
-1.090	82013.9
-1.085	82013.9
-1.080	82015.9
-1.075	82023.8
-1.070	82020.8
-1.065	82021.8
-1.060	82038.8
-1.055	82056.8
-1.050	82056.8
-1.045	82031.8
-1.040	82033.8
-1.035	82061.8
-1.030	82086.8
-1.025	82100.8
-1.020	82123.7
-1.015	82124.7
-1.010	82122.7
-1.005	82124.7
-1.000	82141.7
-0.995	82144.7
-0.990	82137.7
-0.985	82125.7
-0.980	82082.7
-0.975	82048.8
-0.970	82034.8
-0.965	82027.8
-0.960	82009.8
-0.955	81980.8
-0.950	81961.8
-0.945	81950.8
-0.940	81935.8
-0.935	81929.8
-0.930	81926.8
-0.925	81933.8
-0.920	81928.8
-0.915	81913.8
-0.910	81880.8
-0.905	81872.8
-0.900	81904.8
-0.895	81908.7
-0.890	81905.7
-0.885	81905.7
-0.880	81907.7
-0.875	81909.7
-0.870	81912.7
-0.865	81904.7
-0.860	81915.7
-0.855	81910.7
-0.850	81911.7
-0.845	81880.7
-0.840	81888.7
-0.835	81910.7
-0.830	81909.7
-0.825	81910.7
-0.820	81913.7
-0.815	81903.7
-0.810	81917.6
-0.805	81929.6
-0.800	81938.6
-0.795	81958.6
-0.790	81976.6
-0.785	81982.6
-0.780	81968.6
-0.775	81951.6
-0.770	81975.5
-0.765	82002.5
-0.760	82011.5
-0.755	82000.5
-0.750	82005.5
-0.745	81992.5
-0.740	81981.5
-0.735	81959.5
-0.730	81974.5
-0.725	81953.5
-0.720	81965.5
-0.715	81941.5
-0.710	81924.5
-0.705	81928.5
-0.700	81946.4
-0.695	81941.4
-0.690	81925.4
-0.685	81916.5
-0.680	81913.5
-0.675	81897.5
-0.670	81902.4
-0.665	81896.4
-0.660	81894.4
-0.655	81897.4
-0.650	81883.4
-0.645	81845.4
-0.640	81829.4
-0.635	81853.4
-0.630	81859.4
-0.625	81859.4
-0.620	81865.4
-0.615	81854.4
-0.610	81869.4
-0.605	81893.3
-0.600	81917.3
-0.595	81918.3
-0.590	81917.3
-0.585	81900.3
-0.580	81858.3
-0.575	81834.4
-0.570	81851.3
-0.565	81876.3
-0.560	81882.3
-0.555	81903.3
-0.550	81920.3
-0.545	81914.3
-0.540	81929.3
-0.535	81936.3
-0.530	81932.2
-0.525	81925.2
-0.520	81926.2
-0.515	81909.3
-0.510	81894.3
-0.505	81880.3
-0.500	81903.2
-0.495	81872.2
-0.490	81847.3
-0.485	81843.3
-0.480	81839.3
-0.475	81841.2
-0.470	81842.2
-0.465	81846.2
-0.460	81831.2
-0.455	81827.2
-0.450	81800.2
-0.445	81786.2
-0.440	81784.2
-0.435	81801.2
-0.430	81797.2
-0.425	81759.2
-0.420	81727.2
-0.415	81698.2
-0.410	81662.3
-0.405	81627.3
-0.400	81628.3
-0.395	81622.3
-0.390	81642.2
-0.385	81657.2
-0.380	81650.2
-0.375	81652.2
-0.370	81677.2
-0.365	81697.2
-0.360	81704.2
-0.355	81688.2
-0.350	81698.1
-0.345	81694.1
-0.340	81703.1
-0.335	81697.1
-0.330	81707.1
-0.325	81709.1
-0.320	81707.1
-0.315	81695.1
-0.310	81712.1
-0.305	81729.1
-0.300	81759.0
-0.295	81757.0
-0.290	81755.0
-0.285	81781.0
-0.280	81820.0
-0.275	81866.9
-0.270	81890.9
-0.265	81878.9
-0.260	81852.0
-0.255	81842.9
-0.250	81857.9
-0.245	81853.9
-0.240	81881.9
-0.235	81908.9
-0.230	81915.9
-0.225	81907.9
-0.220	81914.8
-0.215	81934.8
-0.210	81951.8
-0.205	81960.8
-0.200	81976.8
-0.195	81981.8
-0.190	81964.8
-0.185	81986.8
-0.180	81997.8
-0.175	81974.8
-0.170	81980.8
-0.165	81949.8
-0.160	81921.9
-0.155	81917.9
-0.150	81924.9
-0.145	81915.9
-0.140	81941.9
-0.135	81952.9
-0.130	81956.9
-0.125	81938.8
-0.120	81900.8
-0.115	81828.8
-0.110	81797.7
-0.105	81836.6
-0.100	81892.5
-0.095	81884.4
-0.090	81880.2
-0.085	81850.1
-0.080	81781.1
-0.075	81729.1
-0.070	81763.0
-0.065	81824.0
-0.060	81872.1
-0.055	81884.2
-0.050	81895.4
-0.045	81898.6
-0.040	81864.8
-0.035	81851.0
-0.030	81891.2
-0.025	81941.2
-0.020	81927.3
-0.015	81863.3
-0.010	81797.3
-0.005	81749.2
0.000	81734.1
0.005	81777.9
0.010	81831.7
0.015	81880.5
0.020	81912.3
0.025	81921.2
0.030	81939.1
0.035	81920.1
0.040	81896.2
0.045	81885.2
0.050	81883.3
0.055	81894.3
0.060	81920.3
0.065	81942.3
0.070	81967.3
0.075	81949.4
0.080	81948.4
0.085	81922.4
0.090	81921.4
0.095	81919.4
0.100	81924.4
0.105	81893.4
0.110	81920.3
0.115	81978.3
0.120	82058.2
0.125	82052.2
0.130	82015.2
0.135	81968.2
0.140	81958.2
0.145	81952.2
0.150	81948.2
0.155	81922.2
0.160	81921.2
0.165	81958.2
0.170	81959.2
0.175	81965.2
0.180	81963.2
0.185	81954.2
0.190	81954.1
0.195	81964.1
0.200	81993.1
0.205	82012.1
0.210	82020.1
0.215	82011.1
0.220	81973.1
0.225	81946.1
0.230	81956.1
0.235	81973.1
0.240	81986.1
0.245	82003.0
0.250	82001.0
0.255	81991.0
0.260	81985.0
0.265	81980.0
0.270	81981.0
0.275	81970.1
0.280	81976.0
0.285	81947.1
0.290	81927.1
0.295	81921.1
0.300	81952.1
0.305	81978.0
0.310	82021.0
0.315	82025.0
0.320	82025.0
0.325	82001.0
0.330	81987.0
0.335	81981.0
0.340	81979.0
0.345	81964.0
0.350	81930.0
0.355	81897.0
0.360	81910.0
0.365	81958.0
0.370	81978.0
0.375	81980.0
0.380	81989.9
0.385	82007.9
0.390	82013.9
0.395	82024.9
0.400	82026.9
0.405	82028.9
0.410	82047.8
0.415	82031.9
0.420	82002.9
0.425	81980.9
0.430	82009.8
0.435	82034.8
0.440	82050.8
0.445	82060.8
0.450	82064.8
0.455	82052.8
0.460	82045.8
0.465	82030.8
0.470	82023.8
0.475	82013.8
0.480	82002.8
0.485	81957.8
0.490	81941.8
0.495	81945.8
0.500	81979.7
0.505	81998.7
0.510	81997.7
0.515	81990.7
0.520	82013.7
0.525	82014.7
0.530	82028.6
0.535	82023.6
0.540	82023.6
0.545	82009.6
0.550	82000.6
0.555	81976.6
0.560	81970.6
0.565	81991.6
0.570	81996.6
0.575	82000.6
0.580	82006.6
0.585	82007.6
0.590	82016.6
0.595	81995.6
0.600	81985.6
0.605	81989.6
0.610	81990.6
0.615	81981.6
0.620	81958.6
0.625	81947.6
0.630	81966.6
0.635	81994.5
0.640	82005.5
0.645	82007.5
0.650	81990.5
0.655	81983.5
0.660	81978.5
0.665	81975.5
0.670	81978.5
0.675	81978.5
0.680	82005.5
0.685	81986.5
0.690	81980.5
0.695	81997.5
0.700	82009.5
0.705	82005.5
0.710	82003.5
0.715	82000.5
0.720	81997.5
0.725	82008.5
0.730	81999.5
0.735	82008.5
0.740	82000.5
0.745	82004.5
0.750	81987.5
0.755	81954.5
0.760	81956.5
0.765	81982.4
0.770	81984.4
0.775	81972.4
0.780	81982.4
0.785	81974.4
0.790	81977.4
0.795	81994.3
0.800	82001.3
0.805	82014.3
0.810	82021.3
0.815	82019.3
0.820	81989.3
0.825	81981.3
0.830	81991.3
0.835	82007.3
0.840	82018.2
0.845	82018.2
0.850	82036.2
0.855	82038.2
0.860	82021.2
0.865	82000.2
0.870	82004.2
0.875	81996.2
0.880	81992.2
0.885	81972.2
0.890	81956.2
0.895	81970.2
0.900	81988.2
0.905	81989.1
0.910	81973.2
0.915	81969.1
0.920	81964.1
0.925	81950.2
0.930	81945.2
0.935	81929.2
0.940	81938.2
0.945	81938.2
0.950	81922.2
0.955	81896.2
0.960	81901.2
0.965	81933.2
0.970	81946.2
0.975	81962.1
0.980	81978.1
0.985	81993.1
0.990	81995.1
0.995	82003.1
1.000	82007.1
1.005	82013.1
1.010	82018.1
1.015	82007.1
1.020	81995.1
1.025	81983.1
1.030	82015.1
1.035	82021.0
1.040	82016.0
1.045	82014.0
1.050	82016.0
1.055	82007.0
1.060	82001.0
1.065	82006.0
1.070	82005.0
1.075	82018.0
1.080	82027.0
1.085	82006.0
1.090	81971.0
1.095	81976.0
1.100	81987.0
1.105	81989.0
1.110	81974.0
1.115	81975.0
1.120	81969.0
1.125	81971.0
1.130	81972.0
1.135	81981.0
1.140	81995.0
1.145	81992.9
1.150	81980.0
1.155	81970.9
1.160	81985.9
1.165	82023.9
1.170	82030.9
1.175	82025.9
1.180	82020.9
1.185	82014.8
1.190	82007.8
1.195	82003.8
1.200	82002.8
1.205	82011.8
1.210	82027.8
1.215	82019.8
1.220	82002.8
1.225	81984.8
1.230	82002.8
1.235	82007.8
1.240	82004.8
1.245	82014.8
1.250	82017.8
1.255	82012.8
1.260	82014.8
1.265	82016.8
1.270	82019.8
1.275	82022.8
1.280	82021.8
1.285	82003.8
1.290	82001.8
1.295	82024.8
1.300	82055.7
1.305	82035.7
1.310	82009.8
1.315	82002.8
1.320	81989.7
1.325	81986.7
1.330	81982.7
1.335	81990.8
1.340	82000.7
1.345	82004.8
1.350	81976.8
1.355	81954.8
1.360	81952.8
1.365	81976.8
1.370	82003.8
1.375	82000.8
1.380	82023.8
1.385	82036.7
1.390	82036.7
1.395	82042.7
1.400	82023.7
1.405	82017.7
1.410	82024.7
1.415	82012.7
1.420	82000.7
1.425	81988.7
1.430	82002.6
1.435	82001.6
1.440	82000.6
1.445	81987.6
1.450	82003.6
1.455	81999.6
1.460	81993.6
1.465	81994.6
1.470	81984.6
1.475	81995.6
1.480	82005.6
1.485	81972.6
1.490	81963.6
1.495	81971.6
1.500	81989.6
1.505	81995.6
1.510	82021.5
1.515	82025.5
1.520	82032.5
1.525	82044.5
1.530	82048.5
1.535	82047.5
1.540	82038.5
1.545	82021.5
1.550	81982.5
1.555	81966.5
1.560	81970.5
1.565	82000.5
1.570	82023.5
1.575	82015.5
1.580	82036.5
1.585	82032.5
1.590	82030.5
1.595	82040.5
1.600	82036.5
1.605	82046.5
1.610	82052.5
1.615	82056.5
1.620	82043.5
1.625	82056.5
1.630	82089.4
1.635	82098.4
1.640	82089.4
1.645	82071.4
1.650	82064.4
1.655	82050.4
1.660	82053.4
1.665	82052.4
1.670	82054.4
1.675	82046.4
1.680	82042.4
1.685	82009.4
1.690	82005.4
1.695	82030.4
1.700	82058.4
1.705	82047.4
1.710	82035.4
1.715	82037.4
1.720	82039.4
1.725	82050.4
1.730	82074.4
1.735	82073.4
1.740	82096.3
1.745	82097.3
1.750	82062.4
1.755	82019.4
1.760	82010.4
1.765	82041.4
1.770	82043.4
1.775	82017.4
1.780	82024.4
1.785	82010.4
1.790	82024.4
1.795	82029.4
1.800	82030.4
1.805	82025.4
1.810	82023.4
1.815	82016.4
1.820	82014.4
1.825	82006.4
1.830	82044.4
1.835	82051.3
1.840	82040.3
1.845	82037.3
1.850	82020.3
1.855	82012.3
1.860	82022.3
1.865	82018.3
1.870	82024.3
1.875	82014.3
1.880	82005.3
1.885	81978.4
1.890	81978.4
1.895	82000.3
1.900	82044.3
1.905	82054.3
1.910	82060.3
1.915	82072.3
1.920	82073.3
1.925	82065.3
1.930	82056.3
1.935	82024.3
1.940	82010.3
1.945	81998.4
1.950	81979.4
1.955	81967.4
1.960	81989.4
1.965	82023.3
1.970	82033.3
1.975	82031.3
1.980	82053.3
1.985	82061.3
1.990	82056.3
1.995	82032.3
2.000	82009.3
2.005	82022.3
2.010	82050.2
2.015	82051.2
2.020	82035.2
2.025	82039.2
2.030	82066.2
2.035	82061.2
2.040	82060.2
2.045	82046.2
2.050	82048.2
2.055	82048.2
2.060	82055.2
2.065	82053.2
2.070	82025.3
2.075	82027.3
2.080	82026.3
2.085	82005.3
2.090	81988.3
2.095	81999.3
2.100	81972.4
2.105	81952.4
2.110	81940.4
2.115	81951.4
2.120	81999.4
2.125	82018.4
2.130	82039.4
2.135	82047.4
2.140	82034.4
2.145	82024.4
2.150	82013.3
2.155	81981.4
2.160	82013.3
2.165	82021.3
2.170	81998.3
2.175	81990.3
2.180	81996.3
2.185	81980.3
2.190	81986.3
2.195	81965.3
2.200	81966.3
2.205	81962.3
2.210	81958.3
2.215	81929.4
2.220	81930.4
2.225	81941.4
2.230	81996.3
2.235	81985.4
2.240	81982.4
2.245	81965.4
2.250	81959.4
2.255	81946.4
2.260	81944.4
2.265	81948.4
2.270	81944.4
2.275	81956.4
2.280	81972.4
2.285	81941.4
2.290	81931.4
2.295	81949.4
2.300	81968.3
2.305	81971.3
2.310	81977.3
2.315	81960.3
2.320	81958.3
2.325	81949.3
2.330	81969.3
2.335	81955.3
2.340	81918.4
2.345	81914.4
2.350	81894.4
2.355	81895.4
2.360	81926.4
2.365	81960.3
2.370	81981.3
2.375	81965.4
2.380	81944.4
2.385	81899.4
2.390	81873.5
2.395	81870.5
2.400	81879.5
2.405	81908.5
2.410	81937.5
2.415	81932.5
2.420	81930.5
2.425	81928.5
2.430	81959.5
2.435	81943.5
2.440	81929.5
2.445	81923.5
2.450	81932.5
2.455	81937.5
2.460	81956.5
2.465	81955.5
2.470	81935.5
2.475	81928.5
2.480	81922.5
2.485	81895.5
2.490	81907.5
2.495	81919.5
2.500	81933.5
2.505	81913.5
2.510	81902.5
2.515	81894.5
2.520	81872.5
2.525	81864.6
2.530	81882.6
2.535	81909.6
2.540	81939.5
2.545	81959.5
2.550	81926.5
2.555	81885.6
2.560	81886.6
2.565	81899.6
2.570	81904.6
2.575	81914.6
2.580	81933.6
2.585	81964.5
2.590	81990.5
2.595	82003.5
2.600	81998.5
2.605	81987.5
2.610	81981.5
2.615	81947.5
2.620	81932.5
2.625	81912.5
2.630	81921.5
2.635	81907.6
2.640	81927.6
2.645	81931.6
2.650	81933.6
2.655	81922.6
2.660	81928.6
2.665	81931.6
2.670	81941.6
2.675	81936.6
2.680	81930.7
2.685	81912.7
2.690	81941.7
2.695	81970.7
2.700	81991.7
2.705	81988.7
2.710	81991.7
2.715	81978.7
2.720	81966.7
2.725	81947.7
2.730	81945.7
2.735	81939.7
2.740	81944.7
2.745	81933.8
2.750	81910.8
2.755	81899.8
2.760	81919.8
2.765	81933.8
2.770	81923.8
2.775	81909.8
2.780	81906.9
2.785	81894.9
2.790	81869.9
2.795	81848.9
2.800	81863.9
2.805	81893.9
2.810	81896.9
2.815	81871.9
2.820	81844.9
2.825	81839.9
2.830	81866.9
2.835	81851.9
2.840	81851.9
2.845	81837.9
2.850	81844.9
2.855	81835.9
2.860	81844.9
2.865	81850.9
2.870	81865.9
2.875	81873.9
2.880	81873.0
2.885	81862.0
2.890	81876.0
2.895	81920.0
2.900	81942.0
2.905	81928.0
2.910	81921.0
2.915	81915.0
2.920	81913.0
2.925	81924.0
2.930	81936.0
2.935	81931.0
2.940	81930.0
2.945	81925.1
2.950	81936.1
2.955	81945.1
2.960	81964.1
2.965	81983.0
2.970	81985.0
2.975	81980.1
2.980	81961.1
2.985	81945.1
2.990	81932.1
2.995	81924.1
3.000	81927.1
3.005	81942.1
3.010	81951.1
3.015	81927.2
3.020	81919.2
3.025	81938.2
3.030	81983.2
3.035	81988.2
3.040	81995.2
3.045	82004.2
3.050	82013.2
3.055	82006.2
3.060	81991.2
3.065	81965.2
3.070	81969.2
3.075	81990.2
3.080	81985.2
3.085	81967.2
3.090	81966.3
3.095	82017.2
3.100	82029.2
3.105	82037.2
3.110	82016.3
3.115	81997.3
3.120	82000.3
3.125	81992.3
3.130	82026.3
3.135	82044.3
3.140	82056.3
3.145	82052.3
3.150	82007.3
3.155	81983.4
3.160	81995.4
3.165	81986.4
3.170	81987.4
3.175	81980.4
3.180	81984.4
3.185	82007.4
3.190	82019.4
3.195	82039.4
3.200	82047.4
3.205	82056.4
3.210	82058.4
3.215	82048.4
3.220	82046.5
3.225	82041.5
3.230	82061.5
3.235	82049.5
3.240	82058.5
3.245	82062.5
3.250	82081.4
3.255	82085.4
3.260	82091.4
3.265	82097.4
3.270	82087.4
3.275	82067.4
3.280	82033.5
3.285	81998.5
3.290	81992.5
3.295	82038.4
3.300	82044.4
3.305	82044.3
3.310	82055.3
3.315	82075.3
3.320	82128.2
3.325	82116.2
3.330	82091.2
3.335	82032.3
3.340	81972.3
3.345	81929.4
3.350	81950.4
3.355	82006.4
3.360	82065.4
3.365	82090.5
3.370	82091.6
3.375	82098.7
3.380	82072.8
3.385	82006.0
3.390	81950.2
3.395	82011.3
3.400	82105.3
3.405	82111.4
3.410	82079.4
3.415	82028.4
3.420	82029.4
3.425	82036.4
3.430	82081.4
3.435	82079.3
3.440	82073.4
3.445	82072.4
3.450	82063.4
3.455	82062.4
3.460	82059.4
3.465	82070.4
3.470	82080.4
3.475	82083.5
3.480	82070.5
3.485	82036.6
3.490	82048.7
3.495	82097.7
3.500	82117.7
3.505	82122.8
3.510	82138.9
3.515	82138.9
3.520	82128.0
3.525	82126.1
3.530	82117.1
3.535	82098.2
3.540	82097.3
3.545	82096.3
3.550	82069.4
3.555	82053.5
3.560	82072.5
3.565	82087.5
3.570	82082.6
3.575	82064.6
3.580	82074.6
3.585	82064.7
3.590	82059.7
3.595	82052.7
3.600	82056.7
3.605	82053.7
3.610	82068.8
3.615	82042.8
3.620	82031.8
3.625	82028.8
3.630	82063.8
3.635	82062.8
3.640	82068.8
3.645	82055.8
3.650	82049.9
3.655	82052.9
3.660	82071.9
3.665	82081.9
3.670	82070.9
3.675	82040.0
3.680	82012.0
3.685	81983.0
3.690	81979.0
3.695	82008.0
3.700	82005.1
3.705	81999.1
3.710	81994.1
3.715	81989.1
3.720	81980.1
3.725	81985.1
3.730	81976.2
3.735	81970.2
3.740	81973.2
3.745	81985.2
3.750	81961.3
3.755	81926.3
3.760	81941.3
3.765	81952.3
3.770	81968.3
3.775	81964.4
3.780	81971.4
3.785	81964.4
3.790	81961.4
3.795	81953.5
3.800	81971.5
3.805	81972.5
3.810	81982.5
3.815	81952.6
3.820	81938.6
3.825	81952.7
3.830	81974.7
3.835	81985.7
3.840	81996.7
3.845	81998.8
3.850	81996.8
3.855	81989.9
3.860	81987.9
3.865	81977.9
3.870	81978.0
3.875	81979.0
3.880	81956.1
3.885	81931.1
3.890	81912.2
3.895	81944.2
3.900	81932.3
3.905	81938.3
3.910	81935.4
3.915	81936.4
3.920	81932.5
3.925	81930.5
3.930	81922.6
3.935	81905.7
3.940	81897.8
3.945	81855.9
3.950	81780.0
3.955	81732.1
3.960	81732.2
3.965	81710.4
3.970	81749.4
3.975	81615.7
3.980	81094.2
3.985	80779.6
3.990	81008.6
3.995	81363.5
4.000	81509.7
4.005	81588.9
4.010	81595.2
4.015	81392.6
4.020	81086.1
4.025	81012.4
4.030	81164.6
4.035	81203.8
4.040	81166.0
4.045	81081.2
4.050	81042.3
4.055	81024.3
4.060	81005.1
4.065	80950.9
4.070	80931.5
4.075	80952.0
4.080	81011.3
4.085	81117.5
4.090	81254.5
4.095	81418.5
4.100	81576.5
4.105	81700.7
4.110	81809.0
4.115	81872.5
4.120	81915.2
4.125	81945.0
4.130	81953.8
4.135	81935.8
4.140	81919.7
4.145	81898.7
4.150	81885.7
4.155	81886.7
4.160	81918.6
4.165	81940.6
4.170	81949.6
4.175	81946.6
4.180	81932.6
4.185	81931.6
4.190	81921.6
4.195	81913.6
4.200	81905.6
4.205	81902.6
4.210	81912.6
4.215	81878.6
4.220	81870.6
4.225	81876.6
4.230	81904.6
4.235	81896.6
4.240	81906.6
4.245	81872.6
4.250	81814.7
4.255	81752.7
4.260	81767.7
4.265	81830.6
4.270	81878.6
4.275	81896.6
4.280	81898.6
4.285	81886.6
4.290	81895.6
4.295	81930.5
4.300	81938.5
4.305	81923.5
4.310	81904.5
4.315	81877.6
4.320	81873.6
4.325	81855.6
4.330	81876.5
4.335	81877.5
4.340	81897.5
4.345	81904.5
4.350	81895.5
4.355	81895.5
4.360	81906.5
4.365	81899.5
4.370	81889.5
4.375	81907.5
4.380	81902.5
4.385	81904.5
4.390	81895.5
4.395	81899.5
4.400	81909.5
4.405	81932.4
4.410	81937.4
4.415	81895.5
4.420	81893.5
4.425	81903.5
4.430	81936.4
4.435	81944.4
4.440	81941.4
4.445	81932.4
4.450	81939.4
4.455	81935.4
4.460	81942.4
4.465	81940.4
4.470	81947.4
4.475	81934.4
4.480	81911.4
4.485	81909.4
4.490	81916.4
4.495	81943.4
4.500	81956.3
4.505	81955.3
4.510	81960.3
4.515	81957.3
4.520	81960.3
4.525	81969.3
4.530	81983.3
4.535	81968.3
4.540	81958.3
4.545	81973.3
4.550	81960.3
4.555	81950.3
4.560	81967.3
4.565	81966.3
4.570	81980.2
4.575	81987.2
4.580	81984.2
4.585	81987.2
4.590	81983.3
4.595	81969.3
4.600	81973.3
4.605	81967.3
4.610	81963.3
4.615	81931.3
4.620	81938.3
4.625	81942.3
4.630	81970.2
4.635	81980.2
4.640	81995.2
4.645	81992.2
4.650	81974.2
4.655	81972.2
4.660	81960.2
4.665	81946.2
4.670	81943.2
4.675	81937.2
4.680	81906.2
4.685	81871.2
4.690	81871.2
4.695	81887.2
4.700	81915.1
4.705	81977.1
4.710	82010.1
4.715	81996.1
4.720	81976.1
4.725	81955.1
4.730	81953.1
4.735	81928.1
4.740	81926.1
4.745	81914.1
4.750	81880.1
4.755	81883.1
4.760	81925.1
4.765	81939.1
4.770	81958.1
4.775	81970.0
4.780	81955.0
4.785	81936.0
4.790	81927.0
4.795	81896.0
4.800	81913.0
4.805	81903.0
4.810	81916.0
4.815	81908.0
4.820	81915.0
4.825	81931.9
4.830	81950.9
4.835	81961.9
4.840	81981.9
4.845	81962.9
4.850	81952.9
4.855	81927.9
4.860	81922.9
4.865	81937.9
4.870	81943.9
4.875	81947.8
4.880	81918.9
4.885	81914.9
4.890	81920.9
4.895	81954.8
4.900	81965.8
4.905	81957.8
4.910	81942.8
4.915	81935.8
4.920	81950.8
4.925	81963.8
4.930	81975.8
4.935	81993.7
4.940	82007.7
4.945	82012.7
4.950	81974.7
4.955	81953.7
4.960	81960.7
4.965	81949.7
4.970	81946.7
4.975	81954.6
4.980	81961.6
4.985	81965.6
4.990	81982.6
4.995	81981.6
5.000	81995.5
5.005	81975.5
5.010	81976.5
5.015	81949.5
5.020	81940.5
5.025	81959.5
5.030	81969.4
5.035	81949.4
5.040	81927.4
5.045	81921.4
5.050	81927.4
5.055	81926.4
5.060	81944.4
5.065	81967.3
5.070	81982.3
5.075	81992.2
5.080	81971.2
5.085	81944.2
5.090	81939.2
5.095	81970.2
5.100	81973.1
5.105	81975.1
5.110	81967.1
5.115	81963.1
5.120	81964.1
5.125	81968.1
5.130	82010.0
5.135	82016.0
5.140	81993.0
5.145	81956.0
5.150	81949.9
5.155	81957.9
5.160	81987.8
5.165	81985.8
5.170	81980.8
5.175	81986.7
5.180	82018.7
5.185	82020.6
5.190	82008.6
5.195	82011.5
5.200	82044.5
5.205	82040.4
5.210	82031.4
5.215	81998.3
5.220	82004.3
5.225	82020.2
5.230	82060.1
5.235	82074.0
5.240	82095.0
5.245	82095.9
5.250	82097.8
5.255	82076.8
5.260	82047.7
5.265	82042.6
5.270	82034.6
5.275	82032.5
5.280	82005.4
5.285	81980.3
5.290	81999.1
5.295	81997.0
5.300	81991.8
5.305	81964.7
5.310	81957.5
5.315	81936.3
5.320	81904.0
5.325	81836.8
5.330	81792.5
5.335	81706.3
5.340	81640.1
5.345	81533.9
5.350	81430.9
5.355	81348.8
5.360	81264.8
5.365	81197.9
5.370	81176.1
5.375	81127.3
5.380	81101.7
5.385	81125.2
5.390	81151.7
5.395	81162.2
5.400	81203.0
5.405	81301.9
5.410	81463.8
5.415	81633.5
5.420	81799.0
5.425	81920.3
5.430	81988.5
5.435	82005.5
5.440	82020.6
5.445	82022.6
5.450	82023.6
5.455	82020.6
5.460	82024.6
5.465	82032.6
5.470	82030.6
5.475	82040.6
5.480	82022.6
5.485	81998.6
5.490	81997.6
5.495	82027.6
5.500	82026.6
5.505	82012.6
5.510	82024.6
5.515	82020.6
5.520	82021.6
5.525	82018.6
5.530	82012.6
5.535	82017.6
5.540	82013.6
5.545	81999.6
5.550	81984.6
5.555	81972.6
5.560	82002.6
5.565	82006.6
5.570	82008.6
5.575	81999.6
5.580	82006.6
5.585	82003.6
5.590	82005.6
5.595	82002.6
5.600	82008.6
5.605	82017.6
5.610	82017.6
5.615	81987.6
5.620	81970.6
5.625	81983.6
5.630	82003.6
5.635	82004.6
5.640	82002.6
5.645	82005.6
5.650	82009.6
5.655	82000.6
5.660	81998.7
5.665	81991.7
5.670	81993.7
5.675	81996.7
5.680	81979.7
5.685	81955.8
5.690	81982.8
5.695	82004.7
5.700	82012.8
5.705	82003.8
5.710	81998.8
5.715	82005.8
5.720	82005.8
5.725	81997.8
5.730	82001.8
5.735	82001.8
5.740	82005.8
5.745	82004.7
5.750	81974.8
5.755	81973.7
5.760	82006.7
5.765	82006.7
5.770	82005.7
5.775	82008.7
5.780	82005.7
5.785	82005.7
5.790	81996.7
5.795	81997.7
5.800	81999.6
5.805	81996.6
5.810	81987.7
5.815	81958.7
5.820	81953.7
5.825	81987.6
5.830	81990.6
5.835	81998.6
5.840	81995.6
5.845	81983.7
5.850	81970.7
5.855	81971.7
5.860	81971.7
5.865	81969.7
5.870	81986.6
5.875	81984.7
5.880	81978.7
5.885	81955.7
5.890	81960.7
5.895	81979.7
5.900	81976.7
5.905	81973.7
5.910	81969.7
5.915	81954.7
5.920	81955.7
5.925	81959.7
5.930	81968.7
5.935	81972.7
5.940	81973.7
5.945	81942.7
5.950	81932.7
5.955	81935.7
5.960	81975.7
5.965	81970.7
5.970	81966.7
5.975	81961.7
5.980	81958.7
5.985	81958.7
5.990	81954.7
5.995	81960.7
6.000	81973.7
6.005	81975.7
6.010	81977.7
6.015	81953.7
6.020	81942.7
6.025	81965.7
6.030	81983.7
6.035	81976.7
6.040	81972.7
6.045	81963.7
6.050	81963.7
6.055	81964.7
6.060	81961.7
6.065	81962.7
6.070	81958.7
6.075	81971.7
6.080	81942.7
6.085	81922.7
6.090	81935.7
6.095	81954.7
6.100	81955.7
6.105	81954.7
6.110	81952.7
6.115	81955.7
6.120	81961.7
6.125	81940.7
6.130	81948.7
6.135	81942.7
6.140	81949.7
6.145	81922.7
6.150	81919.7
6.155	81922.7
6.160	81954.7
6.165	81947.7
6.170	81956.7
6.175	81954.7
6.180	81950.7
6.185	81939.7
6.190	81943.7
6.195	81933.7
6.200	81936.7
6.205	81927.7
6.210	81912.7
6.215	81887.8
6.220	81882.8
6.225	81906.7
6.230	81911.7
6.235	81906.7
6.240	81912.7
6.245	81911.7
6.250	81906.7
6.255	81906.7
6.260	81893.8
6.265	81900.8
6.270	81901.8
6.275	81894.8
6.280	81881.8
6.285	81855.8
6.290	81862.8
6.295	81875.8
6.300	81877.8
6.305	81875.8
6.310	81885.8
6.315	81879.8
6.320	81879.8
6.325	81871.8
6.330	81866.8
6.335	81871.8
6.340	81878.8
6.345	81847.8
6.350	81830.8
6.355	81838.8
6.360	81869.8
6.365	81873.8
6.370	81884.8
6.375	81870.8
6.380	81900.8
6.385	81872.8
6.390	81871.8
6.395	81879.8
6.400	81891.8
6.405	81901.8
6.410	81909.8
6.415	81869.8
6.420	81867.8
6.425	81898.8
6.430	81907.8
6.435	81913.8
6.440	81913.8
6.445	81922.8
6.450	81915.8
6.455	81920.8
6.460	81911.8
6.465	81912.8
6.470	81925.7
6.475	81917.8
6.480	81906.8
6.485	81886.8
6.490	81899.8
6.495	81926.8
6.500	81919.8
6.505	81927.8
6.510	81918.8
6.515	81924.8
6.520	81928.8
6.525	81928.8
6.530	81931.8
6.535	81933.7
6.540	81949.7
6.545	81938.7
6.550	81917.8
6.555	81922.8
6.560	81962.7
6.565	81964.7
6.570	81972.7
6.575	81960.7
6.580	81956.7
6.585	81947.7
6.590	81952.7
6.595	81951.7
6.600	81960.7
6.605	81956.7
6.610	81956.7
6.615	81921.8
6.620	81928.8
6.625	81957.7
6.630	81967.7
6.635	81969.7
6.640	81976.7
6.645	81970.7
6.650	81983.7
6.655	81970.7
6.660	81982.7
6.665	81989.7
6.670	82006.7
6.675	81997.7
6.680	81989.7
6.685	81957.7
6.690	81977.7
6.695	82003.7
6.700	82008.7
6.705	82003.7
6.710	81995.7
6.715	81993.7
6.720	81992.7
6.725	82000.7
6.730	82003.7
6.735	81997.7
6.740	81989.7
6.745	81983.7
6.750	81984.7
6.755	81987.7
6.760	82018.7
6.765	82036.7
6.770	82021.7
6.775	82023.7
6.780	82047.7
6.785	82047.7
6.790	82044.7
6.795	82046.7
6.800	82046.7
6.805	82060.7
6.810	82055.7
6.815	82023.7
6.820	82023.7
6.825	82041.7
6.830	82051.7
6.835	82057.7
6.840	82050.7
6.845	82052.7
6.850	82058.7
6.855	82056.7
6.860	82051.7
6.865	82049.7
6.870	82054.7
6.875	82052.7
6.880	82040.7
6.885	82034.7
6.890	82062.7
6.895	82079.7
6.900	82071.7
6.905	82078.7
6.910	82089.7
6.915	82077.7
6.920	82081.7
6.925	82084.7
6.930	82082.7
6.935	82092.7
6.940	82100.6
6.945	82088.7
6.950	82059.7
6.955	82082.7
6.960	82099.6
6.965	82103.6
6.970	82097.7
6.975	82108.6
6.980	82103.6
6.985	82092.7
6.990	82097.7
6.995	82101.7
7.000	82096.7
7.005	82093.7
7.010	82079.7
7.015	82060.7
7.020	82060.7
7.025	82085.7
7.030	82089.7
7.035	82092.7
7.040	82092.7
7.045	82091.7
7.050	82085.7
7.055	82090.7
7.060	82097.7
7.065	82081.7
7.070	82100.7
7.075	82098.7
7.080	82087.7
7.085	82062.7
7.090	82083.7
7.095	82088.7
7.100	82088.7
7.105	82090.7
7.110	82091.7
7.115	82093.7
7.120	82090.7
7.125	82079.7
7.130	82074.7
7.135	82070.7
7.140	82084.7
7.145	82044.7
7.150	82032.7
7.155	82045.7
7.160	82068.7
7.165	82064.7
7.170	82055.7
7.175	82047.7
7.180	82048.7
7.185	82051.7
7.190	82047.7
7.195	82042.7
7.200	82059.7
7.205	82059.7
7.210	82049.7
7.215	82018.7
7.220	82026.7
7.225	82046.7
7.230	82050.7
7.235	82046.7
7.240	82041.7
7.245	82041.7
7.250	82043.7
7.255	82038.7
7.260	82032.7
7.265	82036.7
7.270	82035.7
7.275	82022.7
7.280	81991.8
7.285	81985.8
7.290	82017.7
7.295	82015.7
7.300	82007.8
7.305	82001.8
7.310	82001.8
7.315	81993.8
7.320	81988.8
7.325	81982.8
7.330	81982.8
7.335	81986.8
7.340	81993.8
7.345	81961.8
7.350	81941.8
7.355	81950.8
7.360	81980.8
7.365	81962.8
7.370	81972.8
7.375	81968.8
7.380	81963.8
7.385	81948.8
7.390	81938.8
7.395	81929.8
7.400	81930.8
7.405	81917.8
7.410	81911.8
7.415	81888.9
7.420	81885.9
7.425	81909.8
7.430	81900.9
7.435	81897.8
7.440	81892.9
7.445	81887.9
7.450	81876.9
7.455	81868.9
7.460	81866.9
7.465	81865.9
7.470	81863.9
7.475	81861.9
7.480	81844.9
7.485	81833.9
7.490	81857.9
7.495	81862.9
7.500	81869.9
7.505	81872.9
7.510	81880.9
7.515	81877.9
7.520	81871.9
7.525	81872.9
7.530	81875.9
7.535	81870.9
7.540	81873.9
7.545	81848.9
7.550	81851.9
7.555	81870.9
7.560	81908.9
7.565	81894.9
7.570	81896.9
7.575	81889.9
7.580	81894.9
7.585	81889.9
7.590	81904.9
7.595	81913.9
7.600	81925.9
7.605	81930.9
7.610	81931.9
7.615	81907.9
7.620	81904.9
7.625	81941.9
7.630	81948.8
7.635	81946.8
7.640	81956.8
7.645	81954.8
7.650	81957.8
7.655	81958.8
7.660	81958.8
7.665	81950.8
7.670	81966.8
7.675	81958.8
7.680	81936.9
7.685	81930.9
7.690	81954.9
7.695	81951.9
7.700	81956.9
7.705	81960.8
7.710	81968.8
7.715	81963.9
7.720	81958.9
7.725	81956.9
7.730	81969.8
7.735	81974.8
7.740	81981.8
7.745	81950.9
7.750	81946.9
7.755	81939.9
7.760	81962.9
7.765	81966.9
7.770	81979.8
7.775	81980.8
7.780	81968.9
7.785	81965.9
7.790	81957.9
7.795	81950.9
7.800	81950.9
7.805	81939.9
7.810	81921.9
7.815	81901.9
7.820	81885.9
7.825	81899.9
7.830	81901.9
7.835	81896.9
7.840	81880.9
7.845	81861.9
7.850	81872.9
7.855	81878.9
7.860	81902.9
7.865	81932.9
7.870	81959.9
7.875	81978.9
7.880	81960.9
7.885	81955.9
7.890	81997.8
7.895	82007.8
7.900	82010.8
7.905	82015.8
7.910	82010.8
7.915	82017.8
7.920	82020.8
7.925	82018.8
7.930	82024.8
7.935	82024.8
7.940	82022.8
7.945	81994.9
7.950	81990.9
7.955	81999.9
7.960	82018.8
7.965	82014.9
7.970	82024.8
7.975	82018.9
7.980	82015.9
7.985	82022.9
7.990	82023.9
7.995	82020.9
8.000	82028.9
8.005	82038.8
8.010	82026.9
8.015	82008.9
8.020	82005.9
8.025	82036.9
8.030	82033.9
8.035	82042.8
8.040	82048.8
8.045	82041.9
8.050	82042.9
8.055	82038.9
8.060	82050.9
8.065	82050.9
8.070	82052.9
8.075	82044.9
8.080	82022.9
8.085	82013.9
8.090	82034.9
8.095	82039.9
8.100	82039.9
8.105	82025.9
8.110	82016.9
8.115	82023.9
8.120	82027.9
8.125	82026.9
8.130	82037.9
8.135	82046.9
8.140	82053.9
8.145	82034.9
8.150	82017.9
8.155	82029.9
8.160	82050.9
8.165	82047.9
8.170	82052.9
8.175	82048.9
8.180	82051.9
8.185	82045.9
8.190	82048.9
8.195	82055.9
8.200	82055.9
8.205	82061.9
8.210	82038.9
8.215	82014.9
8.220	82027.9
8.225	82058.9
8.230	82056.9
8.235	82041.9
8.240	82040.9
8.245	82029.9
8.250	82035.9
8.255	82029.9
8.260	82024.9
8.265	82020.9
8.270	82028.9
8.275	81998.0
8.280	81966.0
8.285	81951.0
8.290	81973.0
8.295	81977.0
8.300	81989.0
8.305	81981.0
8.310	81995.0
8.315	82008.0
8.320	82015.0
8.325	82004.0
8.330	81994.0
8.335	81974.0
8.340	81929.0
8.345	81831.1
8.350	81748.2
8.355	81717.2
8.360	81694.2
8.365	81664.2
8.370	81700.2
8.375	81764.2
8.380	81848.1
8.385	81902.1
8.390	81938.0
8.395	81965.0
8.400	81981.0
8.405	81978.0
8.410	81974.0
8.415	81962.0
8.420	81968.0
8.425	82003.0
8.430	82004.0
8.435	82004.0
8.440	81995.0
8.445	81988.0
8.450	81984.0
8.455	81978.0
8.460	81985.0
8.465	81983.0
8.470	81994.0
8.475	81986.0
8.480	81967.1
8.485	81952.1
8.490	81980.1
8.495	81989.0
8.500	81987.1
8.505	81982.1
8.510	81980.1
8.515	81967.1
8.520	81962.1
8.525	81933.1
8.530	81892.1
8.535	81814.2
8.540	81647.3
8.545	81400.5
8.550	81111.7
8.555	80873.9
8.560	80814.0
8.565	80973.8
8.570	81330.6
8.575	81621.4
8.580	81829.2
8.585	81913.1
8.590	81945.1
8.595	81975.1
8.600	81975.1
8.605	81985.1
8.610	81964.1
8.615	81942.1
8.620	81948.1
8.625	81970.1
8.630	81963.1
8.635	81946.2
8.640	81943.2
8.645	81932.2
8.650	81925.2
8.655	81923.2
8.660	81916.2
8.665	81906.2
8.670	81918.2
8.675	81895.2
8.680	81868.2
8.685	81857.3
8.690	81877.2
8.695	81869.2
8.700	81872.3
8.705	81855.3
8.710	81846.3
8.715	81834.3
8.720	81823.3
8.725	81819.3
8.730	81815.3
8.735	81798.3
8.740	81797.3
8.745	81768.4
8.750	81758.4
8.755	81766.4
8.760	81781.4
8.765	81781.4
8.770	81784.4
8.775	81774.4
8.780	81776.4
8.785	81762.4
8.790	81766.4
8.795	81775.4
8.800	81799.4
8.805	81802.4
8.810	81796.4
8.815	81794.4
8.820	81797.4
8.825	81827.4
8.830	81837.4
8.835	81827.4
8.840	81826.4
8.845	81822.4
8.850	81803.4
8.855	81769.4
8.860	81725.5
8.865	81715.5
8.870	81733.5
8.875	81729.5
8.880	81699.5
8.885	81693.5
8.890	81705.5
8.895	81689.5
8.900	81672.6
8.905	81664.6
8.910	81652.6
8.915	81638.6
8.920	81630.6
8.925	81610.6
8.930	81595.7
8.935	81566.7
8.940	81541.7
8.945	81537.7
8.950	81549.7
8.955	81562.7
8.960	81593.7
8.965	81579.7
8.970	81575.7
8.975	81567.7
8.980	81558.7
8.985	81538.8
8.990	81533.8
8.995	81529.8
9.000	81515.8
9.005	81421.9
9.010	81368.9
9.015	81424.9
9.020	81468.9
9.025	81455.9
9.030	81457.9
9.035	81442.9
9.040	81407.9
9.045	81357.0
9.050	81323.0
9.055	81295.0
9.060	81252.1
9.065	81211.1
9.070	81164.2
9.075	81124.2
9.080	81075.3
9.085	81036.3
9.090	81042.3
9.095	81041.3
9.100	81060.3
9.105	81076.3
9.110	81082.3
9.115	81099.3
9.120	81132.3
9.125	81180.3
9.130	81211.2
9.135	81215.3
9.140	81217.3
9.145	81186.3
9.150	81172.3
9.155	81191.3
9.160	81193.3
9.165	81200.3
9.170	81213.3
9.175	81238.3
9.180	81250.3
9.185	81241.4
9.190	81232.4
9.195	81200.4
9.200	81163.5
9.205	81119.6
9.210	81026.6
9.215	80910.8
9.220	80839.8
9.225	80761.9
9.230	80690.0
9.235	80633.1
9.240	80557.2
9.245	80495.2
9.250	80459.3
9.255	80400.4
9.260	80363.4
9.265	80314.5
9.270	80235.6
9.275	80137.7
9.280	80105.7
9.285	80088.8
9.290	80088.8
9.295	80079.8
9.300	80125.8
9.305	80181.8
9.310	80208.8
9.315	80196.9
9.320	80222.9
9.325	80323.8
9.330	80509.7
9.335	80746.5
9.340	80993.4
9.345	81180.2
9.350	81315.2
9.355	81425.1
9.360	81474.1
9.365	81448.2
9.370	81417.3
9.375	81361.4
9.380	81262.6
9.385	81182.7
9.390	81083.9
9.395	80961.1
9.400	80913.2
9.405	80868.3
9.410	80783.5
9.415	80650.7
9.420	80502.0
9.425	80378.2
9.430	80145.6
9.435	79923.9
9.440	79874.2
9.445	79626.6
9.450	79033.2
9.455	78611.8
9.460	78490.0
9.465	78495.2
9.470	78666.2
9.475	78829.1
9.480	78844.1
9.485	78757.1
9.490	78819.9
9.495	79016.5
9.500	79273.0
9.505	79478.4
9.510	79694.7
9.515	79957.9
9.520	80330.8
9.525	80708.9
9.530	81090.0
9.535	81383.3
9.540	81576.9
9.545	81669.7
9.550	81740.5
9.555	81804.5
9.560	81813.4
9.565	81832.4
9.570	81833.4
9.575	81831.4
9.580	81838.4
9.585	81836.4
9.590	81841.4
9.595	81851.4
9.600	81855.4
9.605	81848.4
9.610	81837.4
9.615	81819.4
9.620	81835.4
9.625	81850.4
9.630	81859.4
9.635	81862.4
9.640	81863.4
9.645	81855.4
9.650	81855.4
9.655	81856.4
9.660	81863.4
9.665	81857.4
9.670	81863.4
9.675	81840.4
9.680	81833.4
9.685	81821.4
9.690	81856.4
9.695	81857.4
9.700	81859.4
9.705	81851.4
9.710	81862.4
9.715	81852.4
9.720	81856.4
9.725	81863.4
9.730	81870.4
9.735	81872.4
9.740	81866.4
9.745	81848.4
9.750	81841.4
9.755	81868.4
9.760	81878.3
9.765	81880.3
9.770	81879.3
9.775	81867.4
9.780	81875.3
9.785	81870.4
9.790	81875.3
9.795	81877.3
9.800	81879.3
9.805	81871.3
9.810	81847.4
9.815	81844.4
9.820	81856.4
9.825	81872.3
9.830	81871.3
9.835	81870.4
9.840	81870.4
9.845	81858.4
9.850	81874.3
9.855	81877.3
9.860	81881.3
9.865	81868.3
9.870	81876.3
9.875	81848.4
9.880	81828.4
9.885	81837.4
9.890	81874.3
9.895	81868.4
9.900	81878.3
9.905	81870.3
9.910	81867.3
9.915	81867.3
9.920	81867.3
9.925	81863.4
9.930	81862.4
9.935	81857.4
9.940	81836.4
9.945	81817.4
9.950	81815.4
9.955	81826.4
9.960	81836.4
9.965	81828.4
9.970	81832.4
9.975	81816.4
9.980	81808.4
9.985	81813.4
9.990	81809.4
9.995	81807.4
10.000	81812.4
10.005	81804.4
10.010	81786.4
10.015	81762.4
10.020	81772.4
10.025	81793.4
10.030	81787.4
10.035	81797.4
10.040	81795.4
10.045	81784.4
10.050	81773.4
10.055	81780.4
10.060	81772.4
10.065	81766.4
10.070	81762.4
10.075	81738.4
10.080	81706.5
10.085	81714.5
10.090	81741.4
10.095	81746.4
10.100	81731.4
10.105	81741.4
10.110	81736.4
10.115	81726.5
10.120	81722.5
10.125	81718.5
10.130	81715.5
10.135	81703.5
10.140	81697.5
10.145	81676.5
10.150	81671.5
10.155	81691.5
10.160	81704.5
10.165	81701.5
10.170	81698.5
10.175	81693.5
10.180	81690.5
10.185	81684.5
10.190	81688.5
10.195	81693.5
10.200	81692.5
10.205	81672.5
10.210	81636.5
10.215	81624.5
10.220	81654.5
10.225	81662.5
10.230	81660.5
10.235	81657.5
10.240	81650.5
10.245	81638.5
10.250	81637.5
10.255	81639.5
10.260	81644.5
10.265	81649.5
10.270	81651.5
10.275	81636.5
10.280	81610.5
10.285	81616.5
10.290	81649.5
10.295	81647.5
10.300	81637.5
10.305	81635.5
10.310	81632.5
10.315	81632.5
10.320	81637.5
10.325	81642.5
10.330	81649.5
10.335	81659.5
10.340	81636.5
10.345	81602.5
10.350	81609.5
10.355	81647.5
10.360	81649.5
10.365	81653.5
10.370	81653.5
10.375	81644.5
10.380	81653.5
10.385	81664.5
10.390	81666.5
10.395	81672.5
10.400	81681.5
10.405	81685.5
10.410	81672.5
10.415	81659.5
10.420	81688.5
10.425	81700.5
10.430	81723.4
10.435	81718.4
10.440	81723.4
10.445	81720.4
10.450	81709.5
10.455	81719.4
10.460	81710.5
10.465	81717.4
10.470	81726.4
10.475	81704.5
10.480	81694.5
10.485	81701.5
10.490	81727.4
10.495	81732.4
10.500	81734.4
10.505	81733.4
10.510	81737.4
10.515	81745.4
10.520	81753.4
10.525	81757.4
10.530	81766.4
10.535	81770.4
10.540	81759.4
10.545	81749.4
10.550	81734.4
10.555	81759.4
10.560	81764.4
10.565	81763.4
10.570	81771.4
10.575	81756.4
10.580	81762.4
10.585	81761.4
10.590	81769.4
10.595	81766.4
10.600	81776.4
10.605	81769.4
10.610	81755.4
10.615	81750.4
10.620	81779.4
10.625	81794.4
10.630	81800.4
10.635	81797.4
10.640	81804.4
10.645	81798.4
10.650	81805.4
10.655	81803.4
10.660	81807.4
10.665	81802.4
10.670	81814.4
10.675	81793.4
10.680	81769.4
10.685	81779.4
10.690	81824.4
10.695	81818.4
10.700	81819.4
10.705	81822.4
10.710	81820.4
10.715	81818.4
10.720	81822.4
10.725	81826.4
10.730	81825.4
10.735	81830.4
10.740	81799.4
10.745	81780.4
10.750	81790.4
10.755	81809.4
10.760	81809.4
10.765	81815.4
10.770	81807.4
10.775	81816.4
10.780	81814.4
10.785	81807.4
10.790	81818.4
10.795	81821.4
10.800	81820.4
10.805	81814.4
10.810	81803.4
10.815	81790.4
10.820	81806.4
10.825	81822.4
10.830	81831.3
10.835	81833.3
10.840	81834.3
10.845	81830.3
10.850	81827.3
10.855	81812.4
10.860	81810.4
10.865	81808.4
10.870	81822.3
10.875	81797.4
10.880	81787.4
10.885	81792.4
10.890	81817.4
10.895	81815.4
10.900	81824.3
10.905	81821.4
10.910	81825.3
10.915	81821.4
10.920	81828.3
10.925	81821.4
10.930	81831.3
10.935	81838.3
10.940	81824.4
10.945	81802.4
10.950	81801.4
10.955	81834.3
10.960	81830.3
10.965	81832.3
10.970	81837.3
10.975	81828.3
10.980	81836.3
10.985	81828.3
10.990	81829.3
10.995	81825.3
11.000	81811.4
11.005	81807.4
11.010	81771.4
11.015	81769.4
11.020	81799.4
11.025	81803.4
11.030	81810.4
11.035	81811.4
11.040	81805.4
11.045	81798.4
11.050	81799.4
11.055	81797.4
11.060	81787.4
11.065	81791.4
11.070	81795.4
11.075	81774.4
11.080	81747.4
11.085	81750.4
11.090	81769.4
11.095	81769.4
11.100	81769.4
11.105	81770.4
11.110	81771.4
11.115	81769.4
11.120	81762.4
11.125	81752.4
11.130	81757.4
11.135	81764.4
11.140	81749.4
11.145	81739.4
11.150	81740.4
11.155	81756.4
11.160	81759.4
11.165	81745.4
11.170	81736.4
11.175	81743.4
11.180	81735.4
11.185	81740.4
11.190	81736.4
11.195	81740.4
11.200	81744.4
11.205	81738.4
11.210	81701.4
11.215	81695.4
11.220	81710.4
11.225	81716.4
11.230	81729.4
11.235	81727.4
11.240	81726.4
11.245	81710.4
11.250	81709.4
11.255	81702.4
11.260	81693.4
11.265	81691.4
11.270	81685.4
11.275	81660.5
11.280	81644.5
11.285	81679.4
11.290	81689.4
11.295	81685.4
11.300	81686.4
11.305	81689.4
11.310	81703.4
11.315	81686.4
11.320	81692.4
11.325	81691.4
11.330	81700.4
11.335	81702.4
11.340	81686.4
11.345	81663.5
11.350	81664.5
11.355	81698.4
11.360	81706.4
11.365	81694.4
11.370	81692.4
11.375	81683.4
11.380	81698.4
11.385	81694.4
11.390	81684.4
11.395	81682.4
11.400	81687.4
11.405	81677.4
11.410	81655.5
11.415	81651.5
11.420	81686.4
11.425	81688.4
11.430	81686.4
11.435	81676.4
11.440	81678.4
11.445	81679.4
11.450	81674.4
11.455	81677.4
11.460	81677.4
11.465	81685.4
11.470	81704.4
11.475	81671.4
11.480	81652.5
11.485	81670.4
11.490	81685.4
11.495	81685.4
11.500	81702.4
11.505	81702.4
11.510	81693.4
11.515	81693.4
11.520	81699.4
11.525	81689.4
11.530	81692.4
11.535	81691.4
11.540	81681.4
11.545	81653.5
11.550	81666.4
11.555	81705.4
11.560	81697.4
11.565	81689.4
11.570	81695.4
11.575	81690.4
11.580	81692.4
11.585	81701.4
11.590	81702.4
11.595	81705.4
11.600	81724.4
11.605	81718.4
11.610	81702.4
11.615	81678.4
11.620	81712.4
11.625	81710.4
11.630	81720.4
11.635	81712.4
11.640	81709.4
11.645	81712.4
11.650	81713.4
11.655	81710.4
11.660	81711.4
11.665	81710.4
11.670	81709.4
11.675	81678.4
11.680	81677.4
11.685	81696.4
11.690	81716.4
11.695	81717.4
11.700	81718.4
11.705	81708.4
11.710	81706.4
11.715	81708.4
11.720	81694.4
11.725	81703.4
11.730	81709.4
11.735	81724.4
11.740	81700.4
11.745	81685.4
11.750	81684.4
11.755	81709.4
11.760	81722.4
11.765	81720.4
11.770	81724.4
11.775	81726.4
11.780	81718.4
11.785	81715.4
11.790	81718.4
11.795	81710.4
11.800	81711.4
11.805	81697.4
11.810	81677.4
11.815	81668.4
11.820	81707.4
11.825	81702.4
11.830	81696.4
11.835	81691.4
11.840	81704.4
11.845	81691.4
11.850	81700.4
11.855	81713.4
11.860	81714.4
11.865	81724.4
11.870	81718.4
11.875	81687.4
11.880	81674.4
11.885	81678.4
11.890	81700.4
11.895	81693.4
11.900	81691.4
11.905	81688.4
11.910	81689.4
11.915	81693.4
11.920	81680.4
11.925	81692.4
11.930	81693.4
11.935	81705.4
11.940	81670.4
11.945	81649.4
11.950	81662.4
11.955	81687.4
11.960	81674.4
11.965	81666.4
11.970	81680.4
11.975	81670.4
11.980	81671.4
11.985	81673.4
11.990	81672.4
11.995	81682.4
12.000	81688.4
12.005	81683.4
12.010	81663.4
12.015	81659.4
12.020	81681.4
12.025	81680.4
12.030	81682.4
12.035	81680.4
12.040	81673.4
12.045	81670.4
12.050	81682.4
12.055	81676.4
12.060	81686.4
12.065	81674.4
12.070	81678.4
12.075	81643.4
12.080	81641.4
12.085	81654.4
12.090	81675.4
12.095	81682.4
12.100	81667.4
12.105	81655.4
12.110	81650.4
12.115	81654.4
12.120	81648.4
12.125	81667.4
12.130	81682.4
12.135	81680.4
12.140	81656.4
12.145	81639.4
12.150	81647.4
12.155	81664.4
12.160	81662.4
12.165	81671.4
12.170	81665.4
12.175	81670.4
12.180	81670.4
12.185	81662.4
12.190	81656.4
12.195	81665.4
12.200	81668.4
12.205	81652.4
12.210	81641.4
12.215	81638.4
12.220	81680.4
12.225	81670.4
12.230	81670.4
12.235	81662.4
12.240	81676.4
12.245	81677.4
12.250	81673.4
12.255	81674.4
12.260	81679.4
12.265	81680.4
12.270	81690.4
12.275	81670.4
12.280	81657.4
12.285	81678.4
12.290	81689.4
12.295	81686.4
12.300	81685.4
12.305	81691.4
12.310	81687.4
12.315	81688.4
12.320	81696.4
12.325	81686.4
12.330	81686.4
12.335	81693.4
12.340	81673.4
12.345	81655.4
12.350	81682.4
12.355	81699.4
12.360	81697.4
12.365	81691.4
12.370	81693.4
12.375	81703.4
12.380	81713.4
12.385	81712.4
12.390	81719.4
12.395	81729.4
12.400	81726.4
12.405	81714.4
12.410	81710.4
12.415	81709.4
12.420	81727.4
12.425	81739.4
12.430	81745.4
12.435	81744.4
12.440	81748.4
12.445	81751.4
12.450	81748.4
12.455	81749.4
12.460	81756.4
12.465	81771.3
12.470	81764.3
12.475	81742.4
12.480	81733.4
12.485	81761.3
12.490	81772.3
12.495	81769.3
12.500	81776.3
12.505	81780.3
12.510	81775.3
12.515	81767.3
12.520	81789.3
12.525	81785.3
12.530	81797.3
12.535	81804.3
12.540	81786.3
12.545	81770.3
12.550	81778.3
12.555	81808.3
12.560	81813.3
12.565	81815.3
12.570	81818.3
12.575	81818.3
12.580	81817.3
12.585	81810.3
12.590	81828.3
12.595	81826.3
12.600	81837.3
12.605	81822.3
12.610	81810.3
12.615	81812.3
12.620	81837.3
12.625	81839.3
12.630	81833.3
12.635	81843.3
12.640	81845.3
12.645	81840.3
12.650	81854.3
12.655	81861.3
12.660	81863.3
12.665	81870.3
12.670	81866.3
12.675	81843.3
12.680	81830.3
12.685	81863.3
12.690	81876.2
12.695	81892.2
12.700	81893.2
12.705	81885.2
12.710	81896.2
12.715	81891.2
12.720	81884.2
12.725	81890.2
12.730	81903.2
12.735	81892.2
12.740	81859.3
12.745	81853.3
12.750	81869.3
12.755	81889.2
12.760	81901.2
12.765	81892.2
12.770	81892.2
12.775	81900.2
12.780	81908.2
12.785	81905.2
12.790	81913.2
12.795	81925.2
12.800	81927.2
12.805	81901.2
12.810	81896.2
12.815	81885.2
12.820	81925.2
12.825	81933.2
12.830	81934.2
12.835	81936.2
12.840	81940.2
12.845	81944.2
12.850	81931.2
12.855	81930.2
12.860	81935.2
12.865	81945.2
12.870	81939.2
12.875	81918.2
12.880	81908.2
12.885	81938.2
12.890	81942.2
12.895	81947.2
12.900	81937.2
12.905	81946.2
12.910	81957.2
12.915	81952.2
12.920	81963.2
12.925	81955.2
12.930	81965.2
12.935	81965.2
12.940	81956.2
12.945	81938.2
12.950	81953.2
12.955	81977.2
12.960	81982.2
12.965	81981.2
12.970	81981.2
12.975	81983.2
12.980	81985.2
12.985	81974.2
12.990	81989.2
12.995	81986.2
13.000	81987.2
13.005	81954.2
13.010	81951.2
13.015	81943.2
13.020	81974.2
13.025	81974.2
13.030	81977.2
13.035	81975.2
13.040	81972.2
13.045	81979.2
13.050	81976.2
13.055	81970.2
13.060	81986.1
13.065	81993.1
13.070	81999.1
13.075	81979.2
13.080	81971.2
13.085	81995.1
13.090	81997.1
13.095	82006.1
13.100	82014.1
13.105	82007.1
13.110	81999.1
13.115	81994.1
13.120	81996.1
13.125	81998.1
13.130	82006.1
13.135	82013.1
13.140	81977.2
13.145	81971.2
13.150	81996.1
13.155	82011.1
13.160	82006.1
13.165	82018.1
13.170	82015.1
13.175	82011.1
13.180	82010.1
13.185	82006.1
13.190	82011.1
13.195	82022.1
13.200	82021.1
13.205	81998.1
13.210	81983.1
13.215	81980.1
13.220	82007.1
13.225	82017.1
13.230	82020.1
13.235	82012.1
13.240	82019.1
13.245	82012.1
13.250	82015.1
13.255	82017.1
13.260	82019.1
13.265	82014.1
13.270	82002.1
13.275	81971.2
13.280	81981.1
13.285	82009.1
13.290	82012.1
13.295	82001.1
13.300	82011.1
13.305	81993.1
13.310	81986.1
13.315	81994.1
13.320	82002.1
13.325	82003.1
13.330	82009.1
13.335	82010.1
13.340	81974.1
13.345	81957.2
13.350	81970.1
13.355	81978.1
13.360	81991.1
13.365	81991.1
13.370	81981.1
13.375	81969.1
13.380	81968.2
13.385	81975.1
13.390	81970.1
13.395	81965.2
13.400	81964.2
13.405	81931.2
13.410	81917.2
13.415	81922.2
13.420	81959.2
13.425	81950.2
13.430	81948.2
13.435	81945.2
13.440	81955.2
13.445	81931.2
13.450	81928.2
13.455	81927.2
13.460	81932.2
13.465	81941.2
13.470	81932.2
13.475	81910.2
13.480	81899.2
13.485	81927.2
13.490	81927.2
13.495	81914.2
13.500	81914.2
13.505	81918.2
13.510	81915.2
13.515	81910.2
13.520	81909.2
13.525	81909.2
13.530	81916.2
13.535	81899.2
13.540	81881.2
13.545	81872.2
13.550	81883.2
13.555	81899.2
13.560	81897.2
13.565	81896.2
13.570	81889.2
13.575	81892.2
13.580	81893.2
13.585	81889.2
13.590	81891.2
13.595	81896.2
13.600	81903.2
13.605	81882.2
13.610	81863.2
13.615	81867.2
13.620	81899.2
13.625	81893.2
13.630	81900.2
13.635	81899.2
13.640	81894.2
13.645	81884.2
13.650	81890.2
13.655	81887.2
13.660	81892.2
13.665	81882.2
13.670	81870.2
13.675	81849.2
13.680	81842.2
13.685	81880.2
13.690	81894.2
13.695	81875.2
13.700	81887.2
13.705	81877.2
13.710	81887.2
13.715	81875.2
13.720	81877.2
13.725	81883.2
13.730	81901.2
13.735	81895.2
13.740	81874.2
13.745	81860.2
13.750	81879.2
13.755	81896.2
13.760	81909.2
13.765	81903.2
13.770	81901.2
13.775	81898.2
13.780	81899.2
13.785	81898.2
13.790	81895.2
13.795	81904.2
13.800	81911.2
13.805	81883.2
13.810	81877.2
13.815	81880.2
13.820	81912.2
13.825	81915.2
13.830	81903.2
13.835	81907.2
13.840	81909.2
13.845	81907.2
13.850	81914.2
13.855	81921.2
13.860	81929.2
13.865	81929.2
13.870	81924.2
13.875	81908.2
13.880	81900.2
13.885	81942.1
13.890	81945.1
13.895	81951.1
13.900	81944.1
13.905	81947.1
13.910	81938.1
13.915	81943.1
13.920	81956.1
13.925	81959.1
13.930	81958.1
13.935	81959.1
13.940	81931.2
13.945	81933.1
13.950	81963.1
13.955	81960.1
13.960	81964.1
13.965	81973.1
13.970	81973.1
13.975	81957.1
13.980	81964.1
13.985	81969.1
13.990	81970.1
13.995	81978.1
14.000	81983.1
14.005	81965.1
14.010	81952.1
14.015	81958.1
14.020	81986.1
14.025	81989.1
14.030	81995.1
14.035	81992.1
14.040	81988.1
14.045	81981.1
14.050	81993.1
14.055	81999.1
14.060	81991.1
14.065	81993.1
14.070	81970.1
14.075	81955.1
14.080	81964.1
14.085	81990.1
14.090	81997.1
14.095	81988.1
14.100	81987.1
14.105	81988.1
14.110	81980.1
14.115	81980.1
14.120	81988.1
14.125	81995.1
14.130	81995.1
14.135	81987.1
14.140	81968.1
14.145	81947.1
14.150	81978.1
14.155	81995.1
14.160	81999.1
14.165	82001.1
14.170	81996.1
14.175	81984.1
14.180	81985.1
14.185	81992.1
14.190	82004.1
14.195	81991.1
14.200	81997.1
14.205	81978.1
14.210	81957.1
14.215	81976.1
14.220	81991.1
14.225	81993.1
14.230	81997.1
14.235	81989.1
14.240	81998.1
14.245	81997.1
14.250	81992.1
14.255	81993.1
14.260	81999.1
14.265	82004.1
14.270	81997.1
14.275	81975.1
14.280	81967.1
14.285	82004.1
14.290	82003.1
14.295	81997.1
14.300	81991.1
14.305	82008.1
14.310	82000.1
14.315	81984.1
14.320	82000.1
14.325	82009.1
14.330	82008.1
14.335	81997.1
14.340	81973.1
14.345	81965.1
14.350	81989.1
14.355	81988.1
14.360	81997.1
14.365	81988.1
14.370	81996.1
14.375	81988.1
14.380	81994.1
14.385	81996.1
14.390	82006.1
14.395	82004.1
14.400	82004.1
14.405	81986.1
14.410	81968.1
14.415	81968.1
14.420	81998.1
14.425	81995.1
14.430	81995.1
14.435	81994.1
14.440	82002.1
14.445	81998.1
14.450	81995.1
14.455	81993.1
14.460	82005.1
14.465	82000.1
14.470	81976.1
14.475	81958.1
14.480	81960.1
14.485	81981.1
14.490	81980.1
14.495	81967.1
14.500	81952.1
14.505	81960.1
14.510	81977.1
14.515	81976.1
14.520	81989.1
14.525	81988.1
14.530	81990.1
14.535	81988.1
14.540	81971.1
14.545	81961.1
14.550	81977.1
14.555	81990.1
14.560	81996.1
14.565	81992.1
14.570	81994.1
14.575	81987.1
14.580	81987.1
14.585	81985.1
14.590	81983.1
14.595	81976.1
14.600	81981.1
14.605	81950.1
14.610	81946.1
14.615	81956.1
14.620	81985.1
14.625	81973.1
14.630	81974.1
14.635	81980.1
14.640	81978.1
14.645	81970.1
14.650	81974.1
14.655	81972.1
14.660	81980.1
14.665	81988.1
14.670	81976.1
14.675	81945.1
14.680	81954.1
14.685	81973.1
14.690	81983.1
14.695	81959.1
14.700	81972.1
14.705	81976.1
14.710	81985.1
14.715	81974.1
14.720	81969.1
14.725	81967.1
14.730	81960.1
14.735	81945.1
14.740	81929.1
14.745	81924.1
14.750	81960.1
14.755	81958.1
14.760	81949.1
14.765	81950.1
14.770	81948.1
14.775	81949.1
14.780	81944.1
14.785	81952.1
14.790	81951.1
14.795	81950.1
14.800	81944.1
14.805	81930.1
14.810	81919.1
14.815	81914.1
14.820	81942.1
14.825	81942.1
14.830	81938.1
14.835	81944.1
14.840	81942.1
14.845	81942.1
14.850	81927.1
14.855	81918.1
14.860	81918.1
14.865	81910.1
14.870	81898.1
14.875	81883.1
14.880	81887.1
14.885	81910.1
14.890	81906.1
14.895	81891.1
14.900	81895.1
14.905	81884.1
14.910	81882.1
14.915	81878.1
14.920	81889.1
14.925	81884.1
14.930	81889.1
14.935	81886.1
14.940	81863.1
14.945	81853.2
14.950	81870.1
14.955	81857.2
14.960	81861.1
14.965	81856.2
14.970	81852.2
14.975	81852.2
14.980	81855.2
14.985	81849.2
14.990	81842.2
14.995	81847.2
15.000	81824.2
15.005	81810.2
15.010	81797.2
15.015	81815.2
15.020	81834.2
15.025	81834.2
15.030	81821.2
15.035	81826.2
15.040	81828.2
15.045	81821.2
15.050	81821.2
15.055	81825.2
15.060	81839.2
15.065	81829.2
15.070	81811.2
15.075	81808.2
15.080	81802.2
15.085	81831.2
15.090	81834.2
15.095	81831.2
15.100	81845.2
15.105	81855.1
15.110	81863.1
15.115	81850.2
15.120	81858.1
15.125	81855.1
15.130	81864.1
15.135	81843.2
15.140	81828.2
15.145	81819.2
15.150	81857.1
15.155	81854.1
15.160	81857.1
15.165	81856.1
15.170	81858.1
15.175	81861.1
15.180	81872.1
15.185	81869.1
15.190	81872.1
15.195	81883.1
15.200	81886.1
15.205	81851.1
15.210	81846.1
15.215	81870.1
15.220	81885.1
15.225	81887.1
15.230	81882.1
15.235	81889.1
15.240	81892.1
15.245	81878.1
15.250	81883.1
15.255	81886.1
15.260	81880.1
15.265	81889.1
15.270	81861.1
15.275	81831.2
15.280	81847.1
15.285	81882.1
15.290	81878.1
15.295	81869.1
15.300	81872.1
15.305	81861.1
15.310	81863.1
15.315	81858.1
15.320	81853.1
15.325	81855.1
15.330	81864.1
15.335	81845.1
15.340	81828.2
15.345	81826.2
15.350	81858.1
15.355	81840.1
15.360	81849.1
15.365	81846.1
15.370	81846.1
15.375	81849.1
15.380	81848.1
15.385	81836.1
15.390	81840.1
15.395	81848.1
15.400	81830.1
15.405	81791.2
15.410	81779.2
15.415	81808.2
15.420	81816.2
15.425	81811.2
15.430	81806.2
15.435	81806.2
15.440	81806.2
15.445	81795.2
15.450	81789.2
15.455	81805.2
15.460	81805.2
15.465	81804.2
15.470	81779.2
15.475	81762.2
15.480	81766.2
15.485	81784.2
15.490	81784.2
15.495	81786.2
15.500	81782.2
15.505	81772.2
15.510	81772.2
15.515	81775.2
15.520	81771.2
15.525	81767.2
15.530	81776.2
15.535	81743.2
15.540	81723.2
15.545	81724.2
15.550	81765.2
15.555	81760.2
15.560	81743.2
15.565	81743.2
15.570	81760.2
15.575	81742.2
15.580	81745.2
15.585	81742.2
15.590	81742.2
15.595	81752.2
15.600	81757.2
15.605	81718.2
15.610	81721.2
15.615	81732.2
15.620	81747.2
15.625	81759.2
15.630	81757.2
15.635	81746.2
15.640	81743.2
15.645	81734.2
15.650	81746.2
15.655	81748.2
15.660	81750.2
15.665	81757.2
15.670	81733.2
15.675	81712.2
15.680	81722.2
15.685	81750.2
15.690	81750.2
15.695	81742.2
15.700	81744.2
15.705	81757.2
15.710	81757.2
15.715	81755.2
15.720	81756.2
15.725	81765.2
15.730	81770.2
15.735	81758.2
15.740	81742.2
15.745	81730.2
15.750	81764.2
15.755	81764.2
15.760	81774.2
15.765	81766.2
15.770	81774.2
15.775	81770.2
15.780	81778.2
15.785	81776.2
15.790	81785.2
15.795	81786.2
15.800	81782.2
15.805	81751.2
15.810	81750.2
15.815	81776.2
15.820	81799.1
15.825	81791.2
15.830	81797.1
15.835	81789.2
15.840	81802.1
15.845	81792.1
15.850	81803.1
15.855	81809.1
15.860	81809.1
15.865	81807.1
15.870	81779.2
15.875	81769.2
15.880	81791.1
15.885	81812.1
15.890	81802.1
15.895	81803.1
15.900	81807.1
15.905	81799.1
15.910	81803.1
15.915	81807.1
15.920	81815.1
15.925	81810.1
15.930	81822.1
15.935	81794.1
15.940	81787.1
15.945	81791.1
15.950	81814.1
15.955	81819.1
15.960	81816.1
15.965	81815.1
15.970	81813.1
15.975	81814.1
15.980	81818.1
15.985	81813.1
15.990	81827.1
15.995	81831.1
16.000	81839.1
16.005	81815.1
16.010	81804.1
16.015	81824.1
16.020	81841.1
16.025	81844.1
16.030	81836.1
16.035	81833.1
16.040	81825.1
16.045	81820.1
16.050	81821.1
16.055	81825.1
16.060	81831.1
16.065	81819.1
16.070	81799.1
16.075	81786.1
16.080	81809.1
16.085	81827.1
16.090	81833.1
16.095	81814.1
16.100	81804.1
16.105	81821.1
16.110	81814.1
16.115	81823.1
16.120	81828.1
16.125	81830.1
16.130	81831.1
16.135	81818.1
16.140	81798.1
16.145	81783.1
16.150	81821.1
16.155	81826.1
16.160	81825.1
16.165	81817.1
16.170	81813.1
16.175	81814.1
16.180	81817.1
16.185	81819.1
16.190	81809.1
16.195	81814.1
16.200	81806.1
16.205	81770.1
16.210	81757.2
16.215	81782.1
16.220	81797.1
16.225	81790.1
16.230	81799.1
16.235	81790.1
16.240	81798.1
16.245	81798.1
16.250	81796.1
16.255	81784.1
16.260	81802.1
16.265	81799.1
16.270	81778.1
16.275	81764.1
16.280	81786.1
16.285	81797.1
16.290	81797.1
16.295	81802.1
16.300	81808.1
16.305	81793.1
16.310	81801.1
16.315	81799.1
16.320	81802.1
16.325	81796.1
16.330	81803.1
16.335	81777.1
16.340	81757.1
16.345	81761.1
16.350	81797.1
16.355	81794.1
16.360	81792.1
16.365	81794.1
16.370	81780.1
16.375	81782.1
16.380	81790.1
16.385	81793.1
16.390	81779.1
16.395	81801.1
16.400	81793.1
16.405	81767.1
16.410	81748.1
16.415	81770.1
16.420	81781.1
16.425	81781.1
16.430	81794.1
16.435	81764.1
16.440	81773.1
16.445	81779.1
16.450	81768.1
16.455	81768.1
16.460	81758.1
16.465	81759.1
16.470	81739.1
16.475	81725.2
16.480	81749.1
16.485	81767.1
16.490	81757.1
16.495	81754.1
16.500	81756.1
16.505	81745.1
16.510	81750.1
16.515	81736.1
16.520	81743.1
16.525	81748.1
16.530	81761.1
16.535	81740.1
16.540	81723.2
16.545	81706.2
16.550	81730.1
16.555	81737.1
16.560	81748.1
16.565	81753.1
16.570	81752.1
16.575	81738.1
16.580	81746.1
16.585	81749.1
16.590	81749.1
16.595	81739.1
16.600	81723.1
16.605	81702.2
16.610	81706.2
16.615	81739.1
16.620	81760.1
16.625	81754.1
16.630	81748.1
16.635	81740.1
16.640	81752.1
16.645	81755.1
16.650	81756.1
16.655	81763.1
16.660	81782.1
16.665	81773.1
16.670	81753.1
16.675	81727.1
16.680	81746.1
16.685	81774.1
16.690	81780.1
16.695	81782.1
16.700	81783.1
16.705	81783.1
16.710	81784.1
16.715	81774.1
16.720	81768.1
16.725	81775.1
16.730	81778.1
16.735	81750.1
16.740	81738.1
16.745	81743.1
16.750	81769.1
16.755	81761.1
16.760	81757.1
16.765	81764.1
16.770	81776.1
16.775	81762.1
16.780	81755.1
16.785	81753.1
16.790	81753.1
16.795	81749.1
16.800	81755.1
16.805	81723.1
16.810	81704.1
16.815	81740.1
16.820	81740.1
16.825	81737.1
16.830	81734.1
16.835	81734.1
16.840	81730.1
16.845	81731.1
16.850	81730.1
16.855	81725.1
16.860	81727.1
16.865	81713.1
16.870	81682.2
16.875	81668.2
16.880	81686.1
16.885	81687.1
16.890	81683.2
16.895	81688.1
16.900	81679.2
16.905	81655.2
16.910	81640.2
16.915	81645.2
16.920	81647.2
16.925	81648.2
16.930	81661.2
16.935	81634.2
16.940	81608.2
16.945	81609.2
16.950	81624.2
16.955	81612.2
16.960	81614.2
16.965	81616.2
16.970	81608.2
16.975	81611.2
16.980	81601.2
16.985	81581.2
16.990	81577.2
16.995	81567.2
17.000	81543.2
17.005	81511.3
17.010	81509.3
17.015	81525.3
17.020	81517.3
17.025	81507.3
17.030	81506.3
17.035	81498.3
17.040	81497.3
17.045	81511.3
17.050	81506.3
17.055	81510.3
17.060	81513.3
17.065	81523.3
17.070	81489.3
17.075	81470.3
17.080	81482.3
17.085	81495.3
17.090	81502.3
17.095	81520.3
17.100	81516.3
17.105	81523.3
17.110	81538.2
17.115	81535.2
17.120	81536.2
17.125	81531.2
17.130	81535.2
17.135	81496.3
17.140	81482.3
17.145	81504.3
17.150	81537.2
17.155	81537.2
17.160	81545.2
17.165	81525.2
17.170	81539.2
17.175	81539.2
17.180	81561.2
17.185	81570.2
17.190	81589.2
17.195	81586.2
17.200	81593.2
17.205	81565.2
17.210	81554.2
17.215	81586.2
17.220	81590.2
17.225	81590.2
17.230	81589.2
17.235	81594.2
17.240	81593.2
17.245	81581.2
17.250	81587.2
17.255	81581.2
17.260	81599.2
17.265	81601.2
17.270	81574.2
17.275	81561.2
17.280	81590.2
17.285	81596.2
17.290	81602.2
17.295	81598.2
17.300	81599.2
17.305	81604.2
17.310	81606.2
17.315	81617.2
17.320	81626.2
17.325	81619.2
17.330	81630.1
17.335	81619.2
17.340	81599.2
17.345	81603.2
17.350	81629.1
17.355	81627.1
17.360	81626.1
17.365	81620.2
17.370	81619.2
17.375	81605.2
17.380	81617.2
17.385	81615.2
17.390	81614.2
17.395	81602.2
17.400	81594.2
17.405	81574.2
17.410	81576.2
17.415	81615.2
17.420	81616.1
17.425	81604.2
17.430	81604.2
17.435	81608.2
17.440	81602.2
17.445	81602.2
17.450	81613.1
17.455	81599.2
17.460	81602.2
17.465	81612.1
17.470	81584.2
17.475	81560.2
17.480	81582.2
17.485	81607.2
17.490	81596.2
17.495	81598.2
17.500	81596.2
17.505	81590.2
17.510	81592.2
17.515	81597.2
17.520	81591.2
17.525	81594.2
17.530	81590.2
17.535	81552.2
17.540	81561.2
17.545	81564.2
17.550	81593.2
17.555	81605.1
17.560	81600.1
17.565	81599.1
17.570	81602.1
17.575	81601.1
17.580	81603.1
17.585	81613.1
17.590	81614.1
17.595	81629.1
17.600	81613.1
17.605	81590.1
17.610	81591.1
17.615	81628.1
17.620	81631.1
17.625	81623.1
17.630	81633.1
17.635	81641.1
17.640	81636.1
17.645	81622.1
17.650	81628.1
17.655	81630.1
17.660	81628.1
17.665	81635.1
17.670	81613.1
17.675	81586.1
17.680	81613.1
17.685	81619.1
17.690	81615.1
17.695	81603.1
17.700	81607.1
17.705	81615.1
17.710	81620.1
17.715	81615.1
17.720	81612.1
17.725	81621.1
17.730	81628.1
17.735	81602.1
17.740	81581.1
17.745	81605.1
17.750	81636.1
17.755	81645.1
17.760	81636.1
17.765	81626.1
17.770	81626.1
17.775	81629.1
17.780	81626.1
17.785	81628.1
17.790	81639.1
17.795	81633.1
17.800	81616.1
17.805	81596.1
17.810	81616.1
17.815	81646.1
17.820	81645.1
17.825	81646.1
17.830	81652.1
17.835	81650.1
17.840	81659.1
17.845	81650.1
17.850	81663.1
17.855	81660.1
17.860	81681.0
17.865	81688.0
17.870	81655.1
17.875	81637.1
17.880	81670.1
17.885	81695.0
17.890	81697.0
17.895	81694.0
17.900	81703.0
17.905	81711.0
17.910	81716.0
17.915	81711.0
17.920	81718.0
17.925	81710.0
17.930	81718.0
17.935	81704.0
17.940	81702.0
17.945	81718.0
17.950	81746.0
17.955	81752.0
17.960	81756.0
17.965	81757.0
17.970	81765.0
17.975	81781.0
17.980	81782.0
17.985	81769.0
17.990	81782.0
17.995	81789.0
18.000	81780.0
18.005	81767.0
18.010	81769.0
18.015	81812.9
18.020	81819.9
18.025	81827.9
18.030	81825.9
18.035	81825.9
18.040	81840.9
18.045	81828.9
18.050	81833.9
18.055	81848.9
18.060	81839.9
18.065	81820.9
18.070	81804.9
18.075	81800.9
18.080	81828.9
18.085	81835.9
18.090	81828.9
18.095	81820.9
18.100	81809.9
18.105	81812.9
18.110	81800.9
18.115	81809.9
18.120	81818.9
18.125	81817.9
18.130	81810.9
18.135	81786.9
18.140	81769.9
18.145	81792.9
18.150	81811.9
18.155	81812.9
18.160	81815.9
18.165	81802.9
18.170	81790.9
18.175	81785.9
18.180	81781.9
18.185	81783.9
18.190	81782.9
18.195	81780.9
18.200	81755.9
18.205	81724.0
18.210	81740.0
18.215	81773.9
18.220	81779.9
18.225	81760.9
18.230	81746.0
18.235	81744.0
18.240	81750.9
18.245	81770.9
18.250	81765.9
18.255	81759.9
18.260	81766.9
18.265	81763.9
18.270	81746.9
18.275	81743.0
18.280	81779.9
18.285	81768.9
18.290	81770.9
18.295	81776.9
18.300	81778.9
18.305	81762.9
18.310	81759.9
18.315	81759.9
18.320	81752.9
18.325	81752.9
18.330	81747.9
18.335	81705.0
18.340	81698.0
18.345	81713.0
18.350	81741.9
18.355	81741.9
18.360	81733.9
18.365	81721.0
18.370	81712.0
18.375	81715.0
18.380	81729.9
18.385	81719.9
18.390	81726.9
18.395	81725.9
18.400	81711.0
18.405	81682.0
18.410	81684.0
18.415	81719.9
18.420	81729.9
18.425	81726.9
18.430	81730.9
18.435	81727.9
18.440	81732.9
18.445	81714.0
18.450	81717.9
18.455	81714.9
18.460	81714.9
18.465	81700.0
18.470	81678.0
18.475	81686.0
18.480	81718.9
18.485	81707.9
18.490	81718.9
18.495	81709.9
18.500	81716.9
18.505	81705.9
18.510	81700.9
18.515	81707.9
18.520	81716.9
18.525	81719.9
18.530	81716.9
18.535	81686.0
18.540	81675.0
18.545	81671.0
18.550	81697.9
18.555	81695.9
18.560	81697.9
18.565	81688.9
18.570	81683.0
18.575	81671.0
18.580	81675.0
18.585	81677.0
18.590	81666.0
18.595	81670.0
18.600	81637.0
18.605	81620.0
18.610	81623.0
18.615	81634.0
18.620	81648.0
18.625	81628.0
18.630	81618.0
18.635	81617.0
18.640	81611.0
18.645	81592.0
18.650	81594.0
18.655	81603.0
18.660	81606.0
18.665	81587.0
18.670	81550.0
18.675	81542.0
18.680	81574.0
18.685	81579.0
18.690	81573.0
18.695	81556.0
18.700	81564.0
18.705	81556.0
18.710	81556.0
18.715	81559.0
18.720	81566.0
18.725	81548.0
18.730	81553.0
18.735	81513.1
18.740	81514.0
18.745	81535.0
18.750	81563.0
18.755	81551.0
18.760	81552.0
18.765	81549.0
18.770	81550.0
18.775	81546.0
18.780	81531.0
18.785	81515.0
18.790	81520.0
18.795	81527.0
18.800	81507.0
18.805	81497.1
18.810	81489.1
18.815	81527.0
18.820	81513.0
18.825	81515.0
18.830	81518.0
18.835	81507.0
18.840	81494.0
18.845	81500.0
18.850	81504.0
18.855	81515.0
18.860	81520.0
18.865	81507.0
18.870	81480.1
18.875	81461.1
18.880	81486.0
18.885	81511.0
18.890	81507.0
18.895	81509.0
18.900	81494.0
18.905	81482.0
18.910	81486.0
18.915	81501.0
18.920	81503.0
18.925	81505.0
18.930	81496.0
18.935	81446.1
18.940	81446.1
18.945	81469.0
18.950	81485.0
18.955	81475.0
18.960	81461.1
18.965	81448.1
18.970	81454.1
18.975	81473.0
18.980	81467.0
18.985	81468.0
18.990	81451.1
18.995	81444.1
19.000	81398.1
19.005	81384.1
19.010	81380.1
19.015	81387.1
19.020	81368.1
19.025	81365.1
19.030	81355.1
19.035	81327.1
19.040	81316.1
19.045	81305.2
19.050	81321.1
19.055	81326.1
19.060	81309.1
19.065	81291.2
19.070	81297.2
19.075	81316.1
19.080	81372.1
19.085	81362.1
19.090	81359.1
19.095	81341.1
19.100	81339.1
19.105	81303.1
19.110	81299.1
19.115	81335.1
19.120	81370.1
19.125	81396.1
19.130	81410.1
19.135	81411.1
19.140	81416.1
19.145	81451.0
19.150	81457.0
19.155	81436.0
19.160	81443.0
19.165	81448.0
19.170	81449.0
19.175	81458.0
19.180	81456.0
19.185	81466.0
19.190	81478.0
19.195	81487.0
19.200	81464.0
19.205	81434.0
19.210	81445.0
19.215	81474.0
19.220	81493.0
19.225	81479.0
19.230	81485.0
19.235	81490.0
19.240	81491.0
19.245	81489.0
19.250	81487.0
19.255	81494.0
19.260	81483.0
19.265	81450.0
19.270	81439.0
19.275	81442.0
19.280	81464.0
19.285	81455.0
19.290	81466.0
19.295	81468.0
19.300	81473.0
19.305	81483.0
19.310	81475.0
19.315	81442.0
19.320	81449.0
19.325	81442.0
19.330	81440.0
19.335	81402.0
19.340	81385.0
19.345	81387.0
19.350	81369.0
19.355	81349.0
19.360	81336.1
19.365	81305.1
19.370	81283.1
19.375	81257.1
19.380	81239.1
19.385	81222.1
19.390	81232.1
19.395	81231.1
19.400	81231.1
19.405	81230.1
19.410	81242.1
19.415	81272.1
19.420	81284.1
19.425	81281.1
19.430	81264.1
19.435	81264.1
19.440	81259.1
19.445	81275.1
19.450	81293.1
19.455	81316.1
19.460	81324.0
19.465	81322.0
19.470	81314.0
19.475	81300.1
19.480	81332.0
19.485	81351.0
19.490	81362.0
19.495	81389.0
19.500	81409.0
19.505	81423.0
19.510	81416.0
19.515	81427.0
19.520	81422.0
19.525	81426.9
19.530	81428.9
19.535	81409.0
19.540	81403.0
19.545	81424.9
19.550	81435.9
19.555	81419.9
19.560	81421.9
19.565	81422.9
19.570	81428.9
19.575	81447.9
19.580	81454.9
19.585	81442.9
19.590	81441.9
19.595	81444.9
19.600	81419.9
19.605	81400.9
19.610	81417.9
19.615	81441.9
19.620	81442.9
19.625	81440.9
19.630	81444.9
19.635	81432.9
19.640	81425.9
19.645	81412.9
19.650	81395.9
19.655	81377.9
19.660	81377.9
19.665	81354.0
19.670	81313.0
19.675	81319.0
19.680	81362.0
19.685	81342.0
19.690	81339.0
19.695	81339.0
19.700	81326.0
19.705	81318.0
19.710	81331.0
19.715	81324.0
19.720	81319.0
19.725	81310.0
19.730	81295.0
19.735	81253.0
19.740	81262.0
19.745	81276.0
19.750	81295.0
19.755	81293.0
19.760	81278.0
19.765	81269.0
19.770	81292.0
19.775	81297.0
19.780	81295.0
19.785	81290.0
19.790	81297.0
19.795	81281.0
19.800	81216.0
19.805	81203.0
19.810	81227.0
19.815	81209.0
19.820	81198.0
19.825	81198.0
19.830	81207.0
19.835	81180.0
19.840	81161.1
19.845	81160.0
19.850	81164.1
19.855	81156.1
19.860	81158.0
19.865	81131.1
19.870	81098.1
19.875	81100.1
19.880	81146.0
19.885	81157.0
19.890	81148.0
19.895	81135.1
19.900	81119.1
19.905	81123.1
19.910	81136.0
19.915	81122.0
19.920	81123.1
19.925	81089.1
19.930	81052.1
19.935	81013.1
19.940	81021.1
19.945	81049.1
19.950	81050.1
19.955	81051.1
19.960	81033.1
19.965	81018.1
19.970	81014.1
19.975	81024.1
19.980	81012.1
19.985	81023.1
19.990	81030.1
19.995	81013.1
20.000	80992.1
20.005	80993.1
20.010	81019.1
20.015	81055.1
20.020	81073.0
20.025	81088.0
20.030	81103.0
20.035	81125.0
20.040	81149.0
20.045	81158.0
20.050	81171.0
20.055	81179.9
20.060	81205.9
20.065	81200.9
20.070	81198.9
20.075	81211.9
20.080	81250.9
20.085	81240.9
20.090	81251.9
20.095	81247.9
20.100	81244.9
20.105	81249.9
20.110	81258.9
20.115	81264.9
20.120	81285.8
20.125	81296.8
20.130	81296.8
20.135	81271.8
20.140	81276.8
20.145	81304.8
20.150	81304.8
20.155	81304.8
20.160	81294.8
20.165	81288.8
20.170	81285.8
20.175	81272.8
20.180	81268.8
20.185	81274.8
20.190	81260.8
20.195	81254.8
20.200	81219.8
20.205	81208.9
20.210	81203.9
20.215	81207.8
20.220	81213.8
20.225	81209.8
20.230	81199.8
20.235	81187.9
20.240	81203.8
20.245	81208.8
20.250	81213.8
20.255	81217.8
20.260	81210.8
20.265	81171.8
20.270	81147.9
20.275	81155.9
20.280	81186.8
20.285	81176.8
20.290	81176.8
20.295	81154.8
20.300	81140.9
20.305	81126.9
20.310	81130.9
20.315	81105.9
20.320	81094.9
20.325	81081.9
20.330	81055.9
20.335	81008.9
20.340	80988.9
20.345	81020.9
20.350	81014.9
20.355	80995.9
20.360	80956.0
20.365	80935.0
20.370	80919.0
20.375	80909.0
20.380	80900.0
20.385	80890.0
20.390	80868.0
20.395	80876.0
20.400	80875.0
20.405	80868.0
20.410	80906.0
20.415	80931.9
20.420	80939.9
20.425	80920.9
20.430	80922.9
20.435	80924.9
20.440	80925.9
20.445	80915.9
20.450	80895.9
20.455	80897.9
20.460	80883.9
20.465	80842.0
20.470	80803.0
20.475	80806.0
20.480	80834.0
20.485	80835.0
20.490	80800.0
20.495	80751.0
20.500	80699.1
20.505	80650.1
20.510	80636.1
20.515	80598.1
20.520	80582.1
20.525	80571.1
20.530	80535.2
20.535	80477.2
20.540	80463.2
20.545	80499.2
20.550	80536.1
20.555	80538.1
20.560	80547.1
20.565	80535.1
20.570	80552.1
20.575	80547.1
20.580	80558.1
20.585	80576.1
20.590	80607.1
20.595	80636.0
20.600	80622.0
20.605	80600.0
20.610	80612.0
20.615	80616.0
20.620	80602.0
20.625	80600.0
20.630	80582.0
20.635	80537.1
20.640	80532.1
20.645	80556.0
20.650	80564.0
20.655	80552.0
20.660	80513.1
20.665	80480.1
20.670	80438.1
20.675	80376.2
20.680	80333.2
20.685	80286.2
20.690	80239.2
20.695	80192.3
20.700	80180.3
20.705	80164.3
20.710	80149.3
20.715	80117.3
20.720	80137.3
20.725	80091.3
20.730	80041.4
20.735	79996.4
20.740	79984.4
20.745	80041.3
20.750	80093.3
20.755	80116.3
20.760	80142.2
20.765	80158.2
20.770	80173.2
20.775	80191.2
20.780	80204.2
20.785	80219.2
20.790	80214.1
20.795	80160.2
20.800	80071.2
20.805	80026.3
20.810	79989.3
20.815	79945.3
20.820	79911.3
20.825	79863.4
20.830	79790.4
20.835	79739.5
20.840	79649.5
20.845	79596.6
20.850	79612.5
20.855	79613.5
20.860	79623.5
20.865	79600.5
20.870	79552.6
20.875	79498.6
20.880	79438.6
20.885	79355.7
20.890	79310.7
20.895	79345.7
20.900	79384.6
20.905	79400.6
20.910	79455.6
20.915	79493.5
20.920	79496.5
20.925	79526.5
20.930	79528.5
20.935	79524.5
20.940	79542.4
20.945	79594.4
20.950	79599.4
20.955	79596.4
20.960	79610.3
20.965	79633.3
20.970	79645.3
20.975	79630.3
20.980	79613.3
20.985	79590.3
20.990	79599.3
20.995	79557.3
21.000	79510.3
21.005	79474.4
21.010	79417.4
21.015	79325.4
21.020	79223.5
21.025	79097.6
21.030	78969.7
21.035	78865.8
21.040	78783.8
21.045	78702.9
21.050	78693.9
21.055	78731.8
21.060	78774.8
21.065	78779.8
21.070	78874.7
21.075	79045.5
21.080	79231.4
21.085	79290.3
21.090	79248.3
21.095	79177.4
21.100	79068.4
21.105	78939.5
21.110	78700.7
21.115	78489.9
21.120	78397.9
21.125	78409.9
21.130	78512.8
21.135	78718.6
21.140	78878.5
21.145	79019.3
21.150	79145.2
21.155	79327.1
21.160	79577.8
21.165	79704.7
21.170	79754.7
21.175	79728.7
21.180	79603.7
21.185	79434.8
21.190	79321.9
21.195	79346.9
21.200	79412.8
21.205	79526.7
21.210	79682.5
21.215	79684.5
21.220	79514.6
21.225	79309.8
21.230	79265.8
21.235	79258.7
21.240	79254.7
21.245	79166.7
21.250	78916.9
21.255	78505.2
21.260	78134.5
21.265	77499.9
21.270	76648.5
21.275	76303.8
21.280	76575.6
21.285	76649.5
21.290	76637.4
21.295	77246.9
21.300	78452.9
21.305	78783.6
21.310	78377.9
21.315	78262.9
21.320	78324.8
21.325	78181.9
21.330	78000.9
21.335	78123.8
21.340	78223.6
21.345	77428.2
21.350	75414.8
21.355	73727.0
21.360	73902.8
21.365	74468.2
21.370	73935.6
21.375	73137.2
21.380	74405.0
21.385	76916.9
21.390	77553.3
21.395	76931.7
21.400	76333.1
21.405	75994.2
21.410	75650.4
21.415	75232.7
21.420	74753.1
21.425	74472.3
21.430	74614.3
21.435	74954.1
21.440	75123.2
21.445	75166.4
21.450	75307.6
21.455	75720.6
21.460	76420.4
21.465	77251.2
21.470	78070.0
21.475	78892.8
21.480	79759.6
21.485	80617.4
21.490	81398.2
21.495	82026.0
21.500	82461.9
21.505	82733.8
21.510	82899.7
21.515	82968.7
21.520	82998.7
21.525	83023.7
21.530	83014.7
21.535	82997.7
21.540	83015.7
21.545	83047.7
21.550	83046.7
21.555	83052.7
21.560	83053.7
21.565	83047.7
21.570	83053.7
21.575	83047.7
21.580	83055.7
21.585	83056.7
21.590	83064.7
21.595	83056.7
21.600	83034.7
21.605	83023.7
21.610	83061.7
21.615	83069.7
21.620	83078.7
21.625	83065.7
21.630	83059.7
21.635	83064.7
21.640	83070.7
21.645	83060.7
21.650	83064.7
21.655	83068.7
21.660	83058.7
21.665	83031.7
21.670	83022.7
21.675	83046.7
21.680	83061.7
21.685	83055.7
21.690	83064.7
21.695	83062.7
21.700	83064.7
21.705	83050.7
21.710	83055.7
21.715	83064.7
21.720	83076.7
21.725	83065.7
21.730	83056.7
21.735	83036.7
21.740	83038.7
21.745	83071.7
21.750	83078.7
21.755	83075.7
21.760	83071.7
21.765	83070.7
21.770	83069.7
21.775	83067.7
21.780	83079.7
21.785	83070.7
21.790	83081.7
21.795	83062.7
21.800	83033.7
21.805	83035.7
21.810	83062.7
21.815	83068.7
21.820	83068.7
21.825	83070.7
21.830	83061.7
21.835	83076.7
21.840	83073.7
21.845	83068.7
21.850	83079.7
21.855	83078.7
21.860	83079.7
21.865	83052.7
21.870	83038.7
21.875	83050.7
21.880	83083.7
21.885	83080.7
21.890	83075.7
21.895	83076.7
21.900	83080.7
21.905	83070.7
21.910	83078.7
21.915	83083.7
21.920	83078.7
21.925	83084.7
21.930	83059.7
21.935	83036.7
21.940	83046.7
21.945	83075.7
21.950	83080.7
21.955	83062.7
21.960	83071.7
21.965	83074.7
21.970	83074.7
21.975	83071.7
21.980	83074.7
21.985	83082.7
21.990	83079.7
21.995	83071.7
22.000	83058.7
22.005	83047.7
22.010	83074.7
22.015	83087.7
22.020	83093.7
22.025	83082.7
22.030	83077.7
22.035	83083.7
22.040	83083.7
22.045	83075.7
22.050	83083.7
22.055	83082.7
22.060	83074.7
22.065	83057.7
22.070	83050.7
22.075	83069.7
22.080	83084.7
22.085	83074.7
22.090	83083.7
22.095	83069.7
22.100	83077.7
22.105	83073.7
22.110	83082.7
22.115	83075.7
22.120	83088.7
22.125	83088.7
22.130	83062.7
22.135	83056.7
22.140	83065.7
22.145	83080.7
22.150	83092.7
22.155	83087.7
22.160	83099.7
22.165	83089.7
22.170	83098.7
22.175	83084.7
22.180	83080.7
22.185	83081.7
22.190	83082.7
22.195	83072.7
22.200	83055.7
22.205	83050.7
22.210	83077.7
22.215	83082.7
22.220	83089.7
22.225	83069.7
22.230	83073.7
22.235	83077.7
22.240	83083.7
22.245	83074.7
22.250	83085.7
22.255	83092.7
22.260	83095.7
22.265	83064.7
22.270	83057.7
22.275	83071.7
22.280	83082.7
22.285	83091.7
22.290	83088.7
22.295	83095.7
22.300	83081.7
22.305	83091.7
22.310	83089.7
22.315	83077.7
22.320	83088.7
22.325	83086.7
22.330	83060.7
22.335	83046.7
22.340	83072.7
22.345	83089.7
22.350	83088.7
22.355	83086.7
22.360	83079.7
22.365	83075.7
22.370	83083.7
22.375	83068.7
22.380	83079.7
22.385	83084.7
22.390	83095.7
22.395	83082.7
22.400	83064.7
22.405	83046.7
22.410	83095.7
22.415	83098.7
22.420	83098.7
22.425	83091.7
22.430	83100.7
22.435	83095.7
22.440	83091.7
22.445	83096.7
22.450	83095.7
22.455	83087.7
22.460	83079.7
22.465	83057.7
22.470	83054.7
22.475	83083.7
22.480	83099.7
22.485	83082.7
22.490	83086.7
22.495	83084.7
22.500	83075.7
22.505	83085.7
22.510	83086.7
22.515	83080.7
22.520	83096.7
22.525	83093.7
22.530	83073.7
22.535	83065.7
22.540	83064.7
22.545	83090.7
22.550	83101.7
22.555	83088.7
22.560	83105.6
22.565	83093.7
22.570	83095.7
22.575	83094.7
22.580	83105.7
22.585	83086.7
22.590	83088.7
22.595	83072.7
22.600	83052.7
22.605	83053.7
22.610	83099.7
22.615	83081.7
22.620	83088.7
22.625	83087.7
22.630	83091.7
22.635	83086.7
22.640	83089.7
22.645	83078.7
22.650	83084.7
22.655	83098.7
22.660	83104.7
22.665	83071.7
22.670	83068.7
22.675	83077.7
22.680	83097.7
22.685	83102.7
22.690	83102.7
22.695	83109.6
22.700	83104.7
22.705	83095.7
22.710	83097.7
22.715	83092.7
22.720	83096.7
22.725	83098.7
22.730	83071.7
22.735	83043.7
22.740	83074.7
22.745	83093.7
22.750	83093.7
22.755	83093.7
22.760	83095.7
22.765	83089.7
22.770	83093.7
22.775	83084.7
22.780	83092.7
22.785	83092.7
22.790	83098.7
22.795	83093.7
22.800	83082.7
22.805	83075.7
22.810	83103.6
22.815	83101.7
22.820	83103.7
22.825	83097.7
22.830	83094.7
22.835	83102.7
22.840	83096.7
22.845	83102.7
22.850	83101.7
22.855	83101.7
22.860	83083.7
22.865	83056.7
22.870	83065.7
22.875	83087.7
22.880	83100.7
22.885	83092.7
22.890	83095.7
22.895	83086.7
22.900	83097.7
22.905	83093.7
22.910	83092.7
22.915	83100.7
22.920	83104.7
22.925	83109.6
22.930	83082.7
22.935	83066.7
22.940	83080.7
22.945	83094.7
22.950	83094.7
22.955	83099.7
22.960	83097.7
22.965	83095.7
22.970	83099.7
22.975	83099.7
22.980	83093.7
22.985	83105.6
22.990	83107.6
22.995	83078.7
23.000	83054.7
23.005	83063.7
23.010	83097.7
23.015	83095.7
23.020	83092.7
23.025	83101.7
23.030	83092.7
23.035	83095.7
23.040	83101.7
23.045	83095.7
23.050	83096.7
23.055	83097.7
23.060	83102.7
23.065	83070.7
23.070	83058.7
23.075	83095.7
23.080	83103.6
23.085	83099.7
23.090	83102.7
23.095	83093.7
23.100	83095.7
23.105	83095.7
23.110	83092.7
23.115	83096.7
23.120	83103.7
23.125	83096.7
23.130	83064.7
23.135	83045.7
23.140	83069.7
23.145	83091.7
23.150	83087.7
23.155	83090.7
23.160	83088.7
23.165	83091.7
23.170	83095.7
23.175	83084.7
23.180	83085.7
23.185	83091.7
23.190	83097.7
23.195	83075.7
23.200	83068.7
23.205	83066.7
23.210	83097.7
23.215	83095.7
23.220	83101.7
23.225	83085.7
23.230	83087.7
23.235	83092.7
23.240	83088.7
23.245	83092.7
23.250	83096.7
23.255	83098.7
23.260	83083.7
23.265	83052.7
23.270	83049.7
23.275	83086.7
23.280	83092.7
23.285	83083.7
23.290	83087.7
23.295	83083.7
23.300	83087.7
23.305	83088.7
23.310	83095.7
23.315	83087.7
23.320	83097.7
23.325	83104.6
23.330	83077.7
23.335	83056.7
23.340	83075.7
23.345	83102.7
23.350	83106.6
23.355	83098.7
23.360	83098.6
23.365	83092.7
23.370	83091.7
23.375	83084.7
23.380	83092.7
23.385	83097.7
23.390	83101.7
23.395	83065.7
23.400	83059.7
23.405	83063.7
23.410	83096.7
23.415	83081.7
23.420	83088.7
23.425	83084.7
23.430	83090.7
23.435	83086.7
23.440	83088.7
23.445	83091.7
23.450	83088.7
23.455	83096.7
23.460	83083.7
23.465	83066.7
23.470	83060.7
23.475	83091.7
23.480	83096.7
23.485	83098.7
23.490	83100.7
23.495	83094.7
23.500	83093.7
23.505	83082.7
23.510	83091.7
23.515	83094.7
23.520	83096.7
23.525	83099.7
23.530	83070.7
23.535	83052.7
23.540	83079.7
23.545	83089.7
23.550	83091.7
23.555	83077.7
23.560	83094.7
23.565	83082.7
23.570	83087.7
23.575	83092.7
23.580	83103.7
23.585	83099.7
23.590	83102.7
23.595	83087.7
23.600	83064.7
23.605	83064.7
23.610	83101.7
23.615	83100.6
23.620	83106.6
23.625	83105.6
23.630	83104.6
23.635	83094.7
23.640	83091.7
23.645	83087.7
23.650	83099.7
23.655	83097.7
23.660	83079.7
23.665	83065.7
23.670	83063.7
23.675	83094.7
23.680	83096.7
23.685	83089.7
23.690	83087.7
23.695	83090.7
23.700	83091.7
23.705	83091.7
23.710	83097.7
23.715	83102.7
23.720	83113.6
23.725	83108.6
23.730	83081.7
23.735	83058.7
23.740	83076.7
23.745	83099.7
23.750	83110.6
23.755	83105.6
23.760	83114.6
23.765	83102.6
23.770	83096.7
23.775	83098.7
23.780	83090.7
23.785	83096.7
23.790	83092.7
23.795	83069.7
23.800	83063.7
23.805	83081.7
23.810	83103.6
23.815	83086.7
23.820	83093.7
23.825	83086.7
23.830	83096.7
23.835	83087.7
23.840	83088.7
23.845	83093.7
23.850	83100.7
23.855	83110.6
23.860	83096.7
23.865	83069.7
23.870	83062.7
23.875	83093.7
23.880	83097.7
23.885	83105.6
23.890	83099.7
23.895	83097.7
23.900	83097.7
23.905	83093.7
23.910	83098.7
23.915	83091.7
23.920	83094.7
23.925	83091.7
23.930	83063.7
23.935	83051.7
23.940	83081.7
23.945	83096.7
23.950	83084.7
23.955	83079.7
23.960	83089.7
23.965	83085.7
23.970	83088.7
23.975	83092.7
23.980	83095.7
23.985	83093.7
23.990	83105.6
23.995	83077.7
24.000	83060.7
24.005	83065.7
24.010	83088.7
24.015	83090.7
24.020	83098.7
24.025	83094.7
24.030	83094.7
24.035	83092.7
24.040	83102.6
24.045	83095.7
24.050	83095.7
24.055	83091.7
24.060	83076.7
24.065	83057.7
24.070	83063.7
24.075	83093.7
24.080	83099.7
24.085	83093.7
24.090	83094.7
24.095	83089.7
24.100	83086.7
24.105	83081.7
24.110	83088.7
24.115	83090.7
24.120	83100.7
24.125	83104.6
24.130	83084.7
24.135	83059.7
24.140	83076.7
24.145	83085.7
24.150	83092.7
24.155	83098.7
24.160	83093.7
24.165	83098.7
24.170	83094.7
24.175	83091.7
24.180	83093.7
24.185	83092.7
24.190	83093.7
24.195	83059.7
24.200	83053.7
24.205	83056.7
24.210	83087.7
24.215	83084.7
24.220	83088.7
24.225	83079.7
24.230	83082.7
24.235	83076.7
24.240	83081.7
24.245	83078.7
24.250	83082.7
24.255	83090.7
24.260	83083.7
24.265	83058.7
24.270	83066.7
24.275	83082.7
24.280	83097.7
24.285	83096.7
24.290	83084.7
24.295	83084.7
24.300	83097.7
24.305	83090.7
24.310	83092.7
24.315	83091.7
24.320	83091.7
24.325	83080.7
24.330	83048.7
24.335	83041.7
24.340	83073.7
24.345	83085.7
24.350	83087.7
24.355	83082.7
24.360	83083.7
24.365	83077.7
24.370	83086.7
24.375	83082.7
24.380	83079.7
24.385	83087.7
24.390	83094.7
24.395	83069.7
24.400	83056.7
24.405	83070.7
24.410	83087.7
24.415	83089.7
24.420	83088.7
24.425	83086.7
24.430	83089.7
24.435	83093.7
24.440	83094.7
24.445	83094.7
24.450	83097.7
24.455	83086.7
24.460	83071.7
24.465	83048.7
24.470	83055.7
24.475	83078.7
24.480	83086.7
24.485	83082.7
24.490	83091.7
24.495	83077.7
24.500	83072.7
24.505	83077.7
24.510	83073.7
24.515	83074.7
24.520	83082.7
24.525	83085.7
24.530	83062.7
24.535	83048.7
24.540	83079.7
24.545	83084.7
24.550	83088.7
24.555	83089.7
24.560	83083.7
24.565	83081.7
24.570	83082.7
24.575	83090.7
24.580	83094.7
24.585	83092.7
24.590	83081.7
24.595	83051.7
24.600	83039.7
24.605	83059.7
24.610	83078.7
24.615	83078.7
24.620	83075.7
24.625	83083.7
24.630	83079.7
24.635	83079.7
24.640	83086.7
24.645	83079.7
24.650	83086.7
24.655	83086.7
24.660	83072.7
24.665	83058.7
24.670	83064.7
24.675	83093.7
24.680	83091.7
24.685	83087.7
24.690	83090.7
24.695	83079.7
24.700	83085.7
24.705	83085.7
24.710	83080.7
24.715	83086.7
24.720	83090.7
24.725	83074.7
24.730	83060.7
24.735	83043.7
24.740	83082.7
24.745	83082.7
24.750	83080.7
24.755	83081.7
24.760	83081.7
24.765	83078.7
24.770	83081.7
24.775	83084.7
24.780	83081.7
24.785	83079.7
24.790	83085.7
24.795	83058.7
24.800	83050.7
24.805	83060.7
24.810	83091.7
24.815	83096.7
24.820	83098.7
24.825	83085.7
24.830	83081.7
24.835	83091.7
24.840	83087.7
24.845	83090.7
24.850	83095.7
24.855	83098.6
24.860	83067.7
24.865	83056.7
24.870	83057.7
24.875	83091.7
24.880	83083.7
24.885	83078.7
24.890	83084.7
24.895	83078.7
24.900	83087.7
24.905	83085.7
24.910	83088.7
24.915	83092.7
24.920	83099.7
24.925	83091.7
24.930	83066.7
24.935	83060.7
24.940	83084.7
24.945	83087.7
24.950	83106.6
24.955	83097.7
24.960	83087.7
24.965	83087.7
24.970	83083.7
24.975	83079.7
24.980	83091.7
24.985	83099.6
24.990	83094.7
24.995	83072.7
25.000	83058.7
25.005	83072.7
25.010	83094.7
25.015	83083.7
25.020	83082.7
25.025	83084.7
25.030	83086.7
25.035	83091.7
25.040	83085.7
25.045	83090.7
25.050	83092.7
25.055	83097.7
25.060	83081.7
25.065	83052.7
25.070	83066.7
25.075	83093.7
25.080	83100.7
25.085	83101.6
25.090	83103.6
25.095	83097.7
25.100	83091.7
25.105	83088.7
25.110	83089.7
25.115	83087.7
25.120	83085.7
25.125	83082.7
25.130	83067.7
25.135	83065.7
25.140	83090.7
25.145	83092.7
25.150	83086.7
25.155	83081.7
25.160	83079.7
25.165	83069.7
25.170	83086.7
25.175	83085.7
25.180	83095.7
25.185	83100.7
25.190	83097.7
25.195	83065.7
25.200	83053.7
25.205	83060.7
25.210	83089.7
25.215	83092.7
25.220	83102.6
25.225	83095.7
25.230	83096.7
25.235	83087.7
25.240	83091.7
25.245	83082.7
25.250	83090.7
25.255	83092.7
25.260	83072.7
25.265	83048.7
25.270	83064.7
25.275	83089.7
25.280	83090.7
25.285	83084.7
25.290	83083.7
25.295	83083.7
25.300	83076.7
25.305	83092.7
25.310	83092.7
25.315	83100.6
25.320	83102.6
25.325	83092.7
25.330	83063.7
25.335	83057.7
25.340	83089.7
25.345	83091.7
25.350	83090.7
25.355	83105.6
25.360	83107.6
25.365	83092.7
25.370	83097.6
25.375	83086.7
25.380	83087.7
25.385	83081.7
25.390	83088.7
25.395	83060.7
25.400	83071.7
25.405	83081.7
25.410	83092.7
25.415	83095.7
25.420	83097.7
25.425	83082.7
25.430	83086.7
25.435	83078.7
25.440	83090.7
25.445	83087.7
25.450	83102.6
25.455	83099.6
25.460	83089.7
25.465	83058.7
25.470	83067.7
25.475	83082.7
25.480	83090.7
25.485	83095.7
25.490	83101.6
25.495	83100.6
25.500	83097.6
25.505	83093.7
25.510	83092.7
25.515	83090.7
25.520	83091.7
25.525	83075.7
25.530	83062.7
25.535	83058.7
25.540	83089.7
25.545	83096.7
25.550	83097.7
25.555	83089.7
25.560	83095.7
25.565	83082.7
25.570	83076.7
25.575	83080.7
25.580	83087.7
25.585	83099.6
25.590	83107.6
25.595	83080.7
25.600	83054.7
25.605	83082.7
25.610	83090.7
25.615	83085.7
25.620	83097.6
25.625	83100.6
25.630	83102.6
25.635	83091.7
25.640	83088.7
25.645	83092.7
25.650	83093.7
25.655	83092.7
25.660	83063.7
25.665	83051.7
25.670	83070.7
25.675	83099.7
25.680	83104.6
25.685	83096.7
25.690	83096.7
25.695	83091.7
25.700	83084.7
25.705	83082.7
25.710	83097.7
25.715	83102.7
25.720	83110.6
25.725	83097.7
25.730	83078.7
25.735	83065.7
25.740	83095.7
25.745	83096.6
25.750	83098.6
25.755	83101.7
25.760	83106.6
25.765	83103.6
25.770	83093.7
25.775	83103.6
25.780	83101.6
25.785	83103.6
25.790	83096.7
25.795	83072.7
25.800	83051.7
25.805	83094.6
25.810	83095.7
25.815	83099.6
25.820	83103.6
25.825	83100.7
25.830	83094.7
25.835	83087.7
25.840	83096.7
25.845	83087.7
25.850	83104.6
25.855	83107.6
25.860	83097.7
25.865	83066.7
25.870	83073.7
25.875	83108.6
25.880	83113.6
25.885	83099.6
25.890	83103.6
25.895	83099.7
25.900	83111.6
25.905	83108.6
25.910	83110.6
25.915	83106.6
25.920	83105.6
25.925	83084.7
25.930	83066.7
25.935	83064.7
25.940	83102.6
25.945	83101.6
25.950	83101.6
25.955	83103.6
25.960	83103.6
25.965	83097.7
25.970	83091.7
25.975	83094.7
25.980	83098.6
25.985	83106.6
25.990	83102.6
25.995	83082.7
26.000	83081.7
26.005	83097.7
26.010	83106.6
26.015	83109.6
26.020	83109.6
26.025	83103.6
26.030	83102.6
26.035	83103.6
26.040	83099.6
26.045	83121.6
26.050	83116.6
26.055	83107.6
26.060	83079.7
26.065	83070.7
26.070	83085.7
26.075	83095.7
26.080	83100.6
26.085	83096.7
26.090	83098.6
26.095	83094.7
26.100	83106.6
26.105	83102.6
26.110	83102.6
26.115	83113.6
26.120	83108.6
26.125	83103.6
26.130	83079.7
26.135	83078.7
26.140	83112.6
26.145	83111.6
26.150	83112.6
26.155	83106.6
26.160	83104.6
26.165	83097.6
26.170	83115.6
26.175	83113.6
26.180	83118.6
26.185	83117.6
26.190	83103.6
26.195	83071.7
26.200	83064.7
26.205	83089.7
26.210	83096.6
26.215	83091.7
26.220	83103.6
26.225	83109.6
26.230	83101.6
26.235	83103.6
26.240	83097.7
26.245	83100.6
26.250	83111.6
26.255	83102.6
26.260	83088.7
26.265	83066.7
26.270	83091.7
26.275	83105.6
26.280	83114.6
26.285	83108.6
26.290	83107.6
26.295	83105.6
26.300	83104.6
26.305	83113.6
26.310	83114.6
26.315	83109.6
26.320	83112.6
26.325	83093.7
26.330	83073.7
26.335	83072.7
26.340	83105.6
26.345	83094.7
26.350	83095.7
26.355	83096.6
26.360	83105.6
26.365	83106.6
26.370	83112.6
26.375	83105.6
26.380	83110.6
26.385	83109.6
26.390	83101.6
26.395	83078.7
26.400	83073.7
26.405	83108.6
26.410	83120.6
26.415	83118.6
26.420	83123.6
26.425	83113.6
26.430	83102.6
26.435	83099.7
26.440	83104.6
26.445	83114.6
26.450	83116.6
26.455	83116.6
26.460	83080.7
26.465	83068.7
