PK2650 Power Data
Z Position (mm)	105.000	W Position (deg)	0.00
Preform ID	Diameter (mm)	Time Stamp	Start Time	Operator	Serial Number
Test 1	25	03-Nov-22 18:05:01	03-Nov-22 18:06:39	[no user]	266007708
Radius (mm)	Power
-26.355	82762.4
-26.350	82722.4
-26.345	82721.4
-26.340	82741.4
-26.335	82764.4
-26.330	82761.4
-26.325	82752.4
-26.320	82752.4
-26.315	82756.4
-26.310	82769.4
-26.305	82764.4
-26.300	82770.4
-26.295	82776.4
-26.290	82773.4
-26.285	82762.4
-26.280	82736.4
-26.275	82762.4
-26.270	82777.4
-26.265	82781.4
-26.260	82769.4
-26.255	82779.4
-26.250	82768.4
-26.245	82776.4
-26.240	82775.4
-26.235	82780.4
-26.230	82779.4
-26.225	82787.4
-26.220	82776.4
-26.215	82758.4
-26.210	82757.4
-26.205	82782.4
-26.200	82789.4
-26.195	82786.4
-26.190	82794.4
-26.185	82800.4
-26.180	82798.4
-26.175	82804.4
-26.170	82808.4
-26.165	82800.4
-26.160	82809.4
-26.155	82808.4
-26.150	82776.4
-26.145	82767.4
-26.140	82791.4
-26.135	82812.4
-26.130	82794.4
-26.125	82800.4
-26.120	82791.4
-26.115	82793.4
-26.110	82788.4
-26.105	82795.4
-26.100	82804.4
-26.095	82813.4
-26.090	82804.4
-26.085	82792.4
-26.080	82767.4
-26.075	82791.4
-26.070	82805.4
-26.065	82810.4
-26.060	82799.4
-26.055	82809.4
-26.050	82806.4
-26.045	82825.4
-26.040	82822.4
-26.035	82835.3
-26.030	82824.4
-26.025	82837.3
-26.020	82821.4
-26.015	82797.4
-26.010	82801.4
-26.005	82819.4
-26.000	82825.4
-25.995	82820.4
-25.990	82807.4
-25.985	82816.4
-25.980	82801.4
-25.975	82815.4
-25.970	82817.4
-25.965	82823.4
-25.960	82824.4
-25.955	82830.3
-25.950	82798.4
-25.945	82796.4
-25.940	82803.4
-25.935	82825.4
-25.930	82826.4
-25.925	82832.4
-25.920	82823.4
-25.915	82834.4
-25.910	82828.4
-25.905	82837.3
-25.900	82841.3
-25.895	82841.3
-25.890	82829.4
-25.885	82819.4
-25.880	82795.4
-25.875	82820.4
-25.870	82839.3
-25.865	82828.4
-25.860	82828.4
-25.855	82817.4
-25.850	82815.4
-25.845	82825.4
-25.840	82828.4
-25.835	82835.3
-25.830	82824.4
-25.825	82832.3
-25.820	82834.3
-25.815	82801.4
-25.810	82801.4
-25.805	82832.3
-25.800	82836.3
-25.795	82834.3
-25.790	82830.4
-25.785	82829.4
-25.780	82837.3
-25.775	82837.3
-25.770	82835.3
-25.765	82847.3
-25.760	82840.3
-25.755	82836.3
-25.750	82805.4
-25.745	82816.4
-25.740	82820.4
-25.735	82832.4
-25.730	82841.3
-25.725	82825.4
-25.720	82815.4
-25.715	82828.4
-25.710	82825.4
-25.705	82825.4
-25.700	82827.4
-25.695	82837.3
-25.690	82829.4
-25.685	82812.4
-25.680	82789.4
-25.675	82813.4
-25.670	82831.4
-25.665	82833.4
-25.660	82830.4
-25.655	82832.4
-25.650	82834.3
-25.645	82838.3
-25.640	82837.3
-25.635	82850.3
-25.630	82842.3
-25.625	82844.3
-25.620	82831.3
-25.615	82808.4
-25.610	82819.4
-25.605	82838.3
-25.600	82829.4
-25.595	82834.3
-25.590	82821.4
-25.585	82824.4
-25.580	82818.4
-25.575	82829.3
-25.570	82825.4
-25.565	82841.3
-25.560	82837.3
-25.555	82842.3
-25.550	82805.4
-25.545	82800.4
-25.540	82809.4
-25.535	82833.3
-25.530	82837.3
-25.525	82840.3
-25.520	82827.4
-25.515	82825.4
-25.510	82831.4
-25.505	82834.4
-25.500	82839.3
-25.495	82844.3
-25.490	82838.3
-25.485	82817.4
-25.480	82800.4
-25.475	82817.4
-25.470	82836.3
-25.465	82835.3
-25.460	82821.4
-25.455	82821.4
-25.450	82828.4
-25.445	82830.4
-25.440	82834.3
-25.435	82827.4
-25.430	82831.3
-25.425	82840.3
-25.420	82822.4
-25.415	82797.4
-25.410	82798.4
-25.405	82827.4
-25.400	82833.3
-25.395	82828.4
-25.390	82823.4
-25.385	82828.4
-25.380	82831.4
-25.375	82831.4
-25.370	82838.3
-25.365	82850.3
-25.360	82840.3
-25.355	82847.3
-25.350	82809.4
-25.345	82813.4
-25.340	82825.4
-25.335	82840.3
-25.330	82833.4
-25.325	82825.4
-25.320	82819.4
-25.315	82824.4
-25.310	82817.4
-25.305	82825.4
-25.300	82826.4
-25.295	82837.3
-25.290	82836.3
-25.285	82823.4
-25.280	82792.4
-25.275	82805.4
-25.270	82824.4
-25.265	82827.4
-25.260	82834.4
-25.255	82841.3
-25.250	82829.4
-25.245	82834.3
-25.240	82833.4
-25.235	82843.3
-25.230	82830.4
-25.225	82840.3
-25.220	82822.4
-25.215	82796.4
-25.210	82809.4
-25.205	82833.3
-25.200	82820.4
-25.195	82827.4
-25.190	82816.4
-25.185	82815.4
-25.180	82814.4
-25.175	82822.4
-25.170	82827.4
-25.165	82827.4
-25.160	82834.4
-25.155	82836.3
-25.150	82794.4
-25.145	82808.4
-25.140	82809.4
-25.135	82824.4
-25.130	82821.4
-25.125	82837.4
-25.120	82823.4
-25.115	82830.4
-25.110	82828.4
-25.105	82829.4
-25.100	82828.4
-25.095	82831.4
-25.090	82825.4
-25.085	82805.4
-25.080	82805.4
-25.075	82821.4
-25.070	82828.4
-25.065	82822.4
-25.060	82814.4
-25.055	82811.4
-25.050	82811.4
-25.045	82825.4
-25.040	82811.4
-25.035	82815.4
-25.030	82819.4
-25.025	82827.4
-25.020	82810.4
-25.015	82780.4
-25.010	82787.4
-25.005	82820.4
-25.000	82808.4
-24.995	82818.4
-24.990	82823.4
-24.985	82818.4
-24.980	82809.4
-24.975	82817.4
-24.970	82817.4
-24.965	82827.4
-24.960	82819.4
-24.955	82816.4
-24.950	82784.4
-24.945	82791.4
-24.940	82805.4
-24.935	82811.4
-24.930	82807.4
-24.925	82803.4
-24.920	82804.4
-24.915	82797.4
-24.910	82797.4
-24.905	82796.4
-24.900	82806.4
-24.895	82799.4
-24.890	82807.4
-24.885	82781.4
-24.880	82761.4
-24.875	82774.4
-24.870	82798.4
-24.865	82798.4
-24.860	82797.4
-24.855	82797.4
-24.850	82798.4
-24.845	82800.4
-24.840	82801.4
-24.835	82804.4
-24.830	82803.4
-24.825	82806.4
-24.820	82784.4
-24.815	82764.4
-24.810	82769.4
-24.805	82800.4
-24.800	82788.4
-24.795	82790.4
-24.790	82780.4
-24.785	82794.4
-24.780	82776.4
-24.775	82792.4
-24.770	82778.4
-24.765	82782.4
-24.760	82784.4
-24.755	82786.4
-24.750	82746.4
-24.745	82754.4
-24.740	82770.4
-24.735	82784.4
-24.730	82782.4
-24.725	82780.4
-24.720	82780.4
-24.715	82783.4
-24.710	82784.4
-24.705	82783.4
-24.700	82781.4
-24.695	82789.4
-24.690	82783.4
-24.685	82758.4
-24.680	82751.4
-24.675	82760.4
-24.670	82780.4
-24.665	82777.4
-24.660	82770.4
-24.655	82768.4
-24.650	82768.4
-24.645	82767.4
-24.640	82762.4
-24.635	82769.4
-24.630	82768.4
-24.625	82766.4
-24.620	82760.4
-24.615	82738.4
-24.610	82746.4
-24.605	82769.4
-24.600	82772.4
-24.595	82774.4
-24.590	82763.4
-24.585	82767.4
-24.580	82774.4
-24.575	82777.4
-24.570	82770.4
-24.565	82777.4
-24.560	82767.4
-24.555	82767.4
-24.550	82737.4
-24.545	82742.4
-24.540	82766.4
-24.535	82766.4
-24.530	82749.4
-24.525	82756.4
-24.520	82750.4
-24.515	82753.4
-24.510	82758.4
-24.505	82754.4
-24.500	82762.4
-24.495	82757.4
-24.490	82764.4
-24.485	82733.4
-24.480	82731.4
-24.475	82739.4
-24.470	82752.4
-24.465	82760.4
-24.460	82754.4
-24.455	82746.4
-24.450	82753.4
-24.445	82758.4
-24.440	82755.4
-24.435	82760.4
-24.430	82758.4
-24.425	82760.4
-24.420	82743.4
-24.415	82726.4
-24.410	82736.4
-24.405	82753.4
-24.400	82748.4
-24.395	82753.4
-24.390	82745.4
-24.385	82743.4
-24.380	82735.4
-24.375	82758.4
-24.370	82747.4
-24.365	82767.4
-24.360	82751.4
-24.355	82754.4
-24.350	82717.4
-24.345	82721.4
-24.340	82738.4
-24.335	82754.4
-24.330	82745.4
-24.325	82750.4
-24.320	82743.4
-24.315	82756.4
-24.310	82759.4
-24.305	82767.4
-24.300	82764.4
-24.295	82764.4
-24.290	82758.4
-24.285	82731.4
-24.280	82730.4
-24.275	82745.4
-24.270	82759.4
-24.265	82754.4
-24.260	82746.4
-24.255	82745.4
-24.250	82746.4
-24.245	82751.4
-24.240	82744.4
-24.235	82749.4
-24.230	82750.4
-24.225	82748.4
-24.220	82732.4
-24.215	82720.4
-24.210	82723.4
-24.205	82753.4
-24.200	82744.4
-24.195	82744.4
-24.190	82743.4
-24.185	82736.4
-24.180	82751.4
-24.175	82766.4
-24.170	82761.4
-24.165	82766.4
-24.160	82759.4
-24.155	82752.4
-24.150	82723.4
-24.145	82734.4
-24.140	82750.4
-24.135	82759.4
-24.130	82747.4
-24.125	82738.4
-24.120	82742.4
-24.115	82738.4
-24.110	82742.4
-24.105	82751.4
-24.100	82744.4
-24.095	82743.4
-24.090	82748.4
-24.085	82721.4
-24.080	82708.4
-24.075	82734.4
-24.070	82744.4
-24.065	82752.4
-24.060	82752.4
-24.055	82749.4
-24.050	82743.4
-24.045	82754.4
-24.040	82754.4
-24.035	82764.4
-24.030	82751.4
-24.025	82757.4
-24.020	82743.4
-24.015	82720.4
-24.010	82741.4
-24.005	82755.4
-24.000	82749.4
-23.995	82750.4
-23.990	82739.4
-23.985	82737.4
-23.980	82749.4
-23.975	82752.4
-23.970	82754.4
-23.965	82757.4
-23.960	82758.4
-23.955	82758.4
-23.950	82730.4
-23.945	82733.4
-23.940	82747.4
-23.935	82761.4
-23.930	82755.4
-23.925	82756.4
-23.920	82771.4
-23.915	82763.4
-23.910	82769.4
-23.905	82774.4
-23.900	82777.4
-23.895	82783.4
-23.890	82779.4
-23.885	82752.4
-23.880	82745.4
-23.875	82766.4
-23.870	82776.4
-23.865	82770.4
-23.860	82763.4
-23.855	82767.4
-23.850	82765.4
-23.845	82767.4
-23.840	82767.4
-23.835	82771.4
-23.830	82763.4
-23.825	82768.4
-23.820	82762.4
-23.815	82740.4
-23.810	82744.4
-23.805	82782.4
-23.800	82773.4
-23.795	82770.4
-23.790	82768.4
-23.785	82779.4
-23.780	82780.4
-23.775	82779.4
-23.770	82773.4
-23.765	82787.4
-23.760	82784.4
-23.755	82773.4
-23.750	82747.4
-23.745	82759.4
-23.740	82780.4
-23.735	82783.4
-23.730	82771.4
-23.725	82770.4
-23.720	82774.4
-23.715	82774.4
-23.710	82777.4
-23.705	82781.4
-23.700	82781.4
-23.695	82788.4
-23.690	82783.4
-23.685	82759.4
-23.680	82755.4
-23.675	82762.4
-23.670	82776.4
-23.665	82777.4
-23.660	82770.4
-23.655	82777.4
-23.650	82771.4
-23.645	82780.4
-23.640	82793.4
-23.635	82790.4
-23.630	82789.4
-23.625	82791.4
-23.620	82770.4
-23.615	82761.4
-23.610	82767.4
-23.605	82798.4
-23.600	82783.4
-23.595	82786.4
-23.590	82778.4
-23.585	82774.4
-23.580	82782.4
-23.575	82790.4
-23.570	82787.4
-23.565	82797.4
-23.560	82793.4
-23.555	82780.4
-23.550	82751.4
-23.545	82758.4
-23.540	82784.4
-23.535	82795.4
-23.530	82793.4
-23.525	82789.4
-23.520	82791.4
-23.515	82805.4
-23.510	82797.4
-23.505	82816.4
-23.500	82806.4
-23.495	82801.4
-23.490	82796.4
-23.485	82775.4
-23.480	82774.4
-23.475	82798.4
-23.470	82808.4
-23.465	82802.4
-23.460	82784.4
-23.455	82795.4
-23.450	82787.4
-23.445	82784.4
-23.440	82799.4
-23.435	82804.4
-23.430	82808.4
-23.425	82807.4
-23.420	82792.4
-23.415	82783.4
-23.410	82775.4
-23.405	82820.4
-23.400	82811.4
-23.395	82811.4
-23.390	82800.4
-23.385	82816.4
-23.380	82808.4
-23.375	82830.4
-23.370	82820.4
-23.365	82820.4
-23.360	82822.4
-23.355	82811.4
-23.350	82787.4
-23.345	82801.4
-23.340	82819.4
-23.335	82823.4
-23.330	82808.4
-23.325	82811.4
-23.320	82806.4
-23.315	82808.4
-23.310	82806.4
-23.305	82811.4
-23.300	82821.4
-23.295	82821.4
-23.290	82812.4
-23.285	82792.4
-23.280	82787.4
-23.275	82802.4
-23.270	82818.4
-23.265	82822.4
-23.260	82823.4
-23.255	82818.4
-23.250	82822.4
-23.245	82830.4
-23.240	82833.3
-23.235	82831.3
-23.230	82833.3
-23.225	82832.3
-23.220	82808.4
-23.215	82802.4
-23.210	82812.4
-23.205	82829.3
-23.200	82828.4
-23.195	82815.4
-23.190	82808.4
-23.185	82815.4
-23.180	82824.4
-23.175	82823.4
-23.170	82812.4
-23.165	82823.4
-23.160	82830.3
-23.155	82815.4
-23.150	82785.4
-23.145	82803.4
-23.140	82832.3
-23.135	82835.3
-23.130	82828.4
-23.125	82826.4
-23.120	82824.4
-23.115	82842.3
-23.110	82828.3
-23.105	82836.3
-23.100	82837.3
-23.095	82841.3
-23.090	82828.3
-23.085	82808.4
-23.080	82810.4
-23.075	82835.3
-23.070	82837.3
-23.065	82822.4
-23.060	82824.4
-23.055	82822.4
-23.050	82818.4
-23.045	82826.4
-23.040	82817.4
-23.035	82822.4
-23.030	82827.4
-23.025	82835.3
-23.020	82805.4
-23.015	82794.4
-23.010	82816.4
-23.005	82833.4
-23.000	82833.3
-22.995	82829.4
-22.990	82823.4
-22.985	82823.4
-22.980	82826.4
-22.975	82840.3
-22.970	82835.3
-22.965	82843.3
-22.960	82837.3
-22.955	82826.3
-22.950	82798.4
-22.945	82810.4
-22.940	82834.3
-22.935	82834.3
-22.930	82823.4
-22.925	82821.4
-22.920	82815.4
-22.915	82836.3
-22.910	82816.4
-22.905	82834.3
-22.900	82831.3
-22.895	82834.3
-22.890	82829.4
-22.885	82800.4
-22.880	82799.4
-22.875	82822.4
-22.870	82831.4
-22.865	82835.3
-22.860	82827.4
-22.855	82830.4
-22.850	82823.4
-22.845	82834.3
-22.840	82834.3
-22.835	82844.3
-22.830	82840.3
-22.825	82839.3
-22.820	82806.4
-22.815	82815.4
-22.810	82818.4
-22.805	82840.3
-22.800	82838.3
-22.795	82822.4
-22.790	82828.3
-22.785	82826.4
-22.780	82823.4
-22.775	82827.4
-22.770	82827.3
-22.765	82836.3
-22.760	82834.3
-22.755	82817.4
-22.750	82794.4
-22.745	82809.4
-22.740	82835.3
-22.735	82841.3
-22.730	82831.3
-22.725	82837.3
-22.720	82837.3
-22.715	82832.3
-22.710	82837.3
-22.705	82845.3
-22.700	82848.3
-22.695	82857.3
-22.690	82828.3
-22.685	82808.4
-22.680	82814.4
-22.675	82840.3
-22.670	82841.3
-22.665	82838.3
-22.660	82831.4
-22.655	82833.3
-22.650	82833.3
-22.645	82830.3
-22.640	82831.3
-22.635	82840.3
-22.630	82839.3
-22.625	82846.3
-22.620	82811.4
-22.615	82803.4
-22.610	82815.4
-22.605	82850.3
-22.600	82837.3
-22.595	82840.3
-22.590	82829.3
-22.585	82840.3
-22.580	82835.3
-22.575	82848.3
-22.570	82842.3
-22.565	82845.3
-22.560	82849.3
-22.555	82832.3
-22.550	82808.4
-22.545	82827.3
-22.540	82845.3
-22.535	82844.3
-22.530	82840.3
-22.525	82836.3
-22.520	82840.3
-22.515	82832.3
-22.510	82829.3
-22.505	82838.3
-22.500	82846.3
-22.495	82855.3
-22.490	82846.3
-22.485	82822.4
-22.480	82804.4
-22.475	82833.3
-22.470	82835.3
-22.465	82839.3
-22.460	82838.3
-22.455	82844.3
-22.450	82845.3
-22.445	82847.3
-22.440	82850.3
-22.435	82860.3
-22.430	82852.3
-22.425	82858.3
-22.420	82820.4
-22.415	82822.4
-22.410	82832.3
-22.405	82845.3
-22.400	82840.3
-22.395	82843.3
-22.390	82833.3
-22.385	82835.3
-22.380	82829.4
-22.375	82838.3
-22.370	82842.3
-22.365	82849.3
-22.360	82846.3
-22.355	82829.3
-22.350	82803.4
-22.345	82811.4
-22.340	82837.3
-22.335	82839.3
-22.330	82843.3
-22.325	82840.3
-22.320	82839.3
-22.315	82847.3
-22.310	82836.3
-22.305	82847.3
-22.300	82849.3
-22.295	82846.3
-22.290	82838.3
-22.285	82812.4
-22.280	82820.4
-22.275	82837.3
-22.270	82841.3
-22.265	82830.3
-22.260	82833.3
-22.255	82832.3
-22.250	82822.4
-22.245	82830.3
-22.240	82830.3
-22.235	82834.3
-22.230	82842.3
-22.225	82839.3
-22.220	82804.4
-22.215	82805.4
-22.210	82813.4
-22.205	82829.3
-22.200	82820.4
-22.195	82834.3
-22.190	82829.3
-22.185	82841.3
-22.180	82831.3
-22.175	82839.3
-22.170	82835.3
-22.165	82836.3
-22.160	82834.3
-22.155	82816.4
-22.150	82791.4
-22.145	82820.4
-22.140	82837.3
-22.135	82832.3
-22.130	82818.4
-22.125	82818.4
-22.120	82820.4
-22.115	82815.4
-22.110	82817.4
-22.105	82822.4
-22.100	82824.4
-22.095	82833.3
-22.090	82820.4
-22.085	82794.4
-22.080	82789.4
-22.075	82813.4
-22.070	82823.4
-22.065	82825.4
-22.060	82816.4
-22.055	82820.4
-22.050	82819.4
-22.045	82831.4
-22.040	82826.4
-22.035	82821.4
-22.030	82838.3
-22.025	82826.4
-22.020	82799.4
-22.015	82790.4
-22.010	82804.4
-22.005	82822.4
-22.000	82815.4
-21.995	82799.4
-21.990	82809.4
-21.985	82817.4
-21.980	82812.4
-21.975	82815.4
-21.970	82811.4
-21.965	82816.4
-21.960	82816.4
-21.955	82794.4
-21.950	82769.4
-21.945	82777.4
-21.940	82804.4
-21.935	82804.4
-21.930	82799.4
-21.925	82806.4
-21.920	82801.4
-21.915	82810.4
-21.910	82803.4
-21.905	82818.4
-21.900	82807.4
-21.895	82820.4
-21.890	82800.4
-21.885	82777.4
-21.880	82785.4
-21.875	82811.4
-21.870	82807.4
-21.865	82796.4
-21.860	82796.4
-21.855	82799.4
-21.850	82792.4
-21.845	82799.4
-21.840	82797.4
-21.835	82801.4
-21.830	82799.4
-21.825	82798.4
-21.820	82766.4
-21.815	82770.4
-21.810	82774.4
-21.805	82786.4
-21.800	82792.4
-21.795	82793.4
-21.790	82783.4
-21.785	82800.4
-21.780	82794.4
-21.775	82801.4
-21.770	82804.4
-21.765	82804.4
-21.760	82803.4
-21.755	82776.4
-21.750	82762.4
-21.745	82780.4
-21.740	82796.4
-21.735	82798.4
-21.730	82781.4
-21.725	82778.4
-21.720	82778.4
-21.715	82788.4
-21.710	82778.4
-21.705	82786.4
-21.700	82790.4
-21.695	82794.4
-21.690	82780.4
-21.685	82748.4
-21.680	82754.4
-21.675	82781.4
-21.670	82777.4
-21.665	82774.4
-21.660	82778.4
-21.655	82781.4
-21.650	82782.4
-21.645	82788.4
-21.640	82788.4
-21.635	82795.4
-21.630	82786.4
-21.625	82794.4
-21.620	82762.4
-21.615	82756.4
-21.610	82771.4
-21.605	82787.4
-21.600	82773.4
-21.595	82777.4
-21.590	82766.4
-21.585	82771.4
-21.580	82772.4
-21.575	82774.4
-21.570	82768.4
-21.565	82777.4
-21.560	82780.4
-21.555	82759.4
-21.550	82743.4
-21.545	82754.4
-21.540	82772.4
-21.535	82769.4
-21.530	82775.4
-21.525	82769.4
-21.520	82778.4
-21.515	82782.4
-21.510	82777.4
-21.505	82793.4
-21.500	82784.4
-21.495	82777.4
-21.490	82752.4
-21.485	82741.4
-21.480	82741.4
-21.475	82769.4
-21.470	82757.4
-21.465	82747.4
-21.460	82726.4
-21.455	82709.5
-21.450	82684.5
-21.445	82652.5
-21.440	82575.6
-21.435	82489.7
-21.430	82357.9
-21.425	82190.0
-21.420	81913.3
-21.415	81607.7
-21.410	81221.1
-21.405	80754.6
-21.400	80284.2
-21.395	79841.7
-21.390	79400.3
-21.385	78961.9
-21.380	78433.6
-21.375	77821.4
-21.370	77189.2
-21.365	76584.0
-21.360	75947.9
-21.355	75146.8
-21.350	74176.9
-21.345	73317.8
-21.340	72975.4
-21.335	72706.9
-21.330	72226.3
-21.325	72576.0
-21.320	73396.3
-21.315	73355.2
-21.310	73544.9
-21.305	74538.1
-21.300	75643.2
-21.295	76449.6
-21.290	76526.5
-21.285	75442.2
-21.280	73873.1
-21.275	74058.9
-21.270	75271.9
-21.265	75420.7
-21.260	75161.8
-21.255	76010.2
-21.250	75054.8
-21.245	73386.9
-21.240	75121.6
-21.235	76960.3
-21.230	77557.8
-21.225	77861.5
-21.220	77692.6
-21.215	77181.9
-21.210	76294.5
-21.205	75915.7
-21.200	76451.3
-21.195	76907.0
-21.190	77246.7
-21.185	77875.1
-21.180	78314.8
-21.175	78061.9
-21.170	76887.8
-21.165	75547.7
-21.160	75861.4
-21.155	77425.3
-21.150	77335.3
-21.145	75093.0
-21.140	73597.0
-21.135	75113.8
-21.130	77463.1
-21.125	78239.5
-21.120	78002.7
-21.115	77541.0
-21.110	77578.9
-21.105	77700.8
-21.100	77439.0
-21.095	77469.9
-21.090	78055.5
-21.085	78554.1
-21.080	78675.0
-21.075	78506.1
-21.070	78354.2
-21.065	78272.2
-21.060	78253.2
-21.055	78268.2
-21.050	78260.2
-21.045	78436.0
-21.040	78818.7
-21.035	79124.5
-21.030	79175.5
-21.025	79058.5
-21.020	78720.8
-21.015	78270.1
-21.010	78040.2
-21.005	78132.2
-21.000	78356.0
-20.995	78589.8
-20.990	78683.7
-20.985	78656.7
-20.980	78691.7
-20.975	78839.5
-20.970	78974.4
-20.965	79018.4
-20.960	78945.4
-20.955	78850.5
-20.950	78785.5
-20.945	78767.5
-20.940	78842.5
-20.935	78921.4
-20.930	78981.3
-20.925	79055.3
-20.920	79047.3
-20.915	79018.3
-20.910	78959.3
-20.905	78866.4
-20.900	78789.4
-20.895	78749.4
-20.890	78627.5
-20.885	78477.6
-20.880	78473.6
-20.875	78568.5
-20.870	78630.5
-20.865	78712.4
-20.860	78783.3
-20.855	78855.3
-20.850	78911.2
-20.845	78915.2
-20.840	78876.2
-20.835	78846.2
-20.830	78866.2
-20.825	78903.2
-20.820	78959.1
-20.815	79015.1
-20.810	79035.0
-20.805	79103.0
-20.800	79177.9
-20.795	79232.9
-20.790	79306.8
-20.785	79375.8
-20.780	79423.7
-20.775	79479.7
-20.770	79505.6
-20.765	79542.6
-20.760	79555.6
-20.755	79563.6
-20.750	79568.6
-20.745	79613.5
-20.740	79644.5
-20.735	79670.5
-20.730	79656.5
-20.725	79644.5
-20.720	79621.5
-20.715	79605.5
-20.710	79570.5
-20.705	79574.5
-20.700	79548.5
-20.695	79536.5
-20.690	79507.5
-20.685	79530.5
-20.680	79583.5
-20.675	79621.4
-20.670	79648.4
-20.665	79673.4
-20.660	79655.4
-20.655	79646.4
-20.650	79660.4
-20.645	79685.3
-20.640	79673.3
-20.635	79655.4
-20.630	79615.4
-20.625	79598.4
-20.620	79587.4
-20.615	79617.4
-20.610	79691.3
-20.605	79778.2
-20.600	79848.2
-20.595	79899.1
-20.590	79941.1
-20.585	79962.1
-20.580	80012.0
-20.575	80054.0
-20.570	80085.0
-20.565	80096.0
-20.560	80107.9
-20.555	80080.0
-20.550	80082.0
-20.545	80123.9
-20.540	80144.9
-20.535	80136.9
-20.530	80126.9
-20.525	80143.9
-20.520	80138.9
-20.515	80128.9
-20.510	80129.9
-20.505	80140.9
-20.500	80146.9
-20.495	80155.8
-20.490	80125.9
-20.485	80086.9
-20.480	80073.9
-20.475	80089.9
-20.470	80089.9
-20.465	80110.9
-20.460	80107.9
-20.455	80112.9
-20.450	80079.9
-20.445	80056.9
-20.440	80030.9
-20.435	80060.9
-20.430	80066.9
-20.425	80047.9
-20.420	79999.9
-20.415	79995.9
-20.410	80007.9
-20.405	80005.9
-20.400	79979.9
-20.395	79936.9
-20.390	79928.9
-20.385	79933.9
-20.380	79950.9
-20.375	79957.9
-20.370	79987.9
-20.365	80035.8
-20.360	80056.8
-20.355	80053.8
-20.350	80072.8
-20.345	80139.7
-20.340	80193.7
-20.335	80219.7
-20.330	80252.6
-20.325	80273.6
-20.320	80296.6
-20.315	80318.6
-20.310	80339.6
-20.305	80362.5
-20.300	80381.5
-20.295	80401.5
-20.290	80379.5
-20.285	80370.5
-20.280	80380.5
-20.275	80402.5
-20.270	80371.5
-20.265	80344.5
-20.260	80324.5
-20.255	80335.5
-20.250	80322.5
-20.245	80317.5
-20.240	80306.6
-20.235	80302.5
-20.230	80318.5
-20.225	80323.5
-20.220	80302.5
-20.215	80305.5
-20.210	80317.5
-20.205	80348.5
-20.200	80362.5
-20.195	80379.5
-20.190	80392.5
-20.185	80413.4
-20.180	80408.4
-20.175	80412.4
-20.170	80416.4
-20.165	80422.4
-20.160	80423.4
-20.155	80410.4
-20.150	80416.4
-20.145	80440.4
-20.140	80465.4
-20.135	80486.4
-20.130	80512.3
-20.125	80535.3
-20.120	80544.3
-20.115	80570.3
-20.110	80596.3
-20.105	80612.2
-20.100	80628.2
-20.095	80641.2
-20.090	80640.2
-20.085	80638.2
-20.080	80646.2
-20.075	80672.2
-20.070	80666.2
-20.065	80668.2
-20.060	80659.2
-20.055	80668.2
-20.050	80675.2
-20.045	80676.2
-20.040	80674.2
-20.035	80677.2
-20.030	80667.2
-20.025	80665.2
-20.020	80637.2
-20.015	80655.2
-20.010	80675.2
-20.005	80682.1
-20.000	80678.1
-19.995	80696.1
-19.990	80698.1
-19.985	80705.1
-19.980	80715.1
-19.975	80713.1
-19.970	80697.1
-19.965	80698.1
-19.960	80680.1
-19.955	80647.1
-19.950	80639.2
-19.945	80655.1
-19.940	80674.1
-19.935	80672.1
-19.930	80655.1
-19.925	80649.1
-19.920	80624.1
-19.915	80606.2
-19.910	80587.2
-19.905	80581.2
-19.900	80564.2
-19.895	80565.2
-19.890	80525.2
-19.885	80510.2
-19.880	80509.2
-19.875	80512.2
-19.870	80498.2
-19.865	80491.2
-19.860	80461.2
-19.855	80446.3
-19.850	80414.3
-19.845	80412.3
-19.840	80421.3
-19.835	80437.3
-19.830	80448.2
-19.825	80425.3
-19.820	80382.3
-19.815	80401.3
-19.810	80435.2
-19.805	80449.2
-19.800	80458.2
-19.795	80473.2
-19.790	80470.2
-19.785	80474.2
-19.780	80475.2
-19.775	80481.2
-19.770	80466.2
-19.765	80471.2
-19.760	80465.2
-19.755	80441.2
-19.750	80436.2
-19.745	80460.2
-19.740	80465.2
-19.735	80470.2
-19.730	80450.2
-19.725	80456.2
-19.720	80460.2
-19.715	80468.2
-19.710	80466.2
-19.705	80464.2
-19.700	80454.2
-19.695	80453.2
-19.690	80418.2
-19.685	80405.2
-19.680	80420.2
-19.675	80459.2
-19.670	80477.2
-19.665	80474.2
-19.660	80462.2
-19.655	80448.2
-19.650	80441.2
-19.645	80452.2
-19.640	80458.2
-19.635	80450.2
-19.630	80433.2
-19.625	80425.2
-19.620	80412.2
-19.615	80433.2
-19.610	80478.1
-19.605	80492.1
-19.600	80496.1
-19.595	80510.1
-19.590	80529.1
-19.585	80561.1
-19.580	80598.0
-19.575	80631.0
-19.570	80640.0
-19.565	80638.0
-19.560	80630.0
-19.555	80606.0
-19.550	80634.0
-19.545	80677.0
-19.540	80690.0
-19.535	80706.9
-19.530	80713.9
-19.525	80722.9
-19.520	80730.9
-19.515	80774.9
-19.510	80795.9
-19.505	80803.9
-19.500	80818.9
-19.495	80830.8
-19.490	80801.9
-19.485	80793.9
-19.480	80801.9
-19.475	80818.8
-19.470	80797.9
-19.465	80785.9
-19.460	80791.9
-19.455	80782.9
-19.450	80776.9
-19.445	80762.9
-19.440	80758.9
-19.435	80747.9
-19.430	80734.9
-19.425	80707.9
-19.420	80663.9
-19.415	80661.9
-19.410	80686.9
-19.405	80702.9
-19.400	80687.9
-19.395	80680.9
-19.390	80684.9
-19.385	80676.9
-19.380	80664.9
-19.375	80650.9
-19.370	80644.9
-19.365	80647.9
-19.360	80648.9
-19.355	80645.9
-19.350	80665.9
-19.345	80670.9
-19.340	80662.9
-19.335	80673.9
-19.330	80695.9
-19.325	80735.9
-19.320	80741.9
-19.315	80750.9
-19.310	80761.8
-19.305	80781.8
-19.300	80800.8
-19.295	80850.8
-19.290	80850.8
-19.285	80879.8
-19.280	80913.7
-19.275	80955.7
-19.270	80960.7
-19.265	80984.7
-19.260	80991.7
-19.255	81006.7
-19.250	81021.6
-19.245	81042.6
-19.240	81060.6
-19.235	81075.6
-19.230	81069.6
-19.225	81057.6
-19.220	81045.6
-19.215	81060.6
-19.210	81070.6
-19.205	81076.6
-19.200	81045.6
-19.195	81032.6
-19.190	81032.6
-19.185	81030.6
-19.180	81025.6
-19.175	81022.6
-19.170	81021.6
-19.165	81015.6
-19.160	80975.6
-19.155	80945.7
-19.150	80928.7
-19.145	80939.7
-19.140	80957.7
-19.135	80954.7
-19.130	80923.7
-19.125	80918.7
-19.120	80914.7
-19.115	80903.7
-19.110	80896.7
-19.105	80905.7
-19.100	80916.7
-19.095	80935.7
-19.090	80909.7
-19.085	80913.7
-19.080	80927.7
-19.075	80945.7
-19.070	80930.7
-19.065	80922.7
-19.060	80918.7
-19.055	80926.7
-19.050	80922.7
-19.045	80920.7
-19.040	80933.7
-19.035	80939.6
-19.030	80938.6
-19.025	80931.7
-19.020	80908.7
-19.015	80927.7
-19.010	80929.7
-19.005	80912.7
-19.000	80903.7
-18.995	80905.7
-18.990	80900.7
-18.985	80902.7
-18.980	80914.7
-18.975	80924.6
-18.970	80927.6
-18.965	80923.6
-18.960	80912.6
-18.955	80902.7
-18.950	80918.6
-18.945	80938.6
-18.940	80923.6
-18.935	80926.6
-18.930	80900.7
-18.925	80905.6
-18.920	80893.7
-18.915	80902.6
-18.910	80902.6
-18.905	80906.6
-18.900	80909.6
-18.895	80892.6
-18.890	80842.7
-18.885	80836.7
-18.880	80856.7
-18.875	80886.6
-18.870	80883.6
-18.865	80900.6
-18.860	80907.6
-18.855	80917.6
-18.850	80902.6
-18.845	80914.6
-18.840	80916.6
-18.835	80916.6
-18.830	80911.6
-18.825	80890.6
-18.820	80879.6
-18.815	80892.6
-18.810	80934.6
-18.805	80956.6
-18.800	80962.6
-18.795	80963.6
-18.790	80981.6
-18.785	81013.5
-18.780	81038.5
-18.775	81056.5
-18.770	81069.5
-18.765	81079.5
-18.760	81081.5
-18.755	81063.5
-18.750	81082.5
-18.745	81121.4
-18.740	81123.4
-18.735	81110.5
-18.730	81115.5
-18.725	81125.4
-18.720	81127.4
-18.715	81142.4
-18.710	81151.4
-18.705	81158.4
-18.700	81159.4
-18.695	81164.4
-18.690	81130.4
-18.685	81132.4
-18.680	81157.4
-18.675	81171.4
-18.670	81167.4
-18.665	81175.4
-18.660	81173.4
-18.655	81189.4
-18.650	81188.4
-18.645	81195.4
-18.640	81194.4
-18.635	81213.4
-18.630	81210.4
-18.625	81199.4
-18.620	81175.4
-18.615	81198.4
-18.610	81217.4
-18.605	81230.3
-18.600	81227.3
-18.595	81237.3
-18.590	81222.3
-18.585	81219.4
-18.580	81225.3
-18.575	81242.3
-18.570	81226.3
-18.565	81233.3
-18.560	81227.3
-18.555	81208.4
-18.550	81206.4
-18.545	81242.3
-18.540	81235.3
-18.535	81234.3
-18.530	81219.3
-18.525	81221.3
-18.520	81211.3
-18.515	81222.3
-18.510	81218.3
-18.505	81228.3
-18.500	81224.3
-18.495	81221.3
-18.490	81188.4
-18.485	81192.4
-18.480	81211.3
-18.475	81217.3
-18.470	81213.3
-18.465	81211.3
-18.460	81217.3
-18.455	81228.3
-18.450	81231.3
-18.445	81238.3
-18.440	81236.3
-18.435	81250.3
-18.430	81247.3
-18.425	81225.3
-18.420	81216.3
-18.415	81221.3
-18.410	81241.3
-18.405	81238.3
-18.400	81232.3
-18.395	81238.3
-18.390	81235.3
-18.385	81232.3
-18.380	81227.3
-18.375	81241.3
-18.370	81244.3
-18.365	81262.3
-18.360	81234.3
-18.355	81221.3
-18.350	81221.3
-18.345	81252.3
-18.340	81258.3
-18.335	81269.3
-18.330	81272.3
-18.325	81269.3
-18.320	81292.3
-18.315	81289.3
-18.310	81291.3
-18.305	81290.3
-18.300	81288.3
-18.295	81292.2
-18.290	81252.3
-18.285	81261.3
-18.280	81278.3
-18.275	81302.2
-18.270	81292.2
-18.265	81294.2
-18.260	81281.3
-18.255	81282.3
-18.250	81273.3
-18.245	81279.3
-18.240	81276.3
-18.235	81258.3
-18.230	81250.3
-18.225	81233.3
-18.220	81210.3
-18.215	81200.3
-18.210	81214.3
-18.205	81206.3
-18.200	81207.3
-18.195	81200.3
-18.190	81180.3
-18.185	81182.3
-18.180	81169.3
-18.175	81164.3
-18.170	81156.3
-18.165	81156.3
-18.160	81132.4
-18.155	81111.4
-18.150	81112.4
-18.145	81135.3
-18.140	81140.3
-18.135	81131.4
-18.130	81108.4
-18.125	81093.4
-18.120	81081.4
-18.115	81064.4
-18.110	81050.4
-18.105	81061.4
-18.100	81053.4
-18.095	81056.4
-18.090	81015.4
-18.085	81020.4
-18.080	81022.4
-18.075	81041.4
-18.070	81037.4
-18.065	81051.4
-18.060	81045.4
-18.055	81068.4
-18.050	81076.4
-18.045	81088.4
-18.040	81102.4
-18.035	81100.4
-18.030	81096.4
-18.025	81078.4
-18.020	81082.4
-18.015	81110.3
-18.010	81129.3
-18.005	81143.3
-18.000	81141.3
-17.995	81153.3
-17.990	81152.3
-17.985	81171.3
-17.980	81168.3
-17.975	81170.3
-17.970	81178.3
-17.965	81184.3
-17.960	81175.3
-17.955	81166.3
-17.950	81185.3
-17.945	81207.3
-17.940	81213.3
-17.935	81207.3
-17.930	81202.3
-17.925	81207.3
-17.920	81213.3
-17.915	81219.3
-17.910	81224.3
-17.905	81234.2
-17.900	81222.2
-17.895	81221.3
-17.890	81200.3
-17.885	81195.3
-17.880	81209.3
-17.875	81225.2
-17.870	81210.3
-17.865	81221.3
-17.860	81226.2
-17.855	81229.2
-17.850	81220.2
-17.845	81237.2
-17.840	81239.2
-17.835	81239.2
-17.830	81242.2
-17.825	81222.2
-17.820	81205.3
-17.815	81220.2
-17.810	81246.2
-17.805	81254.2
-17.800	81258.2
-17.795	81270.2
-17.790	81266.2
-17.785	81282.2
-17.780	81279.2
-17.775	81284.2
-17.770	81286.2
-17.765	81300.2
-17.760	81284.2
-17.755	81273.2
-17.750	81289.2
-17.745	81317.2
-17.740	81322.2
-17.735	81311.2
-17.730	81311.2
-17.725	81313.2
-17.720	81311.2
-17.715	81324.2
-17.710	81325.2
-17.705	81324.1
-17.700	81328.1
-17.695	81336.1
-17.690	81302.2
-17.685	81312.2
-17.680	81324.1
-17.675	81347.1
-17.670	81335.1
-17.665	81343.1
-17.660	81332.1
-17.655	81339.1
-17.650	81335.1
-17.645	81334.1
-17.640	81321.1
-17.635	81319.1
-17.630	81309.2
-17.625	81275.2
-17.620	81277.2
-17.615	81301.2
-17.610	81300.2
-17.605	81291.2
-17.600	81279.2
-17.595	81269.2
-17.590	81277.2
-17.585	81301.2
-17.580	81295.2
-17.575	81296.2
-17.570	81301.2
-17.565	81313.1
-17.560	81285.2
-17.555	81271.2
-17.550	81285.2
-17.545	81310.1
-17.540	81311.1
-17.535	81322.1
-17.530	81329.1
-17.525	81328.1
-17.520	81314.1
-17.515	81319.1
-17.510	81328.1
-17.505	81338.1
-17.500	81346.1
-17.495	81337.1
-17.490	81304.1
-17.485	81321.1
-17.480	81354.1
-17.475	81367.1
-17.470	81369.1
-17.465	81368.1
-17.460	81367.1
-17.455	81366.1
-17.450	81353.1
-17.445	81370.1
-17.440	81379.1
-17.435	81382.1
-17.430	81372.1
-17.425	81342.1
-17.420	81338.1
-17.415	81356.1
-17.410	81387.1
-17.405	81388.1
-17.400	81380.1
-17.395	81382.1
-17.390	81383.1
-17.385	81392.1
-17.380	81395.1
-17.375	81427.0
-17.370	81419.0
-17.365	81424.0
-17.360	81402.1
-17.355	81395.1
-17.350	81412.0
-17.345	81437.0
-17.340	81432.0
-17.335	81443.0
-17.330	81430.0
-17.325	81438.0
-17.320	81448.0
-17.315	81447.0
-17.310	81449.0
-17.305	81456.0
-17.300	81457.0
-17.295	81459.0
-17.290	81445.0
-17.285	81445.0
-17.280	81465.0
-17.275	81466.0
-17.270	81461.0
-17.265	81461.0
-17.260	81464.0
-17.255	81468.0
-17.250	81476.0
-17.245	81481.0
-17.240	81472.0
-17.235	81485.0
-17.230	81472.0
-17.225	81450.0
-17.220	81447.0
-17.215	81465.0
-17.210	81475.0
-17.205	81452.0
-17.200	81440.0
-17.195	81439.0
-17.190	81428.0
-17.185	81431.0
-17.180	81432.0
-17.175	81433.0
-17.170	81433.0
-17.165	81445.0
-17.160	81417.0
-17.155	81407.0
-17.150	81418.0
-17.145	81446.0
-17.140	81437.0
-17.135	81441.0
-17.130	81440.0
-17.125	81462.0
-17.120	81453.0
-17.115	81467.0
-17.110	81464.0
-17.105	81475.0
-17.100	81480.0
-17.095	81473.0
-17.090	81433.0
-17.085	81448.0
-17.080	81472.0
-17.075	81467.0
-17.070	81458.0
-17.065	81460.0
-17.060	81458.0
-17.055	81475.0
-17.050	81484.0
-17.045	81479.0
-17.040	81497.0
-17.035	81496.0
-17.030	81487.0
-17.025	81457.0
-17.020	81453.0
-17.015	81460.0
-17.010	81487.0
-17.005	81489.0
-17.000	81483.0
-16.995	81483.0
-16.990	81483.0
-16.985	81490.0
-16.980	81486.0
-16.975	81486.0
-16.970	81480.0
-16.965	81481.0
-16.960	81463.0
-16.955	81450.0
-16.950	81455.0
-16.945	81480.0
-16.940	81479.0
-16.935	81459.0
-16.930	81464.0
-16.925	81471.0
-16.920	81463.0
-16.915	81465.0
-16.910	81463.0
-16.905	81465.0
-16.900	81462.0
-16.895	81462.0
-16.890	81419.0
-16.885	81437.0
-16.880	81442.0
-16.875	81444.0
-16.870	81438.0
-16.865	81438.0
-16.860	81421.0
-16.855	81415.0
-16.850	81407.0
-16.845	81420.0
-16.840	81397.0
-16.835	81398.0
-16.830	81389.0
-16.825	81358.0
-16.820	81354.0
-16.815	81385.0
-16.810	81387.0
-16.805	81394.0
-16.800	81384.0
-16.795	81382.0
-16.790	81360.0
-16.785	81370.0
-16.780	81386.0
-16.775	81381.0
-16.770	81383.0
-16.765	81390.0
-16.760	81373.0
-16.755	81362.0
-16.750	81365.0
-16.745	81395.0
-16.740	81392.0
-16.735	81389.0
-16.730	81376.0
-16.725	81383.0
-16.720	81380.0
-16.715	81384.0
-16.710	81381.0
-16.705	81381.0
-16.700	81399.0
-16.695	81391.0
-16.690	81356.0
-16.685	81382.0
-16.680	81404.0
-16.675	81404.0
-16.670	81380.0
-16.665	81374.0
-16.660	81373.0
-16.655	81366.0
-16.650	81363.0
-16.645	81370.0
-16.640	81356.0
-16.635	81351.0
-16.630	81341.0
-16.625	81295.1
-16.620	81285.1
-16.615	81308.1
-16.610	81329.0
-16.605	81343.0
-16.600	81336.0
-16.595	81349.0
-16.590	81341.0
-16.585	81358.0
-16.580	81367.0
-16.575	81368.0
-16.570	81368.0
-16.565	81377.0
-16.560	81339.0
-16.555	81329.0
-16.550	81330.0
-16.545	81361.0
-16.540	81362.0
-16.535	81349.0
-16.530	81336.0
-16.525	81343.0
-16.520	81339.0
-16.515	81338.0
-16.510	81340.0
-16.505	81349.0
-16.500	81354.0
-16.495	81347.0
-16.490	81317.0
-16.485	81336.0
-16.480	81360.0
-16.475	81381.0
-16.470	81392.0
-16.465	81397.0
-16.460	81379.0
-16.455	81386.0
-16.450	81382.0
-16.445	81391.0
-16.440	81391.0
-16.435	81407.0
-16.430	81406.0
-16.425	81374.0
-16.420	81380.0
-16.415	81405.0
-16.410	81410.0
-16.405	81413.0
-16.400	81400.0
-16.395	81413.0
-16.390	81403.0
-16.385	81417.0
-16.380	81409.0
-16.375	81412.0
-16.370	81418.0
-16.365	81433.9
-16.360	81402.0
-16.355	81405.0
-16.350	81413.0
-16.345	81445.9
-16.340	81454.9
-16.335	81446.9
-16.330	81444.9
-16.325	81450.9
-16.320	81443.9
-16.315	81444.9
-16.310	81445.9
-16.305	81442.9
-16.300	81447.9
-16.295	81425.9
-16.290	81411.9
-16.285	81424.9
-16.280	81445.9
-16.275	81451.9
-16.270	81439.9
-16.265	81428.9
-16.260	81425.9
-16.255	81422.9
-16.250	81419.9
-16.245	81413.9
-16.240	81411.9
-16.235	81407.9
-16.230	81399.0
-16.225	81356.0
-16.220	81360.0
-16.215	81387.0
-16.210	81399.9
-16.205	81400.0
-16.200	81395.0
-16.195	81397.0
-16.190	81384.0
-16.185	81378.0
-16.180	81370.0
-16.175	81370.0
-16.170	81353.0
-16.165	81348.0
-16.160	81320.0
-16.155	81307.0
-16.150	81311.0
-16.145	81327.0
-16.140	81309.0
-16.135	81292.0
-16.130	81283.0
-16.125	81281.0
-16.120	81278.0
-16.115	81271.0
-16.110	81253.1
-16.105	81255.1
-16.100	81255.0
-16.095	81250.1
-16.090	81222.1
-16.085	81232.1
-16.080	81252.1
-16.075	81252.1
-16.070	81248.1
-16.065	81262.0
-16.060	81259.0
-16.055	81273.0
-16.050	81285.0
-16.045	81285.0
-16.040	81280.0
-16.035	81273.0
-16.030	81271.0
-16.025	81246.1
-16.020	81248.1
-16.015	81273.0
-16.010	81283.0
-16.005	81277.0
-16.000	81274.0
-15.995	81277.0
-15.990	81288.0
-15.985	81304.0
-15.980	81298.0
-15.975	81309.0
-15.970	81307.0
-15.965	81316.0
-15.960	81293.0
-15.955	81302.0
-15.950	81317.0
-15.945	81338.0
-15.940	81348.0
-15.935	81364.0
-15.930	81363.0
-15.925	81376.0
-15.920	81373.9
-15.915	81379.9
-15.910	81378.9
-15.905	81393.9
-15.900	81390.9
-15.895	81383.9
-15.890	81368.0
-15.885	81389.9
-15.880	81400.9
-15.875	81425.9
-15.870	81418.9
-15.865	81418.9
-15.860	81420.9
-15.855	81438.9
-15.850	81434.9
-15.845	81442.9
-15.840	81457.9
-15.835	81460.9
-15.830	81458.9
-15.825	81434.9
-15.820	81436.9
-15.815	81467.9
-15.810	81491.9
-15.805	81488.9
-15.800	81484.9
-15.795	81481.9
-15.790	81481.9
-15.785	81488.9
-15.780	81488.9
-15.775	81487.9
-15.770	81481.9
-15.765	81475.9
-15.760	81455.9
-15.755	81454.9
-15.750	81485.9
-15.745	81496.8
-15.740	81492.8
-15.735	81479.9
-15.730	81476.9
-15.725	81475.9
-15.720	81470.9
-15.715	81476.9
-15.710	81467.9
-15.705	81466.9
-15.700	81468.9
-15.695	81457.9
-15.690	81428.9
-15.685	81437.9
-15.680	81459.9
-15.675	81458.9
-15.670	81455.9
-15.665	81454.9
-15.660	81456.9
-15.655	81457.9
-15.650	81458.9
-15.645	81461.9
-15.640	81446.9
-15.635	81452.9
-15.630	81432.9
-15.625	81418.9
-15.620	81424.9
-15.615	81440.9
-15.610	81420.9
-15.605	81427.9
-15.600	81416.9
-15.595	81420.9
-15.590	81421.9
-15.585	81424.9
-15.580	81429.9
-15.575	81435.9
-15.570	81433.9
-15.565	81431.9
-15.560	81406.9
-15.555	81400.9
-15.550	81399.9
-15.545	81435.9
-15.540	81433.9
-15.535	81428.9
-15.530	81430.9
-15.525	81432.9
-15.520	81433.9
-15.515	81439.9
-15.510	81433.9
-15.505	81443.9
-15.500	81422.9
-15.495	81400.9
-15.490	81387.9
-15.485	81403.9
-15.480	81419.9
-15.475	81420.9
-15.470	81413.9
-15.465	81428.9
-15.460	81414.9
-15.455	81416.9
-15.450	81422.9
-15.445	81433.9
-15.440	81426.9
-15.435	81432.9
-15.430	81426.9
-15.425	81399.9
-15.420	81409.9
-15.415	81423.9
-15.410	81436.9
-15.405	81447.9
-15.400	81439.9
-15.395	81449.9
-15.390	81442.9
-15.385	81454.9
-15.380	81462.8
-15.375	81476.8
-15.370	81472.8
-15.365	81472.8
-15.360	81427.9
-15.355	81435.9
-15.350	81454.8
-15.345	81464.8
-15.340	81449.9
-15.335	81449.9
-15.330	81437.9
-15.325	81444.9
-15.320	81441.9
-15.315	81441.9
-15.310	81443.9
-15.305	81449.9
-15.300	81447.8
-15.295	81426.9
-15.290	81408.9
-15.285	81414.9
-15.280	81431.9
-15.275	81433.9
-15.270	81421.9
-15.265	81418.9
-15.260	81407.9
-15.255	81397.9
-15.250	81394.9
-15.245	81399.9
-15.240	81409.9
-15.235	81400.9
-15.230	81376.9
-15.225	81358.9
-15.220	81340.9
-15.215	81363.9
-15.210	81348.9
-15.205	81335.9
-15.200	81312.9
-15.195	81302.0
-15.190	81278.0
-15.185	81279.0
-15.180	81266.0
-15.175	81264.0
-15.170	81240.0
-15.165	81224.0
-15.160	81178.0
-15.155	81156.1
-15.150	81142.1
-15.145	81159.1
-15.140	81150.1
-15.135	81156.1
-15.130	81140.1
-15.125	81141.1
-15.120	81129.1
-15.115	81146.1
-15.110	81126.1
-15.105	81133.1
-15.100	81135.1
-15.095	81112.1
-15.090	81099.1
-15.085	81123.1
-15.080	81147.1
-15.075	81146.1
-15.070	81128.1
-15.065	81122.1
-15.060	81129.1
-15.055	81114.1
-15.050	81119.1
-15.045	81126.1
-15.040	81125.1
-15.035	81136.1
-15.030	81124.1
-15.025	81098.1
-15.020	81106.1
-15.015	81142.1
-15.010	81150.1
-15.005	81169.0
-15.000	81175.0
-14.995	81194.0
-14.990	81202.0
-14.985	81217.0
-14.980	81231.0
-14.975	81243.0
-14.970	81248.0
-14.965	81268.0
-14.960	81235.0
-14.955	81260.0
-14.950	81290.0
-14.945	81308.9
-14.940	81298.9
-14.935	81315.9
-14.930	81316.9
-14.925	81319.9
-14.920	81332.9
-14.915	81345.9
-14.910	81357.9
-14.905	81368.9
-14.900	81371.9
-14.895	81356.9
-14.890	81347.9
-14.885	81362.9
-14.880	81392.9
-14.875	81404.9
-14.870	81406.9
-14.865	81421.9
-14.860	81425.8
-14.855	81431.8
-14.850	81434.8
-14.845	81445.8
-14.840	81438.8
-14.835	81445.8
-14.830	81435.8
-14.825	81419.8
-14.820	81429.8
-14.815	81455.8
-14.810	81439.8
-14.805	81434.8
-14.800	81433.8
-14.795	81438.8
-14.790	81431.8
-14.785	81436.8
-14.780	81449.8
-14.775	81449.8
-14.770	81436.8
-14.765	81436.8
-14.760	81404.9
-14.755	81410.8
-14.750	81423.8
-14.745	81442.8
-14.740	81427.8
-14.735	81416.8
-14.730	81414.8
-14.725	81419.8
-14.720	81419.8
-14.715	81417.8
-14.710	81416.8
-14.705	81428.8
-14.700	81426.8
-14.695	81405.9
-14.690	81386.9
-14.685	81388.9
-14.680	81404.9
-14.675	81405.8
-14.670	81394.9
-14.665	81398.9
-14.660	81406.8
-14.655	81401.8
-14.650	81389.9
-14.645	81390.9
-14.640	81395.9
-14.635	81400.8
-14.630	81384.9
-14.625	81365.9
-14.620	81378.9
-14.615	81411.8
-14.610	81414.8
-14.605	81416.8
-14.600	81414.8
-14.595	81414.8
-14.590	81416.8
-14.585	81431.8
-14.580	81431.8
-14.575	81438.8
-14.570	81440.8
-14.565	81436.8
-14.560	81411.8
-14.555	81425.8
-14.550	81447.8
-14.545	81460.8
-14.540	81453.8
-14.535	81446.8
-14.530	81447.8
-14.525	81441.8
-14.520	81444.8
-14.515	81460.8
-14.510	81462.8
-14.505	81454.8
-14.500	81452.8
-14.495	81453.8
-14.490	81446.8
-14.485	81462.8
-14.480	81477.8
-14.475	81484.8
-14.470	81478.8
-14.465	81487.8
-14.460	81482.8
-14.455	81501.8
-14.450	81497.8
-14.445	81490.8
-14.440	81504.8
-14.435	81509.8
-14.430	81498.8
-14.425	81494.8
-14.420	81501.8
-14.415	81530.7
-14.410	81517.8
-14.405	81519.7
-14.400	81520.7
-14.395	81518.8
-14.390	81520.7
-14.385	81529.7
-14.380	81525.7
-14.375	81534.7
-14.370	81523.7
-14.365	81530.7
-14.360	81492.8
-14.355	81505.8
-14.350	81522.7
-14.345	81535.7
-14.340	81526.7
-14.335	81535.7
-14.330	81519.7
-14.325	81524.7
-14.320	81529.7
-14.315	81534.7
-14.310	81536.7
-14.305	81543.7
-14.300	81536.7
-14.295	81518.7
-14.290	81519.7
-14.285	81536.7
-14.280	81537.7
-14.275	81538.7
-14.270	81533.7
-14.265	81533.7
-14.260	81533.7
-14.255	81542.7
-14.250	81537.7
-14.245	81546.7
-14.240	81544.7
-14.235	81535.7
-14.230	81532.7
-14.225	81497.8
-14.220	81504.8
-14.215	81530.7
-14.210	81530.7
-14.205	81546.7
-14.200	81539.7
-14.195	81546.7
-14.190	81543.7
-14.185	81554.7
-14.180	81555.7
-14.175	81565.7
-14.170	81561.7
-14.165	81548.7
-14.160	81524.7
-14.155	81534.7
-14.150	81545.7
-14.145	81554.7
-14.140	81540.7
-14.135	81540.7
-14.130	81524.7
-14.125	81541.7
-14.120	81536.7
-14.115	81549.7
-14.110	81544.7
-14.105	81544.7
-14.100	81554.7
-14.095	81537.7
-14.090	81522.7
-14.085	81536.7
-14.080	81559.7
-14.075	81556.7
-14.070	81552.7
-14.065	81550.7
-14.060	81549.7
-14.055	81554.7
-14.050	81560.7
-14.045	81561.7
-14.040	81573.7
-14.035	81575.7
-14.030	81541.7
-14.025	81542.7
-14.020	81558.7
-14.015	81584.7
-14.010	81581.7
-14.005	81565.7
-14.000	81546.7
-13.995	81556.7
-13.990	81553.7
-13.985	81567.7
-13.980	81560.7
-13.975	81570.7
-13.970	81559.7
-13.965	81561.7
-13.960	81538.7
-13.955	81536.7
-13.950	81554.7
-13.945	81566.7
-13.940	81561.7
-13.935	81562.7
-13.930	81556.7
-13.925	81565.7
-13.920	81561.7
-13.915	81556.7
-13.910	81554.7
-13.905	81559.7
-13.900	81556.7
-13.895	81526.7
-13.890	81529.7
-13.885	81542.7
-13.880	81566.7
-13.875	81558.7
-13.870	81548.7
-13.865	81548.7
-13.860	81548.7
-13.855	81558.7
-13.850	81563.7
-13.845	81562.7
-13.840	81566.7
-13.835	81572.7
-13.830	81558.7
-13.825	81542.7
-13.820	81551.7
-13.815	81572.7
-13.810	81573.7
-13.805	81583.7
-13.800	81585.7
-13.795	81578.7
-13.790	81592.7
-13.785	81598.7
-13.780	81599.7
-13.775	81598.7
-13.770	81601.7
-13.765	81602.7
-13.760	81564.7
-13.755	81577.7
-13.750	81598.7
-13.745	81602.7
-13.740	81583.7
-13.735	81601.7
-13.730	81600.7
-13.725	81596.7
-13.720	81602.7
-13.715	81599.7
-13.710	81594.7
-13.705	81599.7
-13.700	81608.6
-13.695	81576.7
-13.690	81575.7
-13.685	81603.6
-13.680	81623.6
-13.675	81627.6
-13.670	81619.6
-13.665	81622.6
-13.660	81637.6
-13.655	81619.6
-13.650	81619.6
-13.645	81628.6
-13.640	81624.6
-13.635	81626.6
-13.630	81591.7
-13.625	81586.7
-13.620	81597.7
-13.615	81616.6
-13.610	81604.6
-13.605	81603.6
-13.600	81583.7
-13.595	81586.7
-13.590	81581.7
-13.585	81589.7
-13.580	81579.7
-13.575	81585.7
-13.570	81587.7
-13.565	81577.7
-13.560	81540.7
-13.555	81550.7
-13.550	81556.7
-13.545	81569.7
-13.540	81571.7
-13.535	81566.7
-13.530	81554.7
-13.525	81548.7
-13.520	81538.7
-13.515	81542.7
-13.510	81533.7
-13.505	81528.7
-13.500	81526.7
-13.495	81506.7
-13.490	81490.7
-13.485	81495.7
-13.480	81501.7
-13.475	81491.7
-13.470	81478.7
-13.465	81476.7
-13.460	81466.7
-13.455	81457.7
-13.450	81434.8
-13.445	81425.8
-13.440	81424.8
-13.435	81428.8
-13.430	81413.8
-13.425	81398.8
-13.420	81392.8
-13.415	81419.8
-13.410	81409.8
-13.405	81416.8
-13.400	81422.8
-13.395	81420.8
-13.390	81425.8
-13.385	81433.8
-13.380	81423.8
-13.375	81429.8
-13.370	81432.8
-13.365	81421.8
-13.360	81386.8
-13.355	81400.8
-13.350	81437.8
-13.345	81421.8
-13.340	81424.8
-13.335	81413.8
-13.330	81415.8
-13.325	81419.8
-13.320	81428.8
-13.315	81433.8
-13.310	81435.8
-13.305	81438.8
-13.300	81443.8
-13.295	81417.8
-13.290	81407.8
-13.285	81435.8
-13.280	81453.7
-13.275	81460.7
-13.270	81454.7
-13.265	81452.7
-13.260	81463.7
-13.255	81459.7
-13.250	81458.7
-13.245	81470.7
-13.240	81469.7
-13.235	81477.7
-13.230	81451.7
-13.225	81447.7
-13.220	81466.7
-13.215	81492.7
-13.210	81492.7
-13.205	81485.7
-13.200	81469.7
-13.195	81478.7
-13.190	81485.7
-13.185	81489.7
-13.180	81499.7
-13.175	81510.7
-13.170	81506.7
-13.165	81491.7
-13.160	81468.7
-13.155	81485.7
-13.150	81509.7
-13.145	81517.7
-13.140	81512.7
-13.135	81512.7
-13.130	81514.7
-13.125	81520.7
-13.120	81527.7
-13.115	81531.7
-13.110	81524.7
-13.105	81526.7
-13.100	81524.7
-13.095	81488.7
-13.090	81487.7
-13.085	81501.7
-13.080	81513.7
-13.075	81512.7
-13.070	81498.7
-13.065	81506.7
-13.060	81510.7
-13.055	81500.7
-13.050	81500.7
-13.045	81505.7
-13.040	81509.7
-13.035	81514.7
-13.030	81478.7
-13.025	81470.7
-13.020	81471.7
-13.015	81503.7
-13.010	81497.7
-13.005	81501.7
-13.000	81493.7
-12.995	81496.7
-12.990	81496.7
-12.985	81491.7
-12.980	81487.7
-12.975	81495.7
-12.970	81494.7
-12.965	81480.7
-12.960	81463.7
-12.955	81477.7
-12.950	81494.7
-12.945	81488.7
-12.940	81477.7
-12.935	81468.7
-12.930	81474.7
-12.925	81482.7
-12.920	81479.7
-12.915	81490.7
-12.910	81476.7
-12.905	81475.7
-12.900	81475.7
-12.895	81441.7
-12.890	81450.7
-12.885	81464.7
-12.880	81479.7
-12.875	81476.7
-12.870	81486.7
-12.865	81481.7
-12.860	81486.7
-12.855	81501.7
-12.850	81499.7
-12.845	81507.7
-12.840	81504.7
-12.835	81507.7
-12.830	81473.7
-12.825	81470.7
-12.820	81492.7
-12.815	81517.7
-12.810	81512.7
-12.805	81510.7
-12.800	81497.7
-12.795	81500.7
-12.790	81505.7
-12.785	81515.7
-12.780	81513.7
-12.775	81515.7
-12.770	81518.7
-12.765	81508.7
-12.760	81490.7
-12.755	81496.7
-12.750	81519.7
-12.745	81532.7
-12.740	81522.7
-12.735	81519.7
-12.730	81516.7
-12.725	81529.7
-12.720	81516.7
-12.715	81515.7
-12.710	81528.7
-12.705	81532.7
-12.700	81523.7
-12.695	81502.7
-12.690	81510.7
-12.685	81531.7
-12.680	81542.7
-12.675	81534.7
-12.670	81525.7
-12.665	81526.7
-12.660	81521.7
-12.655	81535.7
-12.650	81542.7
-12.645	81541.6
-12.640	81550.6
-12.635	81548.6
-12.630	81514.7
-12.625	81511.7
-12.620	81530.7
-12.615	81546.6
-12.610	81546.6
-12.605	81544.6
-12.600	81542.7
-12.595	81548.6
-12.590	81553.6
-12.585	81569.6
-12.580	81570.6
-12.575	81568.6
-12.570	81557.6
-12.565	81542.6
-12.560	81530.7
-12.555	81539.7
-12.550	81560.6
-12.545	81561.6
-12.540	81558.6
-12.535	81560.6
-12.530	81558.6
-12.525	81560.6
-12.520	81563.6
-12.515	81557.6
-12.510	81566.6
-12.505	81560.6
-12.500	81555.6
-12.495	81535.6
-12.490	81532.7
-12.485	81560.6
-12.480	81560.6
-12.475	81562.6
-12.470	81560.6
-12.465	81558.6
-12.460	81560.6
-12.455	81571.6
-12.450	81577.6
-12.445	81568.6
-12.440	81577.6
-12.435	81572.6
-12.430	81541.6
-12.425	81543.6
-12.420	81565.6
-12.415	81583.6
-12.410	81573.6
-12.405	81573.6
-12.400	81561.6
-12.395	81564.6
-12.390	81563.6
-12.385	81576.6
-12.380	81570.6
-12.375	81580.6
-12.370	81576.6
-12.365	81560.6
-12.360	81544.6
-12.355	81551.6
-12.350	81584.6
-12.345	81581.6
-12.340	81579.6
-12.335	81590.6
-12.330	81586.6
-12.325	81596.6
-12.320	81597.6
-12.315	81603.6
-12.310	81602.6
-12.305	81602.6
-12.300	81597.6
-12.295	81572.6
-12.290	81573.6
-12.285	81604.6
-12.280	81606.6
-12.275	81600.6
-12.270	81596.6
-12.265	81603.6
-12.260	81597.6
-12.255	81607.6
-12.250	81606.6
-12.245	81610.6
-12.240	81609.6
-12.235	81614.6
-12.230	81589.6
-12.225	81589.6
-12.220	81600.6
-12.215	81624.6
-12.210	81618.6
-12.205	81624.6
-12.200	81624.6
-12.195	81630.6
-12.190	81636.6
-12.185	81643.6
-12.180	81641.6
-12.175	81647.6
-12.170	81641.6
-12.165	81626.6
-12.160	81613.6
-12.155	81637.6
-12.150	81650.6
-12.145	81649.5
-12.140	81654.5
-12.135	81651.6
-12.130	81645.6
-12.125	81652.5
-12.120	81653.6
-12.115	81654.6
-12.110	81659.5
-12.105	81667.5
-12.100	81658.5
-12.095	81630.6
-12.090	81647.6
-12.085	81667.5
-12.080	81674.5
-12.075	81673.5
-12.070	81669.5
-12.065	81671.5
-12.060	81669.5
-12.055	81681.5
-12.050	81681.5
-12.045	81686.5
-12.040	81686.5
-12.035	81681.5
-12.030	81636.6
-12.025	81641.6
-12.020	81660.5
-12.015	81670.5
-12.010	81669.5
-12.005	81664.5
-12.000	81656.5
-11.995	81659.5
-11.990	81650.5
-11.985	81655.5
-11.980	81660.5
-11.975	81667.5
-11.970	81671.5
-11.965	81640.5
-11.960	81625.6
-11.955	81629.6
-11.950	81664.5
-11.945	81672.5
-11.940	81675.5
-11.935	81672.5
-11.930	81686.5
-11.925	81686.5
-11.920	81677.5
-11.915	81703.5
-11.910	81708.5
-11.905	81705.5
-11.900	81701.5
-11.895	81678.5
-11.890	81687.5
-11.885	81712.5
-11.880	81713.5
-11.875	81704.5
-11.870	81709.5
-11.865	81708.5
-11.860	81703.5
-11.855	81704.5
-11.850	81703.5
-11.845	81711.5
-11.840	81704.5
-11.835	81719.5
-11.830	81684.5
-11.825	81679.5
-11.820	81690.5
-11.815	81721.5
-11.810	81703.5
-11.805	81709.5
-11.800	81707.5
-11.795	81698.5
-11.790	81697.5
-11.785	81717.5
-11.780	81711.5
-11.775	81712.5
-11.770	81706.5
-11.765	81683.5
-11.760	81669.5
-11.755	81686.5
-11.750	81706.5
-11.745	81696.5
-11.740	81688.5
-11.735	81680.5
-11.730	81683.5
-11.725	81686.5
-11.720	81675.5
-11.715	81680.5
-11.710	81686.5
-11.705	81684.5
-11.700	81665.5
-11.695	81644.5
-11.690	81644.5
-11.685	81670.5
-11.680	81674.5
-11.675	81675.5
-11.670	81670.5
-11.665	81673.5
-11.660	81675.5
-11.655	81681.5
-11.650	81685.5
-11.645	81681.5
-11.640	81670.5
-11.635	81671.5
-11.630	81641.5
-11.625	81635.5
-11.620	81655.5
-11.615	81673.5
-11.610	81663.5
-11.605	81657.5
-11.600	81658.5
-11.595	81657.5
-11.590	81653.5
-11.585	81657.5
-11.580	81652.5
-11.575	81662.5
-11.570	81659.5
-11.565	81639.5
-11.560	81624.6
-11.555	81630.5
-11.550	81643.5
-11.545	81644.5
-11.540	81643.5
-11.535	81641.5
-11.530	81639.5
-11.525	81644.5
-11.520	81643.5
-11.515	81636.5
-11.510	81635.5
-11.505	81643.5
-11.500	81618.6
-11.495	81607.6
-11.490	81614.6
-11.485	81635.5
-11.480	81641.5
-11.475	81632.5
-11.470	81625.6
-11.465	81622.6
-11.460	81618.6
-11.455	81615.6
-11.450	81624.5
-11.445	81620.6
-11.440	81625.5
-11.435	81630.5
-11.430	81594.6
-11.425	81594.6
-11.420	81614.6
-11.415	81634.5
-11.410	81632.5
-11.405	81637.5
-11.400	81627.5
-11.395	81631.5
-11.390	81635.5
-11.385	81641.5
-11.380	81646.5
-11.375	81642.5
-11.370	81633.5
-11.365	81614.6
-11.360	81609.6
-11.355	81631.5
-11.350	81646.5
-11.345	81634.5
-11.340	81626.5
-11.335	81624.5
-11.330	81619.6
-11.325	81616.6
-11.320	81630.5
-11.315	81637.5
-11.310	81646.5
-11.305	81645.5
-11.300	81632.5
-11.295	81601.6
-11.290	81611.6
-11.285	81635.5
-11.280	81636.5
-11.275	81644.5
-11.270	81639.5
-11.265	81641.5
-11.260	81636.5
-11.255	81637.5
-11.250	81648.5
-11.245	81652.5
-11.240	81645.5
-11.235	81648.5
-11.230	81620.5
-11.225	81618.5
-11.220	81644.5
-11.215	81654.5
-11.210	81643.5
-11.205	81650.5
-11.200	81642.5
-11.195	81653.5
-11.190	81647.5
-11.185	81653.5
-11.180	81656.5
-11.175	81663.5
-11.170	81653.5
-11.165	81640.5
-11.160	81621.5
-11.155	81631.5
-11.150	81666.5
-11.145	81666.5
-11.140	81663.5
-11.135	81670.5
-11.130	81675.5
-11.125	81676.5
-11.120	81673.5
-11.115	81682.5
-11.110	81684.5
-11.105	81684.5
-11.100	81660.5
-11.095	81658.5
-11.090	81657.5
-11.085	81693.5
-11.080	81687.5
-11.075	81689.5
-11.070	81673.5
-11.065	81684.5
-11.060	81681.5
-11.055	81691.5
-11.050	81698.5
-11.045	81694.5
-11.040	81693.5
-11.035	81693.5
-11.030	81664.5
-11.025	81670.5
-11.020	81694.5
-11.015	81717.5
-11.010	81703.5
-11.005	81702.5
-11.000	81704.5
-10.995	81715.5
-10.990	81713.5
-10.985	81724.5
-10.980	81723.5
-10.975	81717.5
-10.970	81713.5
-10.965	81689.5
-10.960	81696.5
-10.955	81718.5
-10.950	81721.5
-10.945	81716.5
-10.940	81722.5
-10.935	81725.5
-10.930	81725.5
-10.925	81736.4
-10.920	81744.4
-10.915	81744.4
-10.910	81740.4
-10.905	81739.4
-10.900	81728.5
-10.895	81713.5
-10.890	81729.4
-10.885	81761.4
-10.880	81757.4
-10.875	81747.4
-10.870	81749.4
-10.865	81756.4
-10.860	81756.4
-10.855	81762.4
-10.850	81764.4
-10.845	81770.4
-10.840	81761.4
-10.835	81768.4
-10.830	81726.5
-10.825	81745.4
-10.820	81767.4
-10.815	81771.4
-10.810	81767.4
-10.805	81757.4
-10.800	81756.4
-10.795	81760.4
-10.790	81758.4
-10.785	81769.4
-10.780	81778.4
-10.775	81766.4
-10.770	81760.4
-10.765	81743.4
-10.760	81734.4
-10.755	81748.4
-10.750	81771.4
-10.745	81769.4
-10.740	81767.4
-10.735	81765.4
-10.730	81766.4
-10.725	81766.4
-10.720	81770.4
-10.715	81784.4
-10.710	81780.4
-10.705	81781.4
-10.700	81761.4
-10.695	81738.4
-10.690	81745.4
-10.685	81769.4
-10.680	81760.4
-10.675	81749.4
-10.670	81743.4
-10.665	81740.4
-10.660	81736.4
-10.655	81741.4
-10.650	81734.4
-10.645	81748.4
-10.640	81752.4
-10.635	81748.4
-10.630	81702.5
-10.625	81715.5
-10.620	81730.4
-10.615	81737.4
-10.610	81731.4
-10.605	81729.4
-10.600	81725.4
-10.595	81736.4
-10.590	81718.5
-10.585	81733.4
-10.580	81722.4
-10.575	81721.4
-10.570	81707.5
-10.565	81677.5
-10.560	81671.5
-10.555	81680.5
-10.550	81697.5
-10.545	81701.5
-10.540	81678.5
-10.535	81690.5
-10.530	81689.5
-10.525	81671.5
-10.520	81671.5
-10.515	81679.5
-10.510	81679.5
-10.505	81680.5
-10.500	81657.5
-10.495	81640.5
-10.490	81654.5
-10.485	81675.5
-10.480	81677.5
-10.475	81687.5
-10.470	81691.5
-10.465	81691.5
-10.460	81685.5
-10.455	81691.5
-10.450	81689.5
-10.445	81690.5
-10.440	81695.5
-10.435	81687.5
-10.430	81649.5
-10.425	81666.5
-10.420	81686.5
-10.415	81699.5
-10.410	81690.5
-10.405	81684.5
-10.400	81677.5
-10.395	81676.5
-10.390	81673.5
-10.385	81679.5
-10.380	81679.5
-10.375	81687.5
-10.370	81674.5
-10.365	81645.5
-10.360	81638.5
-10.355	81647.5
-10.350	81669.5
-10.345	81674.5
-10.340	81671.5
-10.335	81675.5
-10.330	81679.5
-10.325	81681.5
-10.320	81677.5
-10.315	81682.5
-10.310	81699.5
-10.305	81695.5
-10.300	81669.5
-10.295	81659.5
-10.290	81671.5
-10.285	81703.5
-10.280	81688.5
-10.275	81687.5
-10.270	81694.5
-10.265	81687.5
-10.260	81678.5
-10.255	81679.5
-10.250	81689.5
-10.245	81689.5
-10.240	81688.5
-10.235	81689.5
-10.230	81660.5
-10.225	81659.5
-10.220	81680.5
-10.215	81692.5
-10.210	81686.5
-10.205	81680.5
-10.200	81688.5
-10.195	81681.5
-10.190	81679.5
-10.185	81695.5
-10.180	81692.5
-10.175	81703.5
-10.170	81694.5
-10.165	81661.5
-10.160	81659.5
-10.155	81669.5
-10.150	81686.5
-10.145	81694.5
-10.140	81678.5
-10.135	81681.5
-10.130	81675.5
-10.125	81682.5
-10.120	81678.5
-10.115	81684.5
-10.110	81682.5
-10.105	81685.5
-10.100	81672.5
-10.095	81660.5
-10.090	81662.5
-10.085	81688.5
-10.080	81682.5
-10.075	81681.5
-10.070	81671.5
-10.065	81684.5
-10.060	81688.5
-10.055	81692.5
-10.050	81697.5
-10.045	81695.5
-10.040	81695.5
-10.035	81690.5
-10.030	81669.5
-10.025	81676.5
-10.020	81691.5
-10.015	81691.5
-10.010	81684.5
-10.005	81678.5
-10.000	81683.5
-9.995	81679.5
-9.990	81675.5
-9.985	81681.5
-9.980	81678.5
-9.975	81683.5
-9.970	81686.5
-9.965	81655.5
-9.960	81642.5
-9.955	81657.5
-9.950	81675.5
-9.945	81674.5
-9.940	81672.5
-9.935	81678.5
-9.930	81673.5
-9.925	81673.5
-9.920	81670.5
-9.915	81681.5
-9.910	81674.5
-9.905	81680.5
-9.900	81651.5
-9.895	81638.5
-9.890	81652.5
-9.885	81682.5
-9.880	81670.5
-9.875	81660.5
-9.870	81660.5
-9.865	81660.5
-9.860	81648.5
-9.855	81657.5
-9.850	81663.5
-9.845	81668.5
-9.840	81660.5
-9.835	81659.5
-9.830	81628.5
-9.825	81638.5
-9.820	81659.5
-9.815	81666.5
-9.810	81662.5
-9.805	81666.5
-9.800	81655.5
-9.795	81667.5
-9.790	81662.5
-9.785	81669.5
-9.780	81679.5
-9.775	81675.5
-9.770	81667.5
-9.765	81642.5
-9.760	81651.5
-9.755	81655.5
-9.750	81667.5
-9.745	81669.5
-9.740	81667.5
-9.735	81651.5
-9.730	81656.5
-9.725	81664.5
-9.720	81656.5
-9.715	81660.5
-9.710	81670.5
-9.705	81676.5
-9.700	81645.5
-9.695	81628.5
-9.690	81647.5
-9.685	81658.5
-9.680	81668.5
-9.675	81673.5
-9.670	81660.5
-9.665	81669.5
-9.660	81673.5
-9.655	81685.4
-9.650	81675.5
-9.645	81685.5
-9.640	81672.5
-9.635	81658.5
-9.630	81640.5
-9.625	81654.5
-9.620	81682.4
-9.615	81680.5
-9.610	81667.5
-9.605	81671.5
-9.600	81664.5
-9.595	81657.5
-9.590	81665.5
-9.585	81669.5
-9.580	81670.4
-9.575	81672.4
-9.570	81677.4
-9.565	81634.4
-9.560	81612.4
-9.555	81615.3
-9.550	81604.2
-9.545	81573.1
-9.540	81528.0
-9.535	81486.7
-9.530	81436.5
-9.525	81391.2
-9.520	81341.9
-9.515	81253.6
-9.510	81124.3
-9.505	81014.9
-9.500	80901.6
-9.495	80788.2
-9.490	80689.8
-9.485	80608.4
-9.480	80537.1
-9.475	80457.8
-9.470	80340.6
-9.465	80314.6
-9.460	80373.7
-9.455	80501.0
-9.450	80649.3
-9.445	80838.5
-9.440	81016.8
-9.435	81137.0
-9.430	81175.2
-9.425	81170.4
-9.420	81245.5
-9.415	81246.6
-9.410	81068.9
-9.405	81110.9
-9.400	81223.9
-9.395	81138.1
-9.390	80916.3
-9.385	80784.5
-9.380	80828.5
-9.375	80991.4
-9.370	81120.4
-9.365	81173.4
-9.360	81158.5
-9.355	81137.5
-9.350	81089.6
-9.345	81021.7
-9.340	80979.8
-9.335	80989.8
-9.330	81044.8
-9.325	81140.8
-9.320	81241.7
-9.315	81324.7
-9.310	81354.7
-9.305	81380.7
-9.300	81356.7
-9.295	81352.8
-9.290	81368.8
-9.285	81389.8
-9.280	81387.8
-9.275	81397.8
-9.270	81389.8
-9.265	81387.9
-9.260	81397.9
-9.255	81395.9
-9.250	81394.9
-9.245	81393.9
-9.240	81388.0
-9.235	81367.0
-9.230	81341.0
-9.225	81361.0
-9.220	81399.0
-9.215	81423.0
-9.210	81439.0
-9.205	81447.1
-9.200	81445.1
-9.195	81440.1
-9.190	81400.1
-9.185	81420.1
-9.180	81447.1
-9.175	81480.1
-9.170	81476.1
-9.165	81457.2
-9.160	81466.2
-9.155	81484.2
-9.150	81493.2
-9.145	81508.2
-9.140	81480.2
-9.135	81483.2
-9.130	81482.2
-9.125	81502.2
-9.120	81506.2
-9.115	81513.2
-9.110	81510.2
-9.105	81511.2
-9.100	81496.3
-9.095	81492.3
-9.090	81521.3
-9.085	81537.3
-9.080	81532.3
-9.075	81521.3
-9.070	81517.3
-9.065	81516.3
-9.060	81519.3
-9.055	81532.3
-9.050	81536.3
-9.045	81541.3
-9.040	81536.3
-9.035	81521.4
-9.030	81497.4
-9.025	81522.4
-9.020	81551.4
-9.015	81547.4
-9.010	81535.4
-9.005	81539.4
-9.000	81546.4
-8.995	81555.4
-8.990	81556.4
-8.985	81564.4
-8.980	81547.4
-8.975	81555.4
-8.970	81540.4
-8.965	81527.4
-8.960	81539.4
-8.955	81560.4
-8.950	81552.4
-8.945	81538.5
-8.940	81514.5
-8.935	81510.5
-8.930	81504.5
-8.925	81517.5
-8.920	81524.5
-8.915	81521.5
-8.910	81506.5
-8.905	81504.5
-8.900	81461.6
-8.895	81461.6
-8.890	81489.6
-8.885	81528.5
-8.880	81535.5
-8.875	81538.5
-8.870	81544.5
-8.865	81557.5
-8.860	81572.5
-8.855	81585.5
-8.850	81607.5
-8.845	81610.5
-8.840	81616.5
-8.835	81590.5
-8.830	81575.5
-8.825	81595.5
-8.820	81626.5
-8.815	81620.5
-8.810	81613.5
-8.805	81604.5
-8.800	81607.5
-8.795	81606.5
-8.790	81612.5
-8.785	81613.6
-8.780	81608.6
-8.775	81617.6
-8.770	81624.6
-8.765	81586.6
-8.760	81585.6
-8.755	81612.6
-8.750	81632.6
-8.745	81634.6
-8.740	81633.6
-8.735	81629.6
-8.730	81625.6
-8.725	81630.6
-8.720	81645.6
-8.715	81659.6
-8.710	81648.6
-8.705	81653.6
-8.700	81630.6
-8.695	81632.6
-8.690	81635.6
-8.685	81654.6
-8.680	81652.6
-8.675	81656.6
-8.670	81645.6
-8.665	81635.6
-8.660	81637.6
-8.655	81644.6
-8.650	81647.6
-8.645	81639.6
-8.640	81641.6
-8.635	81628.6
-8.630	81614.7
-8.625	81633.6
-8.620	81667.6
-8.615	81673.6
-8.610	81667.6
-8.605	81671.6
-8.600	81675.6
-8.595	81675.6
-8.590	81683.6
-8.585	81686.6
-8.580	81698.6
-8.575	81691.6
-8.570	81680.6
-8.565	81657.7
-8.560	81675.7
-8.555	81699.6
-8.550	81698.6
-8.545	81699.6
-8.540	81688.7
-8.535	81699.6
-8.530	81698.7
-8.525	81709.6
-8.520	81704.7
-8.515	81707.6
-8.510	81697.7
-8.505	81705.7
-8.500	81669.7
-8.495	81683.7
-8.490	81709.7
-8.485	81730.7
-8.480	81731.7
-8.475	81740.6
-8.470	81755.6
-8.465	81736.7
-8.460	81748.7
-8.455	81754.6
-8.450	81749.6
-8.445	81759.6
-8.440	81752.6
-8.435	81734.7
-8.430	81716.7
-8.425	81742.7
-8.420	81763.7
-8.415	81751.7
-8.410	81739.7
-8.405	81739.7
-8.400	81728.7
-8.395	81739.7
-8.390	81742.7
-8.385	81733.7
-8.380	81741.7
-8.375	81744.7
-8.370	81726.7
-8.365	81703.7
-8.360	81704.7
-8.355	81733.7
-8.350	81728.7
-8.345	81726.7
-8.340	81717.7
-8.335	81720.7
-8.330	81727.7
-8.325	81735.7
-8.320	81737.7
-8.315	81740.7
-8.310	81747.7
-8.305	81736.7
-8.300	81698.7
-8.295	81713.7
-8.290	81723.7
-8.285	81733.7
-8.280	81716.7
-8.275	81716.7
-8.270	81710.7
-8.265	81715.7
-8.260	81717.7
-8.255	81720.7
-8.250	81714.7
-8.245	81719.7
-8.240	81715.8
-8.235	81681.8
-8.230	81659.8
-8.225	81660.8
-8.220	81662.8
-8.215	81638.8
-8.210	81607.8
-8.205	81582.9
-8.200	81562.9
-8.195	81542.9
-8.190	81542.9
-8.185	81598.9
-8.180	81649.8
-8.175	81681.8
-8.170	81677.8
-8.165	81659.8
-8.160	81672.8
-8.155	81697.8
-8.150	81699.8
-8.145	81685.8
-8.140	81685.8
-8.135	81694.8
-8.130	81704.8
-8.125	81700.8
-8.120	81709.8
-8.115	81714.8
-8.110	81712.8
-8.105	81706.8
-8.100	81680.8
-8.095	81682.8
-8.090	81699.8
-8.085	81713.8
-8.080	81707.8
-8.075	81718.8
-8.070	81707.8
-8.065	81707.8
-8.060	81704.8
-8.055	81718.8
-8.050	81713.8
-8.045	81710.8
-8.040	81710.8
-8.035	81684.8
-8.030	81670.8
-8.025	81688.8
-8.020	81687.8
-8.015	81687.8
-8.010	81684.8
-8.005	81696.8
-8.000	81671.9
-7.995	81681.8
-7.990	81684.8
-7.985	81679.8
-7.980	81678.9
-7.975	81685.8
-7.970	81664.9
-7.965	81635.9
-7.960	81647.9
-7.955	81662.9
-7.950	81657.9
-7.945	81644.9
-7.940	81626.9
-7.935	81621.9
-7.930	81622.9
-7.925	81626.9
-7.920	81634.9
-7.915	81625.9
-7.910	81623.9
-7.905	81634.9
-7.900	81611.9
-7.895	81616.9
-7.890	81639.9
-7.885	81673.9
-7.880	81669.9
-7.875	81668.9
-7.870	81664.9
-7.865	81658.9
-7.860	81659.9
-7.855	81670.9
-7.850	81670.9
-7.845	81675.9
-7.840	81678.9
-7.835	81656.9
-7.830	81634.9
-7.825	81654.9
-7.820	81681.9
-7.815	81683.9
-7.810	81673.9
-7.805	81672.9
-7.800	81673.9
-7.795	81687.9
-7.790	81686.9
-7.785	81689.9
-7.780	81679.9
-7.775	81676.9
-7.770	81673.9
-7.765	81659.9
-7.760	81668.9
-7.755	81695.9
-7.750	81683.9
-7.745	81691.9
-7.740	81673.9
-7.735	81674.9
-7.730	81677.9
-7.725	81682.9
-7.720	81681.9
-7.715	81678.9
-7.710	81684.9
-7.705	81688.9
-7.700	81642.9
-7.695	81637.9
-7.690	81661.9
-7.685	81684.9
-7.680	81679.9
-7.675	81685.9
-7.670	81675.9
-7.665	81676.9
-7.660	81691.9
-7.655	81683.9
-7.650	81678.9
-7.645	81682.9
-7.640	81679.9
-7.635	81640.9
-7.630	81635.0
-7.625	81654.9
-7.620	81667.9
-7.615	81658.9
-7.610	81644.9
-7.605	81653.9
-7.600	81648.9
-7.595	81645.9
-7.590	81644.9
-7.585	81652.9
-7.580	81654.9
-7.575	81658.9
-7.570	81637.0
-7.565	81619.0
-7.560	81629.0
-7.555	81653.9
-7.550	81647.0
-7.545	81649.0
-7.540	81646.0
-7.535	81651.0
-7.530	81655.9
-7.525	81664.9
-7.520	81646.0
-7.515	81651.0
-7.510	81645.0
-7.505	81646.0
-7.500	81607.0
-7.495	81622.0
-7.490	81650.0
-7.485	81650.0
-7.480	81641.0
-7.475	81637.0
-7.470	81641.0
-7.465	81643.0
-7.460	81649.0
-7.455	81646.0
-7.450	81650.0
-7.445	81667.0
-7.440	81663.0
-7.435	81637.0
-7.430	81626.0
-7.425	81640.0
-7.420	81665.0
-7.415	81670.0
-7.410	81681.9
-7.405	81678.9
-7.400	81690.9
-7.395	81700.9
-7.390	81701.9
-7.385	81710.9
-7.380	81706.9
-7.375	81712.9
-7.370	81692.9
-7.365	81684.9
-7.360	81699.9
-7.355	81723.9
-7.350	81719.9
-7.345	81723.9
-7.340	81720.9
-7.335	81721.9
-7.330	81706.9
-7.325	81720.9
-7.320	81736.9
-7.315	81739.9
-7.310	81737.9
-7.305	81746.9
-7.300	81715.9
-7.295	81723.9
-7.290	81740.9
-7.285	81756.9
-7.280	81750.9
-7.275	81755.9
-7.270	81748.9
-7.265	81751.9
-7.260	81749.9
-7.255	81766.9
-7.250	81760.9
-7.245	81761.9
-7.240	81760.9
-7.235	81729.9
-7.230	81720.9
-7.225	81737.9
-7.220	81757.9
-7.215	81758.9
-7.210	81755.9
-7.205	81755.9
-7.200	81756.9
-7.195	81745.9
-7.190	81750.9
-7.185	81757.9
-7.180	81767.9
-7.175	81768.9
-7.170	81745.9
-7.165	81733.9
-7.160	81736.9
-7.155	81765.9
-7.150	81761.9
-7.145	81767.9
-7.140	81761.9
-7.135	81759.9
-7.130	81766.9
-7.125	81771.9
-7.120	81773.9
-7.115	81770.9
-7.110	81774.9
-7.105	81771.9
-7.100	81738.9
-7.095	81752.9
-7.090	81775.9
-7.085	81778.9
-7.080	81778.9
-7.075	81772.9
-7.070	81761.9
-7.065	81767.9
-7.060	81765.9
-7.055	81763.9
-7.050	81768.9
-7.045	81772.9
-7.040	81767.9
-7.035	81736.0
-7.030	81735.0
-7.025	81750.9
-7.020	81775.9
-7.015	81772.9
-7.010	81781.9
-7.005	81769.9
-7.000	81772.9
-6.995	81776.9
-6.990	81782.9
-6.985	81779.9
-6.980	81778.9
-6.975	81775.9
-6.970	81747.0
-6.965	81733.0
-6.960	81754.9
-6.955	81769.9
-6.950	81765.9
-6.945	81760.9
-6.940	81765.9
-6.935	81746.0
-6.930	81747.0
-6.925	81759.9
-6.920	81753.0
-6.915	81746.0
-6.910	81745.0
-6.905	81747.0
-6.900	81707.0
-6.895	81717.0
-6.890	81739.0
-6.885	81755.0
-6.880	81746.0
-6.875	81741.0
-6.870	81738.0
-6.865	81733.0
-6.860	81738.0
-6.855	81733.0
-6.850	81721.0
-6.845	81717.0
-6.840	81697.0
-6.835	81656.0
-6.830	81646.0
-6.825	81670.0
-6.820	81672.0
-6.815	81671.0
-6.810	81652.0
-6.805	81640.0
-6.800	81627.0
-6.795	81636.0
-6.790	81638.0
-6.785	81625.0
-6.780	81627.0
-6.775	81612.1
-6.770	81570.1
-6.765	81557.1
-6.760	81570.1
-6.755	81599.1
-6.750	81597.1
-6.745	81584.1
-6.740	81575.1
-6.735	81581.1
-6.730	81595.1
-6.725	81601.1
-6.720	81599.1
-6.715	81602.1
-6.710	81604.1
-6.705	81597.1
-6.700	81571.1
-6.695	81595.1
-6.690	81621.1
-6.685	81614.1
-6.680	81621.1
-6.675	81628.1
-6.670	81614.1
-6.665	81612.1
-6.660	81608.1
-6.655	81622.1
-6.650	81629.1
-6.645	81633.1
-6.640	81632.1
-6.635	81589.1
-6.630	81588.1
-6.625	81600.1
-6.620	81617.1
-6.615	81612.1
-6.610	81608.1
-6.605	81600.1
-6.600	81591.1
-6.595	81584.1
-6.590	81570.1
-6.585	81548.1
-6.580	81524.1
-6.575	81511.2
-6.570	81445.2
-6.565	81396.2
-6.560	81366.3
-6.555	81349.3
-6.550	81295.3
-6.545	81249.3
-6.540	81211.4
-6.535	81169.4
-6.530	81095.5
-6.525	81027.5
-6.520	80942.6
-6.515	80876.6
-6.510	80816.7
-6.505	80809.7
-6.500	80823.7
-6.495	80871.6
-6.490	80937.6
-6.485	81008.5
-6.480	81097.5
-6.475	81167.4
-6.470	81235.4
-6.465	81315.3
-6.460	81384.3
-6.455	81452.2
-6.450	81520.2
-6.445	81553.1
-6.440	81581.1
-6.435	81583.1
-6.430	81602.1
-6.425	81631.1
-6.420	81655.1
-6.415	81662.0
-6.410	81663.0
-6.405	81659.0
-6.400	81658.1
-6.395	81662.0
-6.390	81662.0
-6.385	81670.0
-6.380	81674.0
-6.375	81678.0
-6.370	81647.1
-6.365	81648.1
-6.360	81662.1
-6.355	81688.0
-6.350	81676.0
-6.345	81675.0
-6.340	81672.0
-6.335	81673.0
-6.330	81672.0
-6.325	81680.0
-6.320	81680.0
-6.315	81683.0
-6.310	81680.0
-6.305	81664.1
-6.300	81634.1
-6.295	81654.1
-6.290	81675.0
-6.285	81673.0
-6.280	81662.1
-6.275	81650.1
-6.270	81654.1
-6.265	81659.1
-6.260	81656.1
-6.255	81661.1
-6.250	81660.1
-6.245	81674.1
-6.240	81660.1
-6.235	81627.1
-6.230	81620.1
-6.225	81641.1
-6.220	81655.1
-6.215	81656.1
-6.210	81662.1
-6.205	81662.1
-6.200	81652.1
-6.195	81654.1
-6.190	81667.1
-6.185	81667.1
-6.180	81671.1
-6.175	81680.0
-6.170	81638.1
-6.165	81637.1
-6.160	81651.1
-6.155	81666.1
-6.150	81663.1
-6.145	81648.1
-6.140	81655.1
-6.135	81650.1
-6.130	81647.1
-6.125	81651.1
-6.120	81648.1
-6.115	81659.1
-6.110	81660.1
-6.105	81648.1
-6.100	81618.1
-6.095	81632.1
-6.090	81653.1
-6.085	81658.1
-6.080	81663.1
-6.075	81658.1
-6.070	81662.1
-6.065	81668.1
-6.060	81680.1
-6.055	81678.1
-6.050	81679.1
-6.045	81692.1
-6.040	81697.0
-6.035	81662.1
-6.030	81669.1
-6.025	81700.0
-6.020	81706.0
-6.015	81706.0
-6.010	81692.1
-6.005	81688.1
-6.000	81692.1
-5.995	81700.0
-5.990	81700.0
-5.985	81708.0
-5.980	81708.0
-5.975	81708.0
-5.970	81684.1
-5.965	81672.1
-5.960	81680.1
-5.955	81708.0
-5.950	81699.1
-5.945	81707.1
-5.940	81702.1
-5.935	81693.1
-5.930	81688.1
-5.925	81683.1
-5.920	81679.1
-5.915	81664.1
-5.910	81633.1
-5.905	81615.1
-5.900	81565.2
-5.895	81571.2
-5.890	81571.2
-5.885	81567.2
-5.880	81541.2
-5.875	81538.2
-5.870	81524.2
-5.865	81524.2
-5.860	81528.2
-5.855	81524.2
-5.850	81510.2
-5.845	81505.2
-5.840	81494.2
-5.835	81463.2
-5.830	81469.2
-5.825	81493.2
-5.820	81508.2
-5.815	81523.2
-5.810	81512.2
-5.805	81518.2
-5.800	81525.2
-5.795	81550.2
-5.790	81553.2
-5.785	81554.2
-5.780	81558.1
-5.775	81555.1
-5.770	81522.2
-5.765	81516.2
-5.760	81546.1
-5.755	81575.1
-5.750	81576.1
-5.745	81569.1
-5.740	81576.1
-5.735	81587.0
-5.730	81586.0
-5.725	81587.0
-5.720	81595.0
-5.715	81611.0
-5.710	81601.0
-5.705	81599.0
-5.700	81582.0
-5.695	81608.0
-5.690	81656.0
-5.685	81656.0
-5.680	81657.0
-5.675	81659.0
-5.670	81655.0
-5.665	81648.1
-5.660	81653.1
-5.655	81659.1
-5.650	81650.1
-5.645	81652.1
-5.640	81651.1
-5.635	81622.1
-5.630	81623.1
-5.625	81653.1
-5.620	81650.1
-5.615	81657.1
-5.610	81641.1
-5.605	81647.1
-5.600	81638.1
-5.595	81645.1
-5.590	81644.1
-5.585	81633.1
-5.580	81640.1
-5.575	81639.1
-5.570	81611.2
-5.565	81599.2
-5.560	81621.1
-5.555	81636.1
-5.550	81625.1
-5.545	81634.1
-5.540	81623.2
-5.535	81632.1
-5.530	81624.2
-5.525	81624.1
-5.520	81623.2
-5.515	81632.1
-5.510	81618.2
-5.505	81590.2
-5.500	81579.2
-5.495	81584.2
-5.490	81608.2
-5.485	81609.2
-5.480	81581.2
-5.475	81587.2
-5.470	81573.2
-5.465	81560.2
-5.460	81546.2
-5.455	81541.2
-5.450	81518.3
-5.445	81502.4
-5.440	81468.5
-5.435	81405.7
-5.430	81350.0
-5.425	81301.3
-5.420	81229.7
-5.415	81140.1
-5.410	81043.6
-5.405	80925.2
-5.400	80870.8
-5.395	80787.4
-5.390	80624.1
-5.385	80463.9
-5.380	80391.6
-5.375	80397.1
-5.370	80335.8
-5.365	80304.4
-5.360	80330.9
-5.355	80490.0
-5.350	80690.8
-5.345	80913.3
-5.340	81071.8
-5.335	81177.2
-5.330	81257.8
-5.325	81353.3
-5.320	81408.0
-5.315	81431.7
-5.310	81454.5
-5.305	81464.3
-5.300	81483.1
-5.295	81498.9
-5.290	81501.8
-5.285	81480.6
-5.280	81468.5
-5.275	81456.4
-5.270	81443.3
-5.265	81471.2
-5.260	81496.1
-5.255	81532.0
-5.250	81534.0
-5.245	81546.9
-5.240	81557.8
-5.235	81530.8
-5.230	81547.7
-5.225	81584.6
-5.220	81598.5
-5.215	81601.5
-5.210	81604.4
-5.205	81633.4
-5.200	81634.3
-5.195	81654.2
-5.190	81660.2
-5.185	81682.1
-5.180	81692.1
-5.175	81711.0
-5.170	81696.0
-5.165	81706.9
-5.160	81731.9
-5.155	81745.8
-5.150	81757.8
-5.145	81771.7
-5.140	81762.7
-5.135	81779.7
-5.130	81775.7
-5.125	81797.6
-5.120	81804.6
-5.115	81806.6
-5.110	81804.5
-5.105	81807.5
-5.100	81793.5
-5.095	81799.5
-5.090	81828.4
-5.085	81832.4
-5.080	81845.4
-5.075	81864.3
-5.070	81862.3
-5.065	81850.3
-5.060	81837.3
-5.055	81830.3
-5.050	81830.3
-5.045	81839.3
-5.040	81832.2
-5.035	81822.2
-5.030	81840.2
-5.025	81878.1
-5.020	81875.1
-5.015	81882.1
-5.010	81876.1
-5.005	81878.1
-5.000	81886.1
-4.995	81885.1
-4.990	81876.0
-4.985	81878.0
-4.980	81883.0
-4.975	81886.0
-4.970	81848.0
-4.965	81846.0
-4.960	81860.9
-4.955	81881.9
-4.950	81869.9
-4.945	81870.9
-4.940	81869.9
-4.935	81885.9
-4.930	81882.8
-4.925	81895.8
-4.920	81888.8
-4.915	81894.8
-4.910	81897.8
-4.905	81883.8
-4.900	81842.8
-4.895	81869.8
-4.890	81887.8
-4.885	81880.8
-4.880	81891.8
-4.875	81888.8
-4.870	81895.7
-4.865	81904.7
-4.860	81914.7
-4.855	81922.7
-4.850	81918.7
-4.845	81931.7
-4.840	81913.7
-4.835	81889.7
-4.830	81902.7
-4.825	81908.7
-4.820	81900.7
-4.815	81903.6
-4.810	81898.6
-4.805	81903.6
-4.800	81904.6
-4.795	81899.6
-4.790	81898.6
-4.785	81886.6
-4.780	81886.6
-4.775	81887.6
-4.770	81862.6
-4.765	81862.6
-4.760	81883.6
-4.755	81909.5
-4.750	81905.5
-4.745	81919.5
-4.740	81902.5
-4.735	81906.5
-4.730	81898.5
-4.725	81907.5
-4.720	81908.5
-4.715	81916.5
-4.710	81910.5
-4.705	81887.5
-4.700	81875.5
-4.695	81899.5
-4.690	81924.4
-4.685	81921.4
-4.680	81919.4
-4.675	81917.4
-4.670	81888.4
-4.665	81877.4
-4.660	81874.4
-4.655	81884.4
-4.650	81897.4
-4.645	81902.4
-4.640	81902.4
-4.635	81868.4
-4.630	81872.4
-4.625	81907.3
-4.620	81899.3
-4.615	81904.3
-4.610	81898.3
-4.605	81908.3
-4.600	81918.3
-4.595	81911.3
-4.590	81895.3
-4.585	81898.3
-4.580	81898.3
-4.575	81895.3
-4.570	81864.3
-4.565	81869.3
-4.560	81879.3
-4.555	81884.3
-4.550	81900.3
-4.545	81909.3
-4.540	81903.3
-4.535	81918.3
-4.530	81908.3
-4.525	81910.3
-4.520	81914.3
-4.515	81923.2
-4.510	81909.2
-4.505	81883.3
-4.500	81860.3
-4.495	81865.2
-4.490	81885.2
-4.485	81893.2
-4.480	81891.2
-4.475	81892.2
-4.470	81892.2
-4.465	81905.2
-4.460	81910.2
-4.455	81921.2
-4.450	81917.2
-4.445	81927.2
-4.440	81905.2
-4.435	81900.2
-4.430	81914.2
-4.425	81948.1
-4.420	81931.1
-4.415	81931.1
-4.410	81909.1
-4.405	81916.1
-4.400	81921.1
-4.395	81924.1
-4.390	81925.1
-4.385	81934.1
-4.380	81948.1
-4.375	81955.1
-4.370	81916.1
-4.365	81903.1
-4.360	81930.1
-4.355	81943.1
-4.350	81925.1
-4.345	81925.1
-4.340	81920.1
-4.335	81935.1
-4.330	81947.1
-4.325	81945.1
-4.320	81932.1
-4.315	81929.1
-4.310	81924.1
-4.305	81895.1
-4.300	81891.1
-4.295	81902.1
-4.290	81917.1
-4.285	81916.1
-4.280	81904.1
-4.275	81907.0
-4.270	81905.0
-4.265	81921.0
-4.260	81911.0
-4.255	81908.0
-4.250	81910.0
-4.245	81917.0
-4.240	81891.0
-4.235	81874.1
-4.230	81895.0
-4.225	81913.0
-4.220	81893.0
-4.215	81887.0
-4.210	81872.1
-4.205	81880.1
-4.200	81886.1
-4.195	81900.0
-4.190	81881.0
-4.185	81887.0
-4.180	81889.0
-4.175	81886.0
-4.170	81844.0
-4.165	81849.0
-4.160	81865.0
-4.155	81884.9
-4.150	81867.9
-4.145	81847.9
-4.140	81831.8
-4.135	81836.7
-4.130	81831.5
-4.125	81809.3
-4.120	81772.1
-4.115	81737.8
-4.110	81692.4
-4.105	81598.0
-4.100	81519.6
-4.095	81478.1
-4.090	81427.5
-4.085	81364.9
-4.080	81288.3
-4.075	81233.7
-4.070	81163.1
-4.065	81116.5
-4.060	81058.9
-4.055	80997.5
-4.050	81012.2
-4.045	81067.0
-4.040	81100.0
-4.035	81130.2
-4.030	81200.6
-4.025	81295.0
-4.020	81358.4
-4.015	81416.7
-4.010	81529.0
-4.005	81598.2
-4.000	81605.5
-3.995	81663.7
-3.990	81677.9
-3.985	81663.0
-3.980	81676.2
-3.975	81677.3
-3.970	81636.5
-3.965	81668.6
-3.960	81711.6
-3.955	81713.7
-3.950	81695.8
-3.945	81712.9
-3.940	81684.0
-3.935	81686.1
-3.930	81673.2
-3.925	81653.2
-3.920	81650.3
-3.915	81672.3
-3.910	81646.4
-3.905	81580.5
-3.900	81574.5
-3.895	81617.6
-3.890	81620.6
-3.885	81600.7
-3.880	81598.7
-3.875	81620.7
-3.870	81627.8
-3.865	81603.8
-3.860	81579.9
-3.855	81579.9
-3.850	81620.9
-3.845	81646.0
-3.840	81621.0
-3.835	81573.1
-3.830	81566.1
-3.825	81578.2
-3.820	81580.2
-3.815	81590.2
-3.810	81602.2
-3.805	81611.2
-3.800	81621.3
-3.795	81633.3
-3.790	81652.3
-3.785	81653.3
-3.780	81645.3
-3.775	81642.4
-3.770	81609.4
-3.765	81620.4
-3.760	81654.4
-3.755	81664.5
-3.750	81661.5
-3.745	81662.5
-3.740	81649.5
-3.735	81663.5
-3.730	81658.6
-3.725	81670.6
-3.720	81671.6
-3.715	81678.6
-3.710	81669.6
-3.705	81640.7
-3.700	81618.7
-3.695	81617.7
-3.690	81629.7
-3.685	81636.7
-3.680	81640.7
-3.675	81643.8
-3.670	81646.8
-3.665	81648.8
-3.660	81632.8
-3.655	81627.8
-3.650	81610.9
-3.645	81617.9
-3.640	81592.9
-3.635	81566.9
-3.630	81559.9
-3.625	81575.9
-3.620	81568.0
-3.615	81561.0
-3.610	81543.0
-3.605	81533.0
-3.600	81532.1
-3.595	81530.1
-3.590	81547.1
-3.585	81555.1
-3.580	81548.1
-3.575	81520.2
-3.570	81460.2
-3.565	81462.3
-3.560	81481.3
-3.555	81507.3
-3.550	81518.4
-3.545	81568.4
-3.540	81634.4
-3.535	81710.4
-3.530	81765.4
-3.525	81799.4
-3.520	81805.5
-3.515	81800.6
-3.510	81783.6
-3.505	81725.8
-3.500	81681.9
-3.495	81699.9
-3.490	81733.0
-3.485	81746.0
-3.480	81744.1
-3.475	81766.1
-3.470	81770.1
-3.465	81791.2
-3.460	81801.2
-3.455	81806.2
-3.450	81810.2
-3.445	81824.2
-3.440	81793.2
-3.435	81775.2
-3.430	81793.2
-3.425	81818.2
-3.420	81815.2
-3.415	81843.2
-3.410	81868.2
-3.405	81859.3
-3.400	81783.4
-3.395	81729.5
-3.390	81741.5
-3.385	81824.5
-3.380	81901.5
-3.375	81908.6
-3.370	81837.8
-3.365	81794.9
-3.360	81795.1
-3.355	81844.1
-3.350	81889.2
-3.345	81889.3
-3.340	81869.4
-3.335	81828.5
-3.330	81807.5
-3.325	81806.4
-3.320	81803.4
-3.315	81806.3
-3.310	81810.2
-3.305	81790.2
-3.300	81780.2
-3.295	81800.2
-3.290	81812.1
-3.285	81810.1
-3.280	81810.1
-3.275	81808.1
-3.270	81790.1
-3.265	81800.1
-3.260	81817.1
-3.255	81837.1
-3.250	81838.1
-3.245	81840.1
-3.240	81801.1
-3.235	81796.1
-3.230	81801.1
-3.225	81825.1
-3.220	81815.1
-3.215	81798.1
-3.210	81776.2
-3.205	81776.2
-3.200	81789.2
-3.195	81808.2
-3.190	81808.2
-3.185	81819.2
-3.180	81819.2
-3.175	81799.2
-3.170	81764.3
-3.165	81770.3
-3.160	81776.3
-3.155	81784.3
-3.150	81771.3
-3.145	81776.3
-3.140	81769.3
-3.135	81778.3
-3.130	81772.4
-3.125	81780.3
-3.120	81794.3
-3.115	81782.4
-3.110	81770.4
-3.105	81732.4
-3.100	81741.4
-3.095	81750.4
-3.090	81766.4
-3.085	81770.4
-3.080	81769.4
-3.075	81772.4
-3.070	81769.4
-3.065	81771.4
-3.060	81765.5
-3.055	81767.5
-3.050	81764.5
-3.045	81773.5
-3.040	81758.5
-3.035	81748.5
-3.030	81754.5
-3.025	81787.5
-3.020	81783.5
-3.015	81776.5
-3.010	81763.5
-3.005	81765.5
-3.000	81757.6
-2.995	81778.6
-2.990	81793.6
-2.985	81820.5
-2.980	81828.6
-2.975	81809.6
-2.970	81758.6
-2.965	81763.6
-2.960	81757.6
-2.955	81743.7
-2.950	81739.7
-2.945	81752.7
-2.940	81751.7
-2.935	81748.7
-2.930	81706.7
-2.925	81688.8
-2.920	81671.8
-2.915	81673.8
-2.910	81666.8
-2.905	81634.8
-2.900	81634.8
-2.895	81646.8
-2.890	81653.8
-2.885	81640.9
-2.880	81635.9
-2.875	81639.9
-2.870	81657.9
-2.865	81688.9
-2.860	81694.9
-2.855	81703.9
-2.850	81724.9
-2.845	81777.9
-2.840	81772.9
-2.835	81750.9
-2.830	81752.9
-2.825	81766.9
-2.820	81776.9
-2.815	81784.9
-2.810	81781.9
-2.805	81802.9
-2.800	81805.9
-2.795	81800.9
-2.790	81811.8
-2.785	81843.8
-2.780	81867.8
-2.775	81854.8
-2.770	81816.8
-2.765	81825.8
-2.760	81824.8
-2.755	81807.9
-2.750	81776.9
-2.745	81785.9
-2.740	81804.9
-2.735	81838.9
-2.730	81868.9
-2.725	81891.9
-2.720	81885.9
-2.715	81868.9
-2.710	81849.0
-2.705	81783.0
-2.700	81770.0
-2.695	81802.0
-2.690	81828.0
-2.685	81841.0
-2.680	81835.0
-2.675	81817.0
-2.670	81810.0
-2.665	81806.0
-2.660	81779.1
-2.655	81778.1
-2.650	81770.1
-2.645	81803.1
-2.640	81786.1
-2.635	81787.1
-2.630	81798.1
-2.625	81800.1
-2.620	81778.1
-2.615	81760.2
-2.610	81751.2
-2.605	81747.2
-2.600	81781.1
-2.595	81818.1
-2.590	81827.1
-2.585	81827.1
-2.580	81803.2
-2.575	81767.2
-2.570	81743.2
-2.565	81789.2
-2.560	81816.1
-2.555	81817.1
-2.550	81810.1
-2.545	81825.1
-2.540	81838.1
-2.535	81827.2
-2.530	81813.2
-2.525	81795.2
-2.520	81796.2
-2.515	81803.2
-2.510	81790.2
-2.505	81753.2
-2.500	81756.2
-2.495	81767.2
-2.490	81798.2
-2.485	81811.2
-2.480	81820.2
-2.475	81813.2
-2.470	81806.2
-2.465	81825.2
-2.460	81825.2
-2.455	81834.2
-2.450	81838.2
-2.445	81829.2
-2.440	81798.2
-2.435	81789.2
-2.430	81817.2
-2.425	81819.2
-2.420	81818.2
-2.415	81815.2
-2.410	81810.2
-2.405	81798.3
-2.400	81795.3
-2.395	81790.3
-2.390	81785.3
-2.385	81784.3
-2.380	81783.3
-2.375	81761.3
-2.370	81761.3
-2.365	81793.3
-2.360	81817.3
-2.355	81812.3
-2.350	81805.3
-2.345	81805.3
-2.340	81798.3
-2.335	81788.3
-2.330	81770.4
-2.325	81775.4
-2.320	81774.4
-2.315	81774.4
-2.310	81752.4
-2.305	81719.4
-2.300	81711.4
-2.295	81741.4
-2.290	81755.4
-2.285	81785.3
-2.280	81781.3
-2.275	81787.3
-2.270	81782.3
-2.265	81787.3
-2.260	81785.3
-2.255	81793.3
-2.250	81783.3
-2.245	81789.3
-2.240	81769.3
-2.235	81763.3
-2.230	81792.3
-2.225	81839.2
-2.220	81848.2
-2.215	81848.2
-2.210	81837.3
-2.205	81833.3
-2.200	81824.3
-2.195	81848.3
-2.190	81850.3
-2.185	81843.3
-2.180	81822.3
-2.175	81783.3
-2.170	81777.3
-2.165	81798.3
-2.160	81829.3
-2.155	81820.3
-2.150	81811.3
-2.145	81796.3
-2.140	81783.3
-2.135	81795.3
-2.130	81799.3
-2.125	81801.3
-2.120	81804.3
-2.115	81822.3
-2.110	81821.3
-2.105	81818.3
-2.100	81836.3
-2.095	81873.3
-2.090	81877.3
-2.085	81892.3
-2.080	81889.3
-2.075	81882.3
-2.070	81873.3
-2.065	81865.3
-2.060	81866.3
-2.055	81878.3
-2.050	81862.3
-2.045	81857.3
-2.040	81806.4
-2.035	81799.4
-2.030	81819.3
-2.025	81860.3
-2.020	81859.3
-2.015	81838.3
-2.010	81838.3
-2.005	81846.3
-2.000	81843.3
-1.995	81856.3
-1.990	81854.3
-1.985	81858.3
-1.980	81859.3
-1.975	81852.3
-1.970	81826.3
-1.965	81819.3
-1.960	81853.3
-1.955	81846.3
-1.950	81848.3
-1.945	81850.2
-1.940	81841.2
-1.935	81834.3
-1.930	81837.2
-1.925	81840.2
-1.920	81842.2
-1.915	81854.2
-1.910	81853.2
-1.905	81829.2
-1.900	81847.2
-1.895	81867.2
-1.890	81860.2
-1.885	81858.2
-1.880	81851.2
-1.875	81850.2
-1.870	81852.2
-1.865	81863.2
-1.860	81861.2
-1.855	81872.2
-1.850	81863.2
-1.845	81874.2
-1.840	81843.2
-1.835	81839.2
-1.830	81838.2
-1.825	81873.2
-1.820	81886.2
-1.815	81880.2
-1.810	81873.2
-1.805	81878.2
-1.800	81867.2
-1.795	81862.2
-1.790	81849.2
-1.785	81857.2
-1.780	81866.2
-1.775	81850.2
-1.770	81826.2
-1.765	81837.2
-1.760	81854.2
-1.755	81848.2
-1.750	81840.2
-1.745	81844.2
-1.740	81854.1
-1.735	81864.1
-1.730	81861.1
-1.725	81879.1
-1.720	81884.1
-1.715	81887.1
-1.710	81876.1
-1.705	81834.1
-1.700	81828.1
-1.695	81868.1
-1.690	81889.1
-1.685	81887.1
-1.680	81886.1
-1.675	81909.0
-1.670	81920.0
-1.665	81936.0
-1.660	81951.0
-1.655	81947.0
-1.650	81934.0
-1.645	81934.1
-1.640	81894.1
-1.635	81892.1
-1.630	81911.1
-1.625	81922.1
-1.620	81922.1
-1.615	81929.1
-1.610	81911.1
-1.605	81915.1
-1.600	81924.1
-1.595	81934.1
-1.590	81938.0
-1.585	81945.0
-1.580	81949.0
-1.575	81923.0
-1.570	81909.0
-1.565	81930.0
-1.560	81948.0
-1.555	81955.0
-1.550	81949.0
-1.545	81947.0
-1.540	81938.0
-1.535	81950.0
-1.530	81943.0
-1.525	81944.0
-1.520	81944.0
-1.515	81943.0
-1.510	81937.0
-1.505	81917.0
-1.500	81935.9
-1.495	81967.9
-1.490	81965.9
-1.485	81955.9
-1.480	81954.9
-1.475	81961.9
-1.470	81951.8
-1.465	81953.8
-1.460	81956.8
-1.455	81961.8
-1.450	81947.8
-1.445	81953.8
-1.440	81920.8
-1.435	81923.8
-1.430	81946.8
-1.425	81976.8
-1.420	81979.8
-1.415	81990.8
-1.410	81979.8
-1.405	81980.8
-1.400	81978.8
-1.395	81985.8
-1.390	81980.8
-1.385	81985.8
-1.380	81990.8
-1.375	81971.8
-1.370	81946.8
-1.365	81980.7
-1.360	81992.7
-1.355	81991.7
-1.350	81982.7
-1.345	81978.7
-1.340	81973.7
-1.335	81984.7
-1.330	81969.7
-1.325	81976.7
-1.320	81981.7
-1.315	81987.7
-1.310	81986.7
-1.305	81962.7
-1.300	81971.7
-1.295	81998.7
-1.290	82001.7
-1.285	82005.7
-1.280	82001.6
-1.275	82009.6
-1.270	82007.6
-1.265	82006.6
-1.260	82013.6
-1.255	82014.6
-1.250	82005.6
-1.245	82011.6
-1.240	81976.6
-1.235	81977.6
-1.230	81995.5
-1.225	82021.5
-1.220	82006.5
-1.215	81996.5
-1.210	81993.6
-1.205	81998.6
-1.200	82006.6
-1.195	82012.6
-1.190	82013.6
-1.185	82012.6
-1.180	82018.6
-1.175	81995.6
-1.170	81975.6
-1.165	81982.6
-1.160	82000.6
-1.155	81988.6
-1.150	81986.6
-1.145	81989.6
-1.140	81990.6
-1.135	81996.6
-1.130	81981.6
-1.125	81997.5
-1.120	81989.5
-1.115	81986.5
-1.110	81961.5
-1.105	81942.5
-1.100	81941.5
-1.095	81959.5
-1.090	81949.5
-1.085	81939.5
-1.080	81921.5
-1.075	81920.5
-1.070	81911.5
-1.065	81921.5
-1.060	81912.5
-1.055	81910.5
-1.050	81902.5
-1.045	81898.5
-1.040	81870.5
-1.035	81866.5
-1.030	81901.4
-1.025	81924.4
-1.020	81921.4
-1.015	81922.4
-1.010	81920.4
-1.005	81916.4
-1.000	81908.4
-0.995	81906.4
-0.990	81890.4
-0.985	81893.4
-0.980	81889.4
-0.975	81857.4
-0.970	81846.4
-0.965	81869.4
-0.960	81884.4
-0.955	81885.4
-0.950	81878.4
-0.945	81891.4
-0.940	81886.4
-0.935	81891.3
-0.930	81892.3
-0.925	81909.3
-0.920	81888.3
-0.915	81874.3
-0.910	81847.4
-0.905	81830.4
-0.900	81824.4
-0.895	81837.4
-0.890	81831.4
-0.885	81821.4
-0.880	81818.4
-0.875	81817.4
-0.870	81807.4
-0.865	81807.4
-0.860	81800.4
-0.855	81790.4
-0.850	81778.4
-0.845	81792.4
-0.840	81758.4
-0.835	81766.4
-0.830	81780.4
-0.825	81785.4
-0.820	81786.4
-0.815	81777.4
-0.810	81784.4
-0.805	81781.3
-0.800	81783.3
-0.795	81772.3
-0.790	81767.3
-0.785	81759.3
-0.780	81752.3
-0.775	81721.3
-0.770	81695.3
-0.765	81698.3
-0.760	81712.2
-0.755	81704.2
-0.750	81690.2
-0.745	81684.2
-0.740	81681.2
-0.735	81679.2
-0.730	81665.2
-0.725	81669.2
-0.720	81660.2
-0.715	81671.2
-0.710	81654.2
-0.705	81644.2
-0.700	81670.2
-0.695	81697.1
-0.690	81692.1
-0.685	81682.1
-0.680	81665.2
-0.675	81667.2
-0.670	81662.2
-0.665	81675.2
-0.660	81683.2
-0.655	81680.2
-0.650	81686.1
-0.645	81696.1
-0.640	81670.2
-0.635	81672.2
-0.630	81695.1
-0.625	81701.1
-0.620	81702.1
-0.615	81702.1
-0.610	81698.1
-0.605	81703.1
-0.600	81688.1
-0.595	81688.1
-0.590	81685.1
-0.585	81671.1
-0.580	81660.1
-0.575	81627.1
-0.570	81623.1
-0.565	81639.1
-0.560	81654.1
-0.555	81645.1
-0.550	81619.1
-0.545	81603.1
-0.540	81595.1
-0.535	81602.1
-0.530	81602.1
-0.525	81613.0
-0.520	81611.0
-0.515	81620.0
-0.510	81588.0
-0.505	81590.0
-0.500	81591.0
-0.495	81613.0
-0.490	81613.0
-0.485	81633.0
-0.480	81633.0
-0.475	81646.9
-0.470	81645.9
-0.465	81658.9
-0.460	81651.9
-0.455	81641.9
-0.450	81627.9
-0.445	81642.9
-0.440	81613.9
-0.435	81659.9
-0.430	81691.8
-0.425	81687.8
-0.420	81666.9
-0.415	81661.9
-0.410	81663.8
-0.405	81680.8
-0.400	81678.8
-0.395	81683.8
-0.390	81669.8
-0.385	81683.8
-0.380	81690.8
-0.375	81681.8
-0.370	81681.8
-0.365	81698.8
-0.360	81714.8
-0.355	81722.7
-0.350	81730.7
-0.345	81749.7
-0.340	81754.7
-0.335	81760.7
-0.330	81763.7
-0.325	81761.7
-0.320	81745.7
-0.315	81745.7
-0.310	81739.7
-0.305	81709.7
-0.300	81713.7
-0.295	81724.7
-0.290	81704.7
-0.285	81695.7
-0.280	81693.6
-0.275	81720.6
-0.270	81733.6
-0.265	81747.6
-0.260	81755.6
-0.255	81775.6
-0.250	81766.6
-0.245	81758.6
-0.240	81709.6
-0.235	81710.6
-0.230	81728.6
-0.225	81734.5
-0.220	81718.5
-0.215	81709.5
-0.210	81686.5
-0.205	81679.5
-0.200	81678.5
-0.195	81711.5
-0.190	81731.5
-0.185	81748.5
-0.180	81719.5
-0.175	81700.5
-0.170	81697.5
-0.165	81705.5
-0.160	81711.4
-0.155	81700.4
-0.150	81679.5
-0.145	81667.5
-0.140	81674.4
-0.135	81694.4
-0.130	81701.4
-0.125	81714.4
-0.120	81719.4
-0.115	81726.4
-0.110	81700.4
-0.105	81684.4
-0.100	81690.4
-0.095	81717.4
-0.090	81727.4
-0.085	81721.4
-0.080	81696.5
-0.075	81666.5
-0.070	81671.5
-0.065	81701.5
-0.060	81750.5
-0.055	81774.5
-0.050	81768.4
-0.045	81743.4
-0.040	81684.4
-0.035	81685.4
-0.030	81730.3
-0.025	81766.2
-0.020	81751.1
-0.015	81702.0
-0.010	81662.0
-0.005	81668.9
0.000	81632.8
0.005	81556.8
0.010	81527.8
0.015	81597.7
0.020	81683.7
0.025	81676.8
0.030	81662.0
0.035	81724.1
0.040	81761.2
0.045	81721.4
0.050	81699.6
0.055	81760.7
0.060	81803.8
0.065	81774.8
0.070	81718.8
0.075	81660.7
0.080	81626.6
0.085	81626.5
0.090	81632.3
0.095	81659.1
0.100	81718.0
0.105	81760.8
0.110	81752.8
0.115	81722.8
0.120	81686.8
0.125	81650.8
0.130	81627.9
0.135	81647.9
0.140	81701.9
0.145	81720.0
0.150	81717.0
0.155	81709.0
0.160	81682.0
0.165	81672.0
0.170	81660.0
0.175	81642.1
0.180	81649.0
0.185	81676.0
0.190	81688.0
0.195	81704.0
0.200	81707.0
0.205	81728.9
0.210	81744.9
0.215	81755.9
0.220	81754.9
0.225	81723.9
0.230	81722.9
0.235	81737.9
0.240	81725.9
0.245	81710.9
0.250	81690.9
0.255	81681.9
0.260	81654.9
0.265	81622.9
0.270	81601.9
0.275	81596.9
0.280	81606.9
0.285	81626.9
0.290	81660.8
0.295	81691.8
0.300	81703.8
0.305	81708.8
0.310	81681.8
0.315	81669.8
0.320	81655.8
0.325	81667.8
0.330	81648.8
0.335	81650.8
0.340	81640.8
0.345	81667.7
0.350	81660.7
0.355	81647.7
0.360	81620.8
0.365	81625.7
0.370	81651.7
0.375	81660.7
0.380	81649.7
0.385	81642.7
0.390	81639.7
0.395	81615.7
0.400	81610.7
0.405	81597.7
0.410	81596.7
0.415	81612.7
0.420	81624.7
0.425	81601.7
0.430	81582.7
0.435	81614.7
0.440	81641.6
0.445	81647.6
0.450	81645.6
0.455	81649.6
0.460	81660.6
0.465	81686.6
0.470	81701.6
0.475	81718.6
0.480	81701.6
0.485	81685.6
0.490	81662.6
0.495	81668.6
0.500	81679.6
0.505	81706.5
0.510	81715.5
0.515	81735.5
0.520	81720.5
0.525	81730.5
0.530	81716.5
0.535	81742.5
0.540	81759.5
0.545	81767.5
0.550	81767.5
0.555	81761.5
0.560	81735.5
0.565	81737.5
0.570	81755.4
0.575	81761.4
0.580	81751.4
0.585	81726.4
0.590	81715.4
0.595	81707.4
0.600	81696.4
0.605	81681.4
0.610	81664.4
0.615	81673.4
0.620	81678.4
0.625	81660.4
0.630	81680.3
0.635	81696.3
0.640	81703.3
0.645	81692.3
0.650	81686.3
0.655	81688.3
0.660	81694.2
0.665	81700.2
0.670	81680.2
0.675	81675.2
0.680	81668.2
0.685	81673.2
0.690	81642.2
0.695	81620.2
0.700	81612.2
0.705	81645.2
0.710	81642.2
0.715	81635.2
0.720	81612.2
0.725	81614.2
0.730	81609.2
0.735	81627.2
0.740	81626.2
0.745	81634.2
0.750	81617.3
0.755	81597.3
0.760	81571.3
0.765	81583.3
0.770	81592.3
0.775	81590.3
0.780	81590.3
0.785	81609.3
0.790	81604.3
0.795	81594.3
0.800	81579.3
0.805	81572.3
0.810	81568.2
0.815	81567.2
0.820	81581.2
0.825	81571.2
0.830	81592.2
0.835	81630.1
0.840	81642.1
0.845	81606.1
0.850	81581.2
0.855	81582.1
0.860	81583.1
0.865	81575.1
0.870	81564.1
0.875	81565.1
0.880	81552.1
0.885	81550.1
0.890	81531.1
0.895	81514.1
0.900	81534.1
0.905	81534.1
0.910	81520.1
0.915	81512.1
0.920	81517.1
0.925	81523.1
0.930	81518.1
0.935	81531.1
0.940	81537.1
0.945	81551.0
0.950	81555.0
0.955	81538.0
0.960	81506.0
0.965	81511.0
0.970	81533.0
0.975	81534.0
0.980	81533.0
0.985	81533.0
0.990	81531.0
0.995	81546.9
1.000	81549.9
1.005	81552.9
1.010	81555.9
1.015	81573.9
1.020	81587.9
1.025	81570.9
1.030	81584.8
1.035	81620.8
1.040	81619.8
1.045	81617.8
1.050	81604.8
1.055	81604.8
1.060	81592.8
1.065	81590.8
1.070	81582.8
1.075	81602.8
1.080	81616.8
1.085	81623.8
1.090	81591.8
1.095	81573.8
1.100	81566.9
1.105	81577.8
1.110	81583.8
1.115	81609.8
1.120	81623.8
1.125	81650.8
1.130	81659.8
1.135	81672.8
1.140	81658.8
1.145	81654.7
1.150	81642.7
1.155	81615.7
1.160	81594.7
1.165	81598.7
1.170	81607.7
1.175	81604.7
1.180	81601.7
1.185	81609.7
1.190	81609.7
1.195	81632.7
1.200	81635.7
1.205	81639.7
1.210	81633.7
1.215	81631.7
1.220	81629.7
1.225	81602.7
1.230	81617.7
1.235	81624.6
1.240	81637.6
1.245	81628.6
1.250	81627.6
1.255	81617.6
1.260	81621.6
1.265	81624.6
1.270	81622.6
1.275	81645.6
1.280	81636.6
1.285	81648.6
1.290	81632.6
1.295	81639.6
1.300	81662.6
1.305	81677.5
1.310	81669.5
1.315	81661.5
1.320	81660.5
1.325	81657.5
1.330	81656.5
1.335	81647.5
1.340	81635.5
1.345	81623.5
1.350	81606.5
1.355	81584.6
1.360	81560.6
1.365	81570.6
1.370	81605.6
1.375	81615.6
1.380	81614.6
1.385	81628.6
1.390	81630.6
1.395	81653.5
1.400	81660.5
1.405	81660.5
1.410	81663.5
1.415	81673.5
1.420	81666.5
1.425	81635.5
1.430	81629.5
1.435	81646.5
1.440	81647.5
1.445	81651.4
1.450	81629.5
1.455	81628.5
1.460	81624.5
1.465	81627.5
1.470	81613.5
1.475	81620.5
1.480	81611.5
1.485	81630.4
1.490	81604.5
1.495	81613.4
1.500	81636.4
1.505	81674.4
1.510	81682.3
1.515	81677.3
1.520	81670.3
1.525	81668.3
1.530	81668.3
1.535	81668.3
1.540	81673.3
1.545	81690.2
1.550	81686.2
1.555	81684.2
1.560	81655.2
1.565	81671.2
1.570	81677.2
1.575	81675.2
1.580	81663.2
1.585	81663.2
1.590	81659.2
1.595	81662.2
1.600	81660.2
1.605	81663.2
1.610	81659.3
1.615	81653.3
1.620	81652.3
1.625	81629.3
1.630	81626.3
1.635	81647.3
1.640	81637.3
1.645	81653.2
1.650	81648.2
1.655	81643.2
1.660	81631.2
1.665	81634.3
1.670	81627.3
1.675	81631.3
1.680	81620.3
1.685	81634.3
1.690	81607.3
1.695	81605.3
1.700	81611.3
1.705	81616.3
1.710	81605.3
1.715	81604.3
1.720	81615.3
1.725	81633.2
1.730	81630.2
1.735	81643.2
1.740	81640.2
1.745	81662.2
1.750	81678.1
1.755	81655.1
1.760	81622.2
1.765	81606.2
1.770	81622.2
1.775	81644.1
1.780	81635.1
1.785	81607.2
1.790	81578.2
1.795	81582.2
1.800	81603.2
1.805	81620.2
1.810	81639.2
1.815	81648.2
1.820	81632.2
1.825	81607.2
1.830	81620.2
1.835	81644.2
1.840	81629.2
1.845	81622.2
1.850	81610.2
1.855	81600.2
1.860	81575.2
1.865	81570.2
1.870	81566.2
1.875	81574.2
1.880	81588.2
1.885	81602.2
1.890	81552.2
1.895	81559.2
1.900	81560.2
1.905	81563.2
1.910	81551.2
1.915	81548.2
1.920	81525.2
1.925	81517.2
1.930	81501.2
1.935	81526.2
1.940	81536.2
1.945	81550.1
1.950	81544.1
1.955	81508.2
1.960	81503.2
1.965	81526.2
1.970	81536.2
1.975	81526.2
1.980	81512.2
1.985	81514.2
1.990	81540.2
1.995	81548.2
2.000	81547.2
2.005	81556.2
2.010	81552.2
2.015	81543.2
2.020	81526.2
2.025	81502.2
2.030	81488.2
2.035	81479.2
2.040	81482.2
2.045	81509.2
2.050	81520.2
2.055	81540.2
2.060	81537.2
2.065	81522.2
2.070	81522.1
2.075	81545.1
2.080	81550.1
2.085	81547.1
2.090	81484.1
2.095	81480.1
2.100	81504.1
2.105	81539.1
2.110	81542.1
2.115	81516.1
2.120	81476.2
2.125	81456.2
2.130	81425.2
2.135	81439.2
2.140	81442.2
2.145	81466.3
2.150	81472.3
2.155	81448.3
2.160	81438.3
2.165	81457.3
2.170	81482.3
2.175	81485.3
2.180	81464.3
2.185	81466.3
2.190	81466.3
2.195	81494.2
2.200	81499.2
2.205	81501.2
2.210	81476.2
2.215	81477.2
2.220	81469.2
2.225	81445.2
2.230	81451.2
2.235	81455.2
2.240	81445.2
2.245	81433.2
2.250	81444.2
2.255	81454.2
2.260	81435.2
2.265	81440.2
2.270	81424.3
2.275	81411.3
2.280	81429.3
2.285	81429.3
2.290	81400.3
2.295	81401.3
2.300	81439.3
2.305	81482.2
2.310	81484.2
2.315	81472.2
2.320	81445.2
2.325	81449.2
2.330	81464.2
2.335	81476.2
2.340	81484.2
2.345	81481.2
2.350	81466.2
2.355	81447.2
2.360	81437.2
2.365	81461.2
2.370	81484.2
2.375	81477.2
2.380	81467.2
2.385	81463.2
2.390	81457.2
2.395	81479.2
2.400	81461.2
2.405	81444.2
2.410	81422.3
2.415	81417.3
2.420	81400.3
2.425	81398.3
2.430	81421.3
2.435	81474.3
2.440	81489.3
2.445	81478.3
2.450	81471.3
2.455	81483.3
2.460	81473.3
2.465	81488.3
2.470	81501.3
2.475	81516.3
2.480	81508.3
2.485	81507.3
2.490	81467.3
2.495	81457.3
2.500	81466.3
2.505	81494.3
2.510	81488.3
2.515	81466.3
2.520	81419.3
2.525	81392.4
2.530	81397.4
2.535	81426.4
2.540	81437.4
2.545	81442.4
2.550	81454.4
2.555	81446.4
2.560	81420.4
2.565	81416.4
2.570	81426.4
2.575	81422.4
2.580	81432.4
2.585	81435.4
2.590	81460.4
2.595	81479.4
2.600	81480.4
2.605	81489.4
2.610	81481.4
2.615	81492.4
2.620	81482.4
2.625	81459.4
2.630	81463.4
2.635	81473.4
2.640	81450.4
2.645	81451.4
2.650	81453.4
2.655	81462.4
2.660	81460.4
2.665	81453.4
2.670	81469.4
2.675	81471.4
2.680	81458.5
2.685	81442.5
2.690	81400.5
2.695	81384.5
2.700	81410.5
2.705	81435.5
2.710	81468.5
2.715	81511.5
2.720	81539.5
2.725	81537.5
2.730	81509.5
2.735	81499.5
2.740	81480.6
2.745	81442.6
2.750	81406.6
2.755	81391.7
2.760	81409.7
2.765	81460.6
2.770	81487.6
2.775	81486.6
2.780	81482.7
2.785	81476.7
2.790	81456.7
2.795	81440.7
2.800	81436.7
2.805	81463.7
2.810	81480.7
2.815	81521.6
2.820	81512.7
2.825	81519.7
2.830	81515.7
2.835	81526.7
2.840	81520.7
2.845	81507.7
2.850	81495.7
2.855	81493.7
2.860	81497.7
2.865	81509.7
2.870	81523.7
2.875	81541.7
2.880	81526.7
2.885	81503.7
2.890	81453.8
2.895	81486.7
2.900	81529.7
2.905	81564.7
2.910	81552.7
2.915	81555.7
2.920	81557.8
2.925	81558.8
2.930	81538.8
2.935	81547.8
2.940	81555.8
2.945	81561.8
2.950	81539.8
2.955	81507.9
2.960	81517.9
2.965	81554.8
2.970	81591.8
2.975	81588.8
2.980	81582.9
2.985	81586.9
2.990	81598.9
2.995	81604.9
3.000	81599.9
3.005	81582.9
3.010	81568.9
3.015	81567.9
3.020	81560.9
3.025	81560.9
3.030	81572.9
3.035	81604.9
3.040	81596.0
3.045	81594.0
3.050	81583.0
3.055	81600.0
3.060	81601.0
3.065	81599.0
3.070	81587.0
3.075	81602.0
3.080	81611.0
3.085	81621.0
3.090	81603.0
3.095	81612.0
3.100	81642.0
3.105	81652.0
3.110	81635.0
3.115	81633.0
3.120	81615.1
3.125	81610.1
3.130	81619.1
3.135	81633.1
3.140	81630.1
3.145	81641.1
3.150	81637.1
3.155	81609.1
3.160	81607.1
3.165	81634.1
3.170	81651.1
3.175	81657.1
3.180	81642.2
3.185	81621.2
3.190	81610.2
3.195	81608.2
3.200	81621.2
3.205	81632.2
3.210	81656.2
3.215	81677.2
3.220	81664.2
3.225	81656.2
3.230	81645.3
3.235	81654.3
3.240	81631.3
3.245	81633.3
3.250	81637.3
3.255	81641.3
3.260	81653.3
3.265	81662.3
3.270	81660.3
3.275	81649.3
3.280	81652.3
3.285	81632.3
3.290	81579.3
3.295	81597.3
3.300	81631.3
3.305	81658.2
3.310	81678.2
3.315	81678.1
3.320	81657.1
3.325	81662.1
3.330	81679.1
3.335	81695.0
3.340	81661.0
3.345	81547.1
3.350	81436.2
3.355	81345.3
3.360	81393.3
3.365	81509.3
3.370	81591.3
3.375	81597.4
3.380	81608.5
3.385	81666.5
3.390	81691.6
3.395	81662.8
3.400	81616.9
3.405	81671.0
3.410	81765.1
3.415	81795.1
3.420	81736.2
3.425	81693.2
3.430	81684.2
3.435	81723.2
3.440	81737.1
3.445	81731.1
3.450	81731.1
3.455	81752.1
3.460	81763.1
3.465	81786.1
3.470	81793.1
3.475	81799.1
3.480	81789.2
3.485	81778.2
3.490	81740.3
3.495	81741.4
3.500	81773.4
3.505	81788.5
3.510	81786.5
3.515	81804.6
3.520	81805.6
3.525	81815.7
3.530	81816.8
3.535	81823.8
3.540	81831.9
3.545	81826.0
3.550	81814.0
3.555	81778.1
3.560	81778.2
3.565	81788.2
3.570	81798.3
3.575	81793.3
3.580	81773.3
3.585	81783.4
3.590	81779.4
3.595	81797.4
3.600	81803.4
3.605	81809.4
3.610	81808.5
3.615	81790.5
3.620	81744.5
3.625	81709.6
3.630	81712.6
3.635	81740.6
3.640	81741.6
3.645	81748.6
3.650	81741.6
3.655	81749.6
3.660	81747.6
3.665	81744.7
3.670	81740.7
3.675	81745.7
3.680	81746.7
3.685	81742.7
3.690	81706.8
3.695	81717.8
3.700	81735.8
3.705	81744.8
3.710	81734.8
3.715	81735.8
3.720	81738.8
3.725	81755.8
3.730	81766.8
3.735	81780.9
3.740	81779.9
3.745	81778.9
3.750	81769.9
3.755	81744.0
3.760	81733.0
3.765	81757.0
3.770	81776.0
3.775	81793.0
3.780	81795.0
3.785	81797.1
3.790	81817.1
3.795	81823.1
3.800	81827.1
3.805	81838.1
3.810	81836.2
3.815	81847.2
3.820	81825.2
3.825	81816.3
3.830	81816.3
3.835	81850.3
3.840	81859.3
3.845	81848.4
3.850	81834.4
3.855	81828.5
3.860	81818.5
3.865	81815.6
3.870	81799.6
3.875	81808.6
3.880	81810.7
3.885	81796.7
3.890	81771.8
3.895	81772.9
3.900	81786.9
3.905	81793.9
3.910	81800.0
3.915	81793.0
3.920	81764.1
3.925	81758.2
3.930	81737.3
3.935	81738.3
3.940	81717.4
3.945	81702.5
3.950	81667.6
3.955	81599.7
3.960	81564.8
3.965	81541.0
3.970	81582.1
3.975	81589.2
3.980	81128.6
3.985	80638.1
3.990	80727.3
3.995	81232.1
4.000	81519.1
4.005	81642.3
4.010	81686.5
4.015	81600.9
4.020	81321.4
4.025	81162.8
4.030	81249.0
4.035	81383.1
4.040	81379.3
4.045	81329.5
4.050	81290.5
4.055	81263.5
4.060	81233.4
4.065	81181.3
4.070	81111.0
4.075	81092.6
4.080	81094.1
4.085	81133.4
4.090	81159.5
4.095	81238.6
4.100	81334.7
4.105	81408.8
4.110	81439.1
4.115	81475.6
4.120	81503.2
4.125	81522.9
4.130	81525.8
4.135	81511.7
4.140	81520.6
4.145	81517.6
4.150	81511.5
4.155	81479.5
4.160	81456.5
4.165	81474.5
4.170	81480.5
4.175	81487.4
4.180	81486.4
4.185	81502.4
4.190	81514.4
4.195	81524.4
4.200	81525.4
4.205	81513.4
4.210	81488.4
4.215	81483.4
4.220	81454.4
4.225	81456.4
4.230	81484.4
4.235	81517.4
4.240	81533.4
4.245	81530.4
4.250	81518.4
4.255	81506.4
4.260	81508.4
4.265	81506.4
4.270	81522.4
4.275	81547.4
4.280	81555.3
4.285	81545.3
4.290	81525.4
4.295	81538.3
4.300	81547.3
4.305	81548.3
4.310	81528.3
4.315	81518.3
4.320	81513.3
4.325	81528.3
4.330	81532.3
4.335	81545.3
4.340	81546.3
4.345	81550.3
4.350	81557.3
4.355	81523.3
4.360	81507.3
4.365	81524.3
4.370	81534.3
4.375	81543.3
4.380	81532.3
4.385	81537.3
4.390	81516.3
4.395	81534.3
4.400	81539.3
4.405	81558.2
4.410	81537.3
4.415	81530.3
4.420	81490.3
4.425	81485.3
4.430	81511.3
4.435	81531.2
4.440	81523.2
4.445	81516.2
4.450	81529.2
4.455	81540.2
4.460	81542.2
4.465	81534.2
4.470	81517.2
4.475	81523.2
4.480	81519.2
4.485	81510.2
4.490	81473.2
4.495	81489.2
4.500	81515.2
4.505	81515.2
4.510	81520.2
4.515	81522.2
4.520	81536.1
4.525	81529.2
4.530	81529.2
4.535	81507.2
4.540	81498.2
4.545	81505.2
4.550	81502.1
4.555	81475.2
4.560	81467.2
4.565	81488.1
4.570	81507.1
4.575	81516.1
4.580	81521.1
4.585	81502.1
4.590	81495.1
4.595	81496.1
4.600	81495.1
4.605	81517.1
4.610	81517.1
4.615	81518.1
4.620	81477.1
4.625	81471.1
4.630	81491.1
4.635	81511.1
4.640	81515.1
4.645	81502.1
4.650	81478.1
4.655	81470.1
4.660	81458.1
4.665	81476.0
4.670	81470.0
4.675	81475.0
4.680	81475.0
4.685	81465.0
4.690	81433.0
4.695	81444.0
4.700	81468.0
4.705	81483.0
4.710	81486.0
4.715	81484.0
4.720	81469.0
4.725	81466.0
4.730	81480.0
4.735	81491.9
4.740	81497.9
4.745	81505.9
4.750	81489.9
4.755	81465.9
4.760	81466.9
4.765	81496.9
4.770	81503.9
4.775	81496.9
4.780	81496.9
4.785	81494.9
4.790	81485.9
4.795	81479.9
4.800	81473.8
4.805	81477.8
4.810	81481.8
4.815	81519.8
4.820	81500.8
4.825	81500.8
4.830	81506.8
4.835	81521.7
4.840	81490.8
4.845	81480.8
4.850	81478.7
4.855	81483.7
4.860	81491.7
4.865	81513.7
4.870	81508.7
4.875	81514.7
4.880	81512.7
4.885	81499.7
4.890	81469.7
4.895	81476.7
4.900	81472.7
4.905	81459.7
4.910	81423.7
4.915	81391.7
4.920	81406.7
4.925	81442.7
4.930	81465.6
4.935	81479.6
4.940	81490.6
4.945	81484.6
4.950	81463.6
4.955	81439.6
4.960	81436.6
4.965	81470.5
4.970	81477.5
4.975	81471.5
4.980	81475.5
4.985	81480.4
4.990	81472.4
4.995	81456.4
5.000	81454.4
5.005	81453.4
5.010	81456.4
5.015	81475.4
5.020	81439.4
5.025	81436.3
5.030	81438.3
5.035	81440.3
5.040	81421.3
5.045	81408.3
5.050	81411.3
5.055	81448.2
5.060	81459.2
5.065	81443.2
5.070	81435.2
5.075	81429.1
5.080	81416.1
5.085	81420.1
5.090	81394.1
5.095	81410.1
5.100	81427.0
5.105	81424.0
5.110	81429.0
5.115	81463.9
5.120	81466.9
5.125	81463.9
5.130	81463.9
5.135	81457.8
5.140	81443.8
5.145	81432.8
5.150	81424.8
5.155	81431.7
5.160	81454.7
5.165	81472.6
5.170	81478.6
5.175	81477.5
5.180	81468.5
5.185	81462.4
5.190	81433.4
5.195	81428.4
5.200	81436.3
5.205	81444.3
5.210	81441.2
5.215	81450.1
5.220	81416.1
5.225	81415.0
5.230	81439.9
5.235	81464.9
5.240	81453.8
5.245	81444.7
5.250	81431.7
5.255	81429.6
5.260	81411.5
5.265	81401.4
5.270	81389.3
5.275	81364.2
5.280	81356.1
5.285	81317.0
5.290	81285.8
5.295	81276.6
5.300	81267.4
5.305	81215.2
5.310	81162.0
5.315	81093.8
5.320	81005.6
5.325	80908.4
5.330	80819.2
5.335	80725.1
5.340	80677.1
5.345	80637.0
5.350	80539.1
5.355	80490.3
5.360	80482.4
5.365	80482.7
5.370	80497.1
5.375	80553.6
5.380	80592.1
5.385	80626.6
5.390	80704.4
5.395	80868.2
5.400	81090.0
5.405	81317.6
5.410	81484.9
5.415	81584.2
5.420	81603.3
5.425	81639.4
5.430	81676.4
5.435	81699.4
5.440	81691.4
5.445	81693.4
5.450	81688.4
5.455	81685.4
5.460	81670.4
5.465	81670.4
5.470	81675.4
5.475	81674.4
5.480	81671.4
5.485	81647.4
5.490	81624.4
5.495	81636.4
5.500	81658.4
5.505	81646.4
5.510	81644.4
5.515	81647.4
5.520	81638.4
5.525	81645.4
5.530	81643.4
5.535	81647.4
5.540	81639.4
5.545	81644.4
5.550	81639.4
5.555	81604.4
5.560	81616.4
5.565	81643.4
5.570	81650.4
5.575	81640.4
5.580	81638.4
5.585	81650.4
5.590	81639.4
5.595	81641.4
5.600	81640.4
5.605	81653.4
5.610	81644.4
5.615	81655.4
5.620	81619.4
5.625	81631.4
5.630	81650.4
5.635	81678.4
5.640	81678.4
5.645	81679.4
5.650	81672.4
5.655	81693.4
5.660	81692.5
5.665	81708.5
5.670	81701.5
5.675	81698.5
5.680	81695.5
5.685	81671.5
5.690	81667.6
5.695	81687.5
5.700	81693.5
5.705	81690.5
5.710	81676.6
5.715	81681.5
5.720	81687.5
5.725	81690.5
5.730	81692.5
5.735	81693.5
5.740	81698.5
5.745	81691.5
5.750	81675.5
5.755	81644.5
5.760	81643.5
5.765	81670.4
5.770	81668.4
5.775	81658.4
5.780	81659.4
5.785	81663.4
5.790	81666.4
5.795	81676.4
5.800	81674.4
5.805	81682.4
5.810	81680.4
5.815	81686.4
5.820	81657.4
5.825	81672.4
5.830	81676.4
5.835	81687.4
5.840	81685.4
5.845	81683.4
5.850	81677.4
5.855	81679.4
5.860	81680.4
5.865	81690.4
5.870	81689.4
5.875	81697.4
5.880	81696.4
5.885	81670.4
5.890	81658.4
5.895	81662.4
5.900	81686.4
5.905	81694.4
5.910	81697.4
5.915	81686.4
5.920	81683.4
5.925	81681.4
5.930	81668.4
5.935	81676.4
5.940	81685.4
5.945	81677.4
5.950	81657.4
5.955	81638.4
5.960	81651.4
5.965	81675.4
5.970	81682.4
5.975	81661.4
5.980	81651.4
5.985	81640.5
5.990	81644.4
5.995	81642.5
6.000	81634.5
6.005	81631.5
6.010	81636.5
6.015	81641.5
6.020	81599.5
6.025	81595.5
6.030	81609.5
6.035	81643.5
6.040	81633.5
6.045	81639.5
6.050	81619.5
6.055	81619.5
6.060	81617.5
6.065	81614.5
6.070	81602.5
6.075	81613.5
6.080	81605.5
6.085	81577.5
6.090	81562.5
6.095	81579.5
6.100	81600.5
6.105	81607.5
6.110	81591.5
6.115	81590.5
6.120	81582.5
6.125	81597.5
6.130	81588.5
6.135	81590.5
6.140	81582.5
6.145	81600.5
6.150	81577.5
6.155	81559.5
6.160	81565.5
6.165	81589.5
6.170	81590.5
6.175	81594.5
6.180	81592.5
6.185	81576.5
6.190	81586.5
6.195	81591.5
6.200	81580.5
6.205	81586.5
6.210	81588.5
6.215	81573.5
6.220	81551.5
6.225	81561.5
6.230	81592.5
6.235	81612.5
6.240	81597.5
6.245	81584.5
6.250	81593.5
6.255	81587.5
6.260	81589.5
6.265	81599.5
6.270	81601.5
6.275	81609.5
6.280	81604.5
6.285	81590.5
6.290	81573.5
6.295	81601.5
6.300	81611.5
6.305	81632.5
6.310	81637.5
6.315	81636.5
6.320	81636.5
6.325	81634.5
6.330	81630.5
6.335	81650.5
6.340	81649.5
6.345	81647.5
6.350	81639.5
6.355	81626.5
6.360	81643.5
6.365	81670.5
6.370	81664.5
6.375	81669.5
6.380	81672.5
6.385	81673.4
6.390	81675.5
6.395	81686.4
6.400	81682.4
6.405	81691.4
6.410	81697.4
6.415	81692.4
6.420	81671.5
6.425	81675.5
6.430	81693.4
6.435	81714.4
6.440	81711.4
6.445	81705.4
6.450	81699.4
6.455	81699.4
6.460	81698.4
6.465	81708.4
6.470	81704.4
6.475	81714.4
6.480	81713.4
6.485	81685.4
6.490	81692.4
6.495	81711.4
6.500	81715.4
6.505	81723.4
6.510	81726.4
6.515	81713.4
6.520	81723.4
6.525	81726.4
6.530	81728.4
6.535	81738.4
6.540	81739.4
6.545	81744.4
6.550	81720.4
6.555	81705.4
6.560	81703.4
6.565	81746.4
6.570	81740.4
6.575	81744.4
6.580	81763.4
6.585	81755.4
6.590	81753.4
6.595	81757.4
6.600	81756.4
6.605	81763.4
6.610	81760.4
6.615	81760.4
6.620	81731.4
6.625	81739.4
6.630	81756.4
6.635	81768.4
6.640	81757.4
6.645	81753.4
6.650	81739.4
6.655	81749.4
6.660	81749.4
6.665	81748.4
6.670	81757.4
6.675	81768.4
6.680	81762.4
6.685	81738.4
6.690	81729.4
6.695	81730.4
6.700	81763.4
6.705	81762.4
6.710	81761.4
6.715	81763.4
6.720	81762.4
6.725	81778.4
6.730	81770.4
6.735	81774.4
6.740	81766.4
6.745	81769.4
6.750	81749.4
6.755	81751.4
6.760	81748.4
6.765	81782.4
6.770	81777.4
6.775	81775.4
6.780	81766.4
6.785	81773.4
6.790	81771.4
6.795	81773.4
6.800	81773.4
6.805	81783.4
6.810	81782.4
6.815	81782.4
6.820	81747.4
6.825	81754.4
6.830	81763.4
6.835	81787.4
6.840	81781.4
6.845	81779.4
6.850	81778.4
6.855	81785.4
6.860	81785.4
6.865	81799.4
6.870	81797.4
6.875	81800.4
6.880	81794.4
6.885	81766.4
6.890	81765.4
6.895	81786.4
6.900	81807.4
6.905	81794.4
6.910	81789.4
6.915	81791.4
6.920	81786.4
6.925	81788.4
6.930	81782.4
6.935	81788.4
6.940	81797.4
6.945	81795.4
6.950	81780.4
6.955	81762.4
6.960	81760.4
6.965	81793.4
6.970	81795.4
6.975	81791.4
6.980	81778.4
6.985	81787.4
6.990	81788.4
6.995	81789.4
7.000	81782.4
7.005	81786.4
7.010	81777.4
7.015	81768.4
7.020	81729.5
7.025	81734.5
7.030	81748.4
7.035	81759.4
7.040	81737.5
7.045	81731.5
7.050	81724.5
7.055	81721.5
7.060	81709.5
7.065	81711.5
7.070	81696.5
7.075	81704.5
7.080	81703.5
7.085	81661.5
7.090	81659.5
7.095	81670.5
7.100	81691.5
7.105	81698.5
7.110	81684.5
7.115	81683.5
7.120	81682.5
7.125	81702.5
7.130	81693.5
7.135	81694.5
7.140	81702.5
7.145	81695.5
7.150	81671.5
7.155	81654.5
7.160	81671.5
7.165	81695.5
7.170	81692.5
7.175	81680.5
7.180	81672.5
7.185	81665.5
7.190	81652.5
7.195	81664.5
7.200	81654.5
7.205	81653.5
7.210	81648.5
7.215	81649.5
7.220	81615.6
7.225	81615.6
7.230	81626.6
7.235	81644.6
7.240	81644.6
7.245	81637.6
7.250	81628.6
7.255	81620.6
7.260	81619.6
7.265	81621.6
7.270	81614.6
7.275	81618.6
7.280	81625.6
7.285	81587.6
7.290	81582.6
7.295	81593.6
7.300	81615.6
7.305	81610.6
7.310	81600.6
7.315	81599.6
7.320	81598.6
7.325	81586.6
7.330	81602.6
7.335	81603.6
7.340	81599.6
7.345	81610.6
7.350	81577.6
7.355	81566.6
7.360	81577.6
7.365	81611.6
7.370	81604.6
7.375	81594.6
7.380	81593.6
7.385	81603.6
7.390	81596.6
7.395	81603.6
7.400	81591.6
7.405	81592.6
7.410	81598.6
7.415	81590.6
7.420	81571.6
7.425	81576.6
7.430	81598.6
7.435	81597.6
7.440	81586.6
7.445	81598.6
7.450	81589.6
7.455	81592.6
7.460	81594.6
7.465	81601.6
7.470	81594.6
7.475	81608.6
7.480	81612.6
7.485	81577.6
7.490	81576.6
7.495	81589.6
7.500	81613.6
7.505	81611.6
7.510	81623.6
7.515	81621.6
7.520	81626.6
7.525	81623.6
7.530	81636.6
7.535	81642.6
7.540	81630.6
7.545	81632.6
7.550	81605.6
7.555	81604.6
7.560	81613.6
7.565	81645.6
7.570	81646.6
7.575	81643.6
7.580	81644.6
7.585	81652.6
7.590	81663.6
7.595	81663.6
7.600	81666.6
7.605	81679.6
7.610	81675.6
7.615	81668.6
7.620	81632.6
7.625	81652.6
7.630	81677.6
7.635	81690.6
7.640	81673.6
7.645	81683.6
7.650	81682.6
7.655	81687.6
7.660	81683.6
7.665	81685.6
7.670	81681.6
7.675	81692.6
7.680	81682.6
7.685	81651.6
7.690	81656.6
7.695	81681.6
7.700	81683.6
7.705	81684.6
7.710	81675.6
7.715	81690.6
7.720	81671.6
7.725	81687.6
7.730	81677.6
7.735	81681.6
7.740	81684.6
7.745	81682.6
7.750	81657.6
7.755	81648.6
7.760	81657.6
7.765	81674.6
7.770	81676.6
7.775	81670.6
7.780	81662.6
7.785	81668.6
7.790	81667.6
7.795	81663.6
7.800	81670.6
7.805	81669.6
7.810	81662.6
7.815	81652.6
7.820	81620.7
7.825	81633.7
7.830	81651.6
7.835	81653.6
7.840	81647.6
7.845	81647.6
7.850	81642.7
7.855	81640.7
7.860	81637.7
7.865	81639.7
7.870	81644.7
7.875	81652.6
7.880	81647.7
7.885	81624.7
7.890	81627.7
7.895	81650.7
7.900	81675.6
7.905	81681.6
7.910	81678.6
7.915	81683.6
7.920	81676.6
7.925	81692.6
7.930	81702.6
7.935	81709.6
7.940	81707.6
7.945	81705.6
7.950	81678.7
7.955	81682.6
7.960	81697.6
7.965	81721.6
7.970	81710.6
7.975	81717.6
7.980	81708.6
7.985	81709.6
7.990	81705.6
7.995	81712.6
8.000	81711.6
8.005	81719.6
8.010	81723.6
8.015	81706.6
8.020	81673.7
8.025	81686.7
8.030	81716.6
8.035	81723.6
8.040	81725.6
8.045	81721.6
8.050	81726.6
8.055	81729.6
8.060	81724.6
8.065	81732.6
8.070	81735.6
8.075	81729.6
8.080	81724.6
8.085	81699.7
8.090	81702.7
8.095	81721.7
8.100	81727.6
8.105	81720.7
8.110	81721.7
8.115	81709.7
8.120	81708.7
8.125	81721.7
8.130	81713.7
8.135	81713.7
8.140	81709.7
8.145	81708.7
8.150	81685.7
8.155	81681.7
8.160	81690.7
8.165	81723.7
8.170	81720.7
8.175	81718.7
8.180	81714.7
8.185	81717.7
8.190	81717.7
8.195	81716.7
8.200	81712.7
8.205	81709.7
8.210	81703.7
8.215	81689.7
8.220	81675.7
8.225	81686.7
8.230	81702.7
8.235	81700.7
8.240	81691.7
8.245	81690.7
8.250	81680.7
8.255	81683.7
8.260	81692.7
8.265	81682.7
8.270	81678.7
8.275	81681.7
8.280	81677.7
8.285	81651.8
8.290	81652.8
8.295	81672.8
8.300	81676.8
8.305	81665.8
8.310	81644.8
8.315	81632.8
8.320	81618.8
8.325	81596.8
8.330	81569.8
8.335	81553.9
8.340	81542.9
8.345	81540.9
8.350	81488.9
8.355	81457.9
8.360	81435.0
8.365	81425.0
8.370	81423.0
8.375	81422.0
8.380	81388.0
8.385	81317.1
8.390	81147.2
8.395	80887.4
8.400	80460.7
8.405	79726.3
8.410	78789.0
8.415	77856.7
8.420	77046.3
8.425	76666.6
8.430	76909.4
8.435	77599.9
8.440	78468.2
8.445	79388.5
8.450	80245.9
8.455	80741.5
8.460	80902.4
8.465	80964.4
8.470	80958.4
8.475	80949.4
8.480	80921.4
8.485	80847.5
8.490	80830.5
8.495	80835.5
8.500	80786.5
8.505	80710.6
8.510	80662.6
8.515	80660.6
8.520	80621.6
8.525	80580.7
8.530	80582.7
8.535	80623.6
8.540	80660.6
8.545	80663.6
8.550	80632.6
8.555	80677.6
8.560	80750.6
8.565	80830.5
8.570	80844.5
8.575	80817.5
8.580	80778.5
8.585	80758.6
8.590	80772.6
8.595	80834.5
8.600	80965.4
8.605	81102.3
8.610	81223.2
8.615	81312.2
8.620	81372.1
8.625	81458.1
8.630	81525.0
8.635	81559.0
8.640	81552.0
8.645	81571.0
8.650	81579.0
8.655	81589.0
8.660	81592.0
8.665	81601.0
8.670	81600.0
8.675	81605.0
8.680	81601.0
8.685	81572.0
8.690	81581.0
8.695	81597.0
8.700	81595.0
8.705	81603.0
8.710	81600.0
8.715	81599.0
8.720	81598.0
8.725	81606.0
8.730	81596.0
8.735	81603.0
8.740	81601.1
8.745	81604.1
8.750	81547.1
8.755	81549.1
8.760	81560.1
8.765	81568.1
8.770	81567.1
8.775	81572.1
8.780	81558.1
8.785	81546.1
8.790	81536.1
8.795	81540.1
8.800	81548.1
8.805	81567.1
8.810	81552.1
8.815	81536.2
8.820	81516.2
8.825	81535.2
8.830	81553.2
8.835	81561.2
8.840	81559.2
8.845	81553.2
8.850	81552.2
8.855	81557.2
8.860	81558.2
8.865	81556.2
8.870	81566.2
8.875	81560.2
8.880	81542.2
8.885	81499.3
8.890	81444.3
8.895	81475.3
8.900	81527.3
8.905	81549.3
8.910	81540.3
8.915	81556.3
8.920	81546.3
8.925	81545.3
8.930	81551.3
8.935	81545.3
8.940	81538.3
8.945	81536.3
8.950	81505.3
8.955	81510.3
8.960	81510.4
8.965	81513.4
8.970	81525.4
8.975	81535.4
8.980	81524.4
8.985	81492.4
8.990	81499.4
8.995	81517.4
9.000	81527.4
9.005	81533.4
9.010	81534.4
9.015	81519.4
9.020	81498.5
9.025	81524.5
9.030	81544.4
9.035	81535.5
9.040	81528.5
9.045	81535.5
9.050	81537.5
9.055	81553.5
9.060	81544.5
9.065	81546.5
9.070	81538.5
9.075	81550.5
9.080	81548.6
9.085	81530.6
9.090	81533.6
9.095	81564.6
9.100	81572.6
9.105	81585.6
9.110	81573.6
9.115	81578.6
9.120	81569.6
9.125	81575.6
9.130	81575.7
9.135	81579.7
9.140	81571.7
9.145	81562.7
9.150	81516.8
9.155	81500.8
9.160	81508.8
9.165	81518.8
9.170	81525.8
9.175	81525.9
9.180	81520.9
9.185	81525.9
9.190	81531.9
9.195	81521.9
9.200	81509.0
9.205	81505.0
9.210	81506.0
9.215	81479.1
9.220	81456.1
9.225	81466.1
9.230	81498.1
9.235	81499.2
9.240	81502.2
9.245	81512.2
9.250	81508.3
9.255	81503.3
9.260	81507.3
9.265	81504.4
9.270	81513.4
9.275	81535.4
9.280	81531.5
9.285	81510.5
9.290	81523.6
9.295	81535.6
9.300	81500.7
9.305	81484.7
9.310	81427.8
9.315	81393.9
9.320	81338.0
9.325	81245.1
9.330	81174.3
9.335	81195.3
9.340	81228.5
9.345	81294.6
9.350	81291.8
9.355	81177.0
9.360	81212.2
9.365	81256.5
9.370	80963.9
9.375	80479.5
9.380	80110.0
9.385	80175.2
9.390	80493.1
9.395	80771.1
9.400	80833.1
9.405	80788.2
9.410	80752.1
9.415	80732.0
9.420	80768.7
9.425	80844.4
9.430	80938.9
9.435	81025.3
9.440	81108.6
9.445	81186.8
9.450	81260.0
9.455	81325.3
9.460	81367.9
9.465	81411.6
9.470	81451.4
9.475	81470.3
9.480	81462.2
9.485	81447.2
9.490	81447.2
9.495	81480.2
9.500	81474.2
9.505	81491.2
9.510	81483.2
9.515	81486.2
9.520	81489.2
9.525	81493.2
9.530	81493.2
9.535	81496.2
9.540	81500.2
9.545	81495.2
9.550	81461.2
9.555	81473.2
9.560	81477.2
9.565	81492.2
9.570	81485.2
9.575	81482.2
9.580	81495.2
9.585	81492.2
9.590	81487.2
9.595	81498.2
9.600	81486.2
9.605	81492.2
9.610	81506.2
9.615	81484.2
9.620	81468.2
9.625	81479.2
9.630	81494.2
9.635	81498.2
9.640	81498.2
9.645	81506.2
9.650	81507.2
9.655	81513.1
9.660	81515.1
9.665	81517.1
9.670	81507.1
9.675	81507.1
9.680	81495.2
9.685	81476.2
9.690	81478.2
9.695	81506.1
9.700	81500.2
9.705	81500.2
9.710	81494.2
9.715	81495.2
9.720	81490.2
9.725	81485.2
9.730	81471.2
9.735	81461.2
9.740	81460.2
9.745	81463.2
9.750	81422.2
9.755	81428.2
9.760	81435.2
9.765	81446.2
9.770	81447.2
9.775	81456.2
9.780	81450.2
9.785	81446.2
9.790	81432.2
9.795	81438.2
9.800	81411.2
9.805	81402.2
9.810	81375.2
9.815	81340.3
9.820	81325.3
9.825	81337.3
9.830	81353.3
9.835	81341.3
9.840	81302.3
9.845	81292.3
9.850	81277.3
9.855	81273.3
9.860	81272.3
9.865	81253.3
9.870	81255.3
9.875	81246.3
9.880	81230.4
9.885	81219.4
9.890	81221.4
9.895	81234.3
9.900	81233.4
9.905	81241.3
9.910	81223.4
9.915	81232.4
9.920	81246.3
9.925	81250.3
9.930	81238.3
9.935	81233.3
9.940	81234.4
9.945	81223.4
9.950	81201.4
9.955	81218.4
9.960	81252.3
9.965	81259.3
9.970	81275.3
9.975	81287.3
9.980	81279.3
9.985	81283.3
9.990	81273.3
9.995	81271.3
10.000	81266.3
10.005	81272.3
10.010	81263.3
10.015	81248.3
10.020	81246.3
10.025	81272.3
10.030	81285.3
10.035	81300.3
10.040	81294.3
10.045	81297.3
10.050	81293.3
10.055	81309.3
10.060	81309.3
10.065	81312.3
10.070	81301.3
10.075	81301.3
10.080	81281.3
10.085	81264.3
10.090	81276.3
10.095	81294.3
10.100	81288.3
10.105	81288.3
10.110	81275.3
10.115	81271.3
10.120	81273.3
10.125	81289.3
10.130	81270.3
10.135	81271.3
10.140	81283.3
10.145	81274.3
10.150	81250.3
10.155	81248.3
10.160	81265.3
10.165	81277.3
10.170	81266.3
10.175	81265.3
10.180	81263.3
10.185	81278.3
10.190	81283.3
10.195	81294.3
10.200	81292.3
10.205	81288.3
10.210	81283.3
10.215	81267.3
10.220	81256.3
10.225	81288.3
10.230	81300.3
10.235	81290.3
10.240	81292.3
10.245	81291.3
10.250	81291.3
10.255	81299.3
10.260	81303.3
10.265	81323.3
10.270	81320.3
10.275	81322.3
10.280	81304.3
10.285	81302.3
10.290	81316.3
10.295	81360.2
10.300	81361.2
10.305	81361.2
10.310	81344.3
10.315	81346.3
10.320	81342.3
10.325	81356.2
10.330	81351.2
10.335	81364.2
10.340	81364.2
10.345	81368.2
10.350	81329.3
10.355	81344.2
10.360	81368.2
10.365	81373.2
10.370	81371.2
10.375	81378.2
10.380	81379.2
10.385	81394.2
10.390	81389.2
10.395	81398.2
10.400	81408.2
10.405	81411.2
10.410	81399.2
10.415	81362.2
10.420	81358.2
10.425	81375.2
10.430	81403.2
10.435	81399.2
10.440	81396.2
10.445	81385.2
10.450	81375.2
10.455	81392.2
10.460	81415.2
10.465	81420.2
10.470	81406.2
10.475	81423.2
10.480	81403.2
10.485	81393.2
10.490	81417.2
10.495	81450.2
10.500	81437.2
10.505	81436.2
10.510	81427.2
10.515	81436.2
10.520	81431.2
10.525	81438.2
10.530	81435.2
10.535	81439.2
10.540	81434.2
10.545	81427.2
10.550	81406.2
10.555	81405.2
10.560	81430.2
10.565	81451.2
10.570	81452.2
10.575	81453.2
10.580	81452.2
10.585	81455.2
10.590	81460.2
10.595	81459.2
10.600	81451.2
10.605	81447.2
10.610	81442.2
10.615	81410.2
10.620	81410.2
10.625	81430.2
10.630	81451.2
10.635	81443.2
10.640	81432.2
10.645	81441.2
10.650	81441.2
10.655	81432.2
10.660	81436.2
10.665	81440.2
10.670	81426.2
10.675	81438.2
10.680	81421.2
10.685	81407.2
10.690	81421.2
10.695	81449.2
10.700	81444.2
10.705	81453.2
10.710	81436.2
10.715	81444.2
10.720	81446.2
10.725	81444.2
10.730	81442.2
10.735	81454.2
10.740	81450.2
10.745	81429.2
10.750	81404.2
10.755	81423.2
10.760	81452.2
10.765	81456.2
10.770	81459.2
10.775	81454.2
10.780	81441.2
10.785	81437.2
10.790	81440.2
10.795	81451.2
10.800	81455.2
10.805	81448.2
10.810	81450.2
10.815	81413.2
10.820	81404.2
10.825	81436.2
10.830	81459.1
10.835	81460.1
10.840	81453.2
10.845	81458.1
10.850	81448.2
10.855	81444.2
10.860	81450.2
10.865	81440.2
10.870	81437.2
10.875	81434.2
10.880	81408.2
10.885	81401.2
10.890	81413.2
10.895	81444.2
10.900	81437.2
10.905	81427.2
10.910	81422.2
10.915	81417.2
10.920	81399.2
10.925	81407.2
10.930	81410.2
10.935	81410.2
10.940	81405.2
10.945	81397.2
10.950	81362.2
10.955	81369.2
10.960	81391.2
10.965	81398.2
10.970	81396.2
10.975	81405.2
10.980	81396.2
10.985	81404.2
10.990	81406.2
10.995	81414.2
11.000	81414.2
11.005	81412.2
11.010	81404.2
11.015	81381.2
11.020	81359.2
11.025	81392.2
11.030	81404.2
11.035	81399.2
11.040	81390.2
11.045	81391.2
11.050	81390.2
11.055	81385.2
11.060	81375.2
11.065	81373.2
11.070	81375.2
11.075	81375.2
11.080	81344.2
11.085	81336.2
11.090	81347.2
11.095	81368.2
11.100	81353.2
11.105	81350.2
11.110	81340.2
11.115	81340.2
11.120	81338.2
11.125	81327.2
11.130	81325.2
11.135	81320.2
11.140	81327.2
11.145	81315.2
11.150	81294.3
11.155	81298.3
11.160	81326.2
11.165	81333.2
11.170	81319.2
11.175	81324.2
11.180	81314.2
11.185	81308.3
11.190	81308.3
11.195	81305.3
11.200	81306.3
11.205	81308.3
11.210	81301.3
11.215	81285.3
11.220	81272.3
11.225	81287.3
11.230	81297.3
11.235	81307.3
11.240	81307.3
11.245	81296.3
11.250	81296.3
11.255	81296.3
11.260	81302.3
11.265	81298.3
11.270	81300.3
11.275	81311.2
11.280	81275.3
11.285	81271.3
11.290	81291.3
11.295	81305.3
11.300	81295.3
11.305	81296.3
11.310	81291.3
11.315	81285.3
11.320	81283.3
11.325	81284.3
11.330	81283.3
11.335	81285.3
11.340	81292.3
11.345	81282.3
11.350	81254.3
11.355	81262.3
11.360	81302.3
11.365	81307.3
11.370	81296.3
11.375	81299.3
11.380	81300.3
11.385	81297.3
11.390	81294.3
11.395	81302.3
11.400	81311.2
11.405	81306.2
11.410	81307.2
11.415	81279.3
11.420	81270.3
11.425	81302.3
11.430	81312.2
11.435	81298.3
11.440	81295.3
11.445	81301.3
11.450	81307.2
11.455	81309.2
11.460	81304.2
11.465	81308.2
11.470	81311.2
11.475	81317.2
11.480	81285.3
11.485	81283.3
11.490	81287.3
11.495	81313.2
11.500	81307.2
11.505	81311.2
11.510	81303.2
11.515	81307.2
11.520	81302.2
11.525	81303.2
11.530	81307.2
11.535	81313.2
11.540	81309.2
11.545	81291.3
11.550	81270.3
11.555	81290.3
11.560	81312.2
11.565	81308.2
11.570	81301.2
11.575	81294.3
11.580	81293.3
11.585	81300.2
11.590	81291.3
11.595	81300.3
11.600	81302.2
11.605	81312.2
11.610	81305.2
11.615	81273.3
11.620	81279.3
11.625	81309.2
11.630	81326.2
11.635	81328.2
11.640	81329.2
11.645	81321.2
11.650	81311.2
11.655	81310.2
11.660	81320.2
11.665	81319.2
11.670	81319.2
11.675	81314.2
11.680	81285.3
11.685	81270.3
11.690	81297.3
11.695	81315.2
11.700	81311.2
11.705	81316.2
11.710	81319.2
11.715	81325.2
11.720	81317.2
11.725	81323.2
11.730	81318.2
11.735	81318.2
11.740	81307.2
11.745	81283.3
11.750	81256.3
11.755	81270.3
11.760	81295.2
11.765	81301.2
11.770	81293.2
11.775	81303.2
11.780	81301.2
11.785	81308.2
11.790	81316.2
11.795	81313.2
11.800	81315.2
11.805	81308.2
11.810	81306.2
11.815	81271.3
11.820	81277.3
11.825	81303.2
11.830	81295.2
11.835	81294.2
11.840	81284.3
11.845	81289.3
11.850	81283.3
11.855	81291.2
11.860	81289.2
11.865	81295.2
11.870	81293.2
11.875	81295.2
11.880	81259.3
11.885	81266.3
11.890	81275.3
11.895	81286.3
11.900	81294.2
11.905	81295.2
11.910	81286.3
11.915	81300.2
11.920	81304.2
11.925	81302.2
11.930	81287.2
11.935	81299.2
11.940	81293.2
11.945	81272.3
11.950	81260.3
11.955	81283.3
11.960	81283.2
11.965	81293.2
11.970	81278.3
11.975	81270.3
11.980	81269.3
11.985	81278.3
11.990	81267.3
11.995	81284.2
12.000	81279.3
12.005	81270.3
12.010	81271.3
12.015	81239.3
12.020	81244.3
12.025	81267.3
12.030	81275.3
12.035	81282.2
12.040	81275.3
12.045	81283.2
12.050	81271.3
12.055	81279.2
12.060	81283.2
12.065	81280.3
12.070	81280.2
12.075	81284.2
12.080	81255.3
12.085	81259.3
12.090	81287.2
12.095	81303.2
12.100	81288.2
12.105	81288.2
12.110	81290.2
12.115	81287.2
12.120	81282.2
12.125	81284.2
12.130	81290.2
12.135	81284.2
12.140	81292.2
12.145	81280.2
12.150	81260.3
12.155	81271.3
12.160	81298.2
12.165	81305.2
12.170	81300.2
12.175	81309.2
12.180	81296.2
12.185	81296.2
12.190	81309.2
12.195	81310.2
12.200	81302.2
12.205	81304.2
12.210	81297.2
12.215	81283.2
12.220	81283.2
12.225	81310.2
12.230	81311.2
12.235	81314.2
12.240	81318.2
12.245	81325.2
12.250	81317.2
12.255	81331.2
12.260	81330.2
12.265	81337.2
12.270	81334.2
12.275	81340.2
12.280	81326.2
12.285	81315.2
12.290	81323.2
12.295	81347.2
12.300	81360.2
12.305	81360.2
12.310	81354.2
12.315	81369.2
12.320	81371.2
12.325	81382.2
12.330	81384.2
12.335	81388.2
12.340	81371.2
12.345	81352.2
12.350	81348.2
12.355	81374.2
12.360	81388.2
12.365	81395.2
12.370	81391.2
12.375	81389.2
12.380	81388.2
12.385	81400.1
12.390	81403.1
12.395	81403.1
12.400	81400.1
12.405	81412.1
12.410	81405.1
12.415	81379.2
12.420	81388.2
12.425	81416.1
12.430	81425.1
12.435	81421.1
12.440	81423.1
12.445	81438.1
12.450	81430.1
12.455	81437.1
12.460	81442.1
12.465	81457.1
12.470	81458.1
12.475	81460.1
12.480	81430.1
12.485	81432.1
12.490	81439.1
12.495	81451.1
12.500	81453.1
12.505	81458.1
12.510	81454.1
12.515	81459.1
12.520	81472.1
12.525	81466.1
12.530	81460.1
12.535	81474.1
12.540	81475.1
12.545	81459.1
12.550	81455.1
12.555	81473.1
12.560	81498.1
12.565	81497.1
12.570	81506.1
12.575	81502.1
12.580	81500.1
12.585	81501.1
12.590	81496.1
12.595	81507.1
12.600	81508.1
12.605	81511.1
12.610	81500.1
12.615	81472.1
12.620	81486.1
12.625	81517.0
12.630	81518.0
12.635	81517.0
12.640	81515.0
12.645	81513.1
12.650	81521.0
12.655	81526.0
12.660	81525.0
12.665	81532.0
12.670	81530.0
12.675	81534.0
12.680	81501.1
12.685	81500.1
12.690	81509.1
12.695	81539.0
12.700	81534.0
12.705	81542.0
12.710	81545.0
12.715	81545.0
12.720	81545.0
12.725	81558.0
12.730	81554.0
12.735	81557.0
12.740	81562.0
12.745	81543.0
12.750	81523.0
12.755	81546.0
12.760	81565.0
12.765	81564.0
12.770	81564.0
12.775	81564.0
12.780	81573.0
12.785	81571.0
12.790	81571.0
12.795	81571.0
12.800	81568.0
12.805	81572.0
12.810	81566.0
12.815	81554.0
12.820	81554.0
12.825	81583.0
12.830	81579.0
12.835	81585.0
12.840	81585.0
12.845	81583.0
12.850	81585.0
12.855	81591.0
12.860	81592.0
12.865	81595.0
12.870	81591.0
12.875	81600.0
12.880	81559.0
12.885	81565.0
12.890	81582.0
12.895	81591.0
12.900	81586.0
12.905	81585.0
12.910	81581.0
12.915	81579.0
12.920	81588.0
12.925	81595.0
12.930	81592.0
12.935	81605.0
12.940	81600.0
12.945	81577.0
12.950	81564.0
12.955	81590.0
12.960	81613.0
12.965	81614.0
12.970	81609.0
12.975	81608.0
12.980	81611.0
12.985	81618.0
12.990	81616.0
12.995	81620.0
13.000	81619.9
13.005	81617.0
13.010	81601.0
13.015	81589.0
13.020	81605.0
13.025	81624.9
13.030	81629.9
13.035	81623.0
13.040	81615.0
13.045	81619.9
13.050	81615.0
13.055	81616.0
13.060	81617.9
13.065	81619.9
13.070	81612.0
13.075	81616.9
13.080	81582.0
13.085	81583.0
13.090	81608.0
13.095	81616.9
13.100	81618.9
13.105	81624.9
13.110	81619.9
13.115	81617.9
13.120	81617.9
13.125	81623.9
13.130	81619.9
13.135	81618.9
13.140	81615.9
13.145	81597.0
13.150	81584.0
13.155	81602.0
13.160	81609.0
13.165	81608.0
13.170	81600.0
13.175	81593.0
13.180	81601.0
13.185	81600.0
13.190	81599.0
13.195	81598.0
13.200	81603.0
13.205	81593.0
13.210	81571.0
13.215	81545.0
13.220	81549.0
13.225	81573.0
13.230	81581.0
13.235	81573.0
13.240	81574.0
13.245	81572.0
13.250	81575.0
13.255	81562.0
13.260	81568.0
13.265	81569.0
13.270	81557.0
13.275	81562.0
13.280	81521.0
13.285	81529.0
13.290	81550.0
13.295	81555.0
13.300	81557.0
13.305	81538.0
13.310	81536.0
13.315	81532.0
13.320	81533.0
13.325	81535.0
13.330	81528.0
13.335	81526.0
13.340	81521.0
13.345	81496.0
13.350	81481.0
13.355	81493.0
13.360	81503.0
13.365	81505.0
13.370	81514.0
13.375	81505.0
13.380	81505.0
13.385	81512.0
13.390	81509.0
13.395	81513.0
13.400	81517.0
13.405	81505.0
13.410	81479.0
13.415	81463.1
13.420	81471.0
13.425	81498.0
13.430	81495.0
13.435	81498.0
13.440	81483.0
13.445	81485.0
13.450	81482.0
13.455	81493.0
13.460	81493.0
13.465	81494.0
13.470	81494.0
13.475	81485.0
13.480	81458.1
13.485	81466.0
13.490	81480.0
13.495	81494.0
13.500	81491.0
13.505	81489.0
13.510	81472.0
13.515	81476.0
13.520	81482.0
13.525	81494.0
13.530	81480.0
13.535	81491.0
13.540	81489.0
13.545	81461.0
13.550	81448.1
13.555	81476.0
13.560	81486.0
13.565	81489.0
13.570	81470.0
13.575	81474.0
13.580	81474.0
13.585	81478.0
13.590	81480.0
13.595	81482.0
13.600	81476.0
13.605	81480.0
13.610	81461.0
13.615	81444.1
13.620	81456.0
13.625	81493.0
13.630	81480.0
13.635	81489.0
13.640	81483.0
13.645	81476.0
13.650	81435.1
13.655	81409.1
13.660	81420.1
13.665	81463.0
13.670	81478.0
13.675	81474.0
13.680	81440.1
13.685	81451.0
13.690	81466.0
13.695	81464.0
13.700	81440.1
13.705	81424.1
13.710	81416.1
13.715	81416.1
13.720	81413.1
13.725	81446.0
13.730	81476.0
13.735	81499.0
13.740	81510.0
13.745	81490.0
13.750	81494.0
13.755	81508.0
13.760	81537.0
13.765	81534.0
13.770	81530.0
13.775	81535.0
13.780	81540.0
13.785	81552.0
13.790	81540.0
13.795	81552.0
13.800	81557.0
13.805	81556.0
13.810	81539.0
13.815	81530.0
13.820	81544.0
13.825	81561.0
13.830	81560.0
13.835	81568.0
13.840	81557.0
13.845	81553.0
13.850	81549.0
13.855	81565.0
13.860	81563.0
13.865	81571.9
13.870	81574.9
13.875	81571.9
13.880	81545.0
13.885	81543.0
13.890	81571.9
13.895	81581.9
13.900	81574.9
13.905	81574.9
13.910	81582.9
13.915	81585.9
13.920	81578.9
13.925	81584.9
13.930	81590.9
13.935	81586.9
13.940	81586.9
13.945	81562.9
13.950	81558.0
13.955	81576.9
13.960	81584.9
13.965	81589.9
13.970	81575.9
13.975	81568.9
13.980	81575.9
13.985	81578.9
13.990	81571.9
13.995	81577.9
14.000	81578.9
14.005	81578.9
14.010	81555.0
14.015	81547.0
14.020	81559.9
14.025	81595.9
14.030	81577.9
14.035	81578.9
14.040	81585.9
14.045	81595.9
14.050	81576.9
14.055	81596.9
14.060	81591.9
14.065	81593.9
14.070	81598.9
14.075	81593.9
14.080	81553.9
14.085	81572.9
14.090	81596.9
14.095	81592.9
14.100	81592.9
14.105	81588.9
14.110	81575.9
14.115	81588.9
14.120	81585.9
14.125	81580.9
14.130	81581.9
14.135	81590.9
14.140	81591.9
14.145	81565.9
14.150	81545.0
14.155	81582.9
14.160	81595.9
14.165	81589.9
14.170	81601.9
14.175	81590.9
14.180	81592.9
14.185	81600.9
14.190	81596.9
14.195	81602.9
14.200	81603.9
14.205	81603.9
14.210	81577.9
14.215	81568.9
14.220	81579.9
14.225	81597.9
14.230	81591.9
14.235	81588.9
14.240	81592.9
14.245	81591.9
14.250	81591.9
14.255	81593.9
14.260	81589.9
14.265	81598.9
14.270	81589.9
14.275	81575.9
14.280	81552.9
14.285	81557.9
14.290	81584.9
14.295	81579.9
14.300	81587.9
14.305	81591.9
14.310	81588.9
14.315	81588.9
14.320	81583.9
14.325	81597.9
14.330	81592.9
14.335	81597.9
14.340	81590.9
14.345	81550.9
14.350	81564.9
14.355	81576.9
14.360	81598.9
14.365	81577.9
14.370	81578.9
14.375	81575.9
14.380	81577.9
14.385	81578.9
14.390	81575.9
14.395	81571.9
14.400	81573.9
14.405	81581.9
14.410	81552.9
14.415	81548.9
14.420	81551.9
14.425	81585.9
14.430	81584.9
14.435	81580.9
14.440	81580.9
14.445	81585.9
14.450	81576.9
14.455	81583.9
14.460	81583.9
14.465	81573.9
14.470	81574.9
14.475	81568.9
14.480	81543.9
14.485	81556.9
14.490	81574.9
14.495	81576.9
14.500	81566.9
14.505	81562.9
14.510	81567.9
14.515	81569.9
14.520	81564.9
14.525	81567.9
14.530	81564.9
14.535	81567.9
14.540	81562.9
14.545	81535.9
14.550	81523.0
14.555	81546.9
14.560	81570.9
14.565	81558.9
14.570	81565.9
14.575	81562.9
14.580	81568.9
14.585	81564.9
14.590	81552.9
14.595	81560.9
14.600	81553.9
14.605	81560.9
14.610	81525.9
14.615	81519.0
14.620	81528.9
14.625	81558.9
14.630	81556.9
14.635	81534.9
14.640	81537.9
14.645	81541.9
14.650	81536.9
14.655	81535.9
14.660	81533.9
14.665	81527.9
14.670	81536.9
14.675	81529.9
14.680	81491.0
14.685	81502.0
14.690	81519.9
14.695	81521.9
14.700	81518.9
14.705	81522.9
14.710	81526.9
14.715	81510.0
14.720	81516.9
14.725	81507.0
14.730	81497.0
14.735	81506.0
14.740	81503.0
14.745	81464.0
14.750	81458.0
14.755	81487.0
14.760	81481.0
14.765	81482.0
14.770	81465.0
14.775	81474.0
14.780	81471.0
14.785	81468.0
14.790	81465.0
14.795	81463.0
14.800	81463.0
14.805	81455.0
14.810	81426.0
14.815	81415.0
14.820	81413.0
14.825	81435.0
14.830	81427.0
14.835	81419.0
14.840	81425.0
14.845	81424.0
14.850	81424.0
14.855	81415.0
14.860	81420.0
14.865	81429.0
14.870	81422.0
14.875	81411.0
14.880	81393.0
14.885	81423.0
14.890	81434.0
14.895	81434.0
14.900	81428.0
14.905	81423.0
14.910	81429.0
14.915	81427.0
14.920	81425.0
14.925	81434.0
14.930	81428.0
14.935	81440.0
14.940	81437.0
14.945	81413.0
14.950	81405.0
14.955	81437.0
14.960	81449.0
14.965	81459.0
14.970	81457.0
14.975	81462.0
14.980	81464.0
14.985	81468.0
14.990	81471.0
14.995	81465.0
15.000	81463.0
15.005	81467.0
15.010	81435.0
15.015	81430.0
15.020	81450.0
15.025	81472.0
15.030	81461.0
15.035	81466.0
15.040	81465.0
15.045	81469.0
15.050	81476.0
15.055	81478.0
15.060	81476.0
15.065	81468.0
15.070	81480.0
15.075	81466.0
15.080	81442.0
15.085	81444.0
15.090	81482.0
15.095	81479.0
15.100	81488.9
15.105	81476.0
15.110	81480.0
15.115	81487.9
15.120	81481.0
15.125	81476.0
15.130	81479.0
15.135	81482.9
15.140	81474.0
15.145	81444.0
15.150	81453.0
15.155	81471.0
15.160	81473.0
15.165	81462.0
15.170	81465.0
15.175	81470.0
15.180	81461.0
15.185	81461.0
15.190	81450.0
15.195	81439.0
15.200	81453.0
15.205	81451.0
15.210	81413.0
15.215	81415.0
15.220	81429.0
15.225	81450.0
15.230	81439.0
15.235	81444.0
15.240	81439.0
15.245	81445.0
15.250	81445.0
15.255	81441.0
15.260	81434.0
15.265	81428.0
15.270	81417.0
15.275	81403.0
15.280	81392.0
15.285	81396.0
15.290	81417.0
15.295	81408.0
15.300	81405.0
15.305	81402.0
15.310	81394.0
15.315	81393.0
15.320	81396.0
15.325	81385.0
15.330	81392.0
15.335	81397.0
15.340	81383.0
15.345	81344.0
15.350	81348.0
15.355	81361.0
15.360	81380.0
15.365	81374.0
15.370	81369.0
15.375	81375.0
15.380	81373.0
15.385	81373.0
15.390	81377.0
15.395	81377.0
15.400	81361.0
15.405	81368.0
15.410	81335.0
15.415	81336.0
15.420	81346.0
15.425	81368.0
15.430	81357.0
15.435	81348.0
15.440	81337.0
15.445	81343.0
15.450	81335.0
15.455	81345.0
15.460	81339.0
15.465	81343.0
15.470	81341.0
15.475	81334.0
15.480	81318.1
15.485	81340.0
15.490	81355.0
15.495	81347.0
15.500	81341.0
15.505	81348.0
15.510	81346.0
15.515	81357.0
15.520	81357.0
15.525	81363.0
15.530	81360.0
15.535	81356.0
15.540	81361.0
15.545	81330.0
15.550	81330.0
15.555	81349.0
15.560	81357.0
15.565	81355.0
15.570	81352.0
15.575	81366.0
15.580	81354.0
15.585	81363.0
15.590	81359.0
15.595	81364.0
15.600	81369.0
15.605	81369.0
15.610	81324.0
15.615	81329.0
15.620	81356.0
15.625	81369.0
15.630	81372.0
15.635	81379.0
15.640	81369.0
15.645	81382.0
15.650	81381.0
15.655	81396.0
15.660	81395.0
15.665	81396.0
15.670	81392.0
15.675	81374.0
15.680	81357.0
15.685	81385.0
15.690	81396.0
15.695	81399.0
15.700	81397.0
15.705	81403.0
15.710	81392.0
15.715	81401.0
15.720	81395.0
15.725	81403.0
15.730	81402.0
15.735	81400.0
15.740	81401.0
15.745	81380.0
15.750	81375.0
15.755	81402.0
15.760	81413.0
15.765	81409.0
15.770	81410.0
15.775	81409.0
15.780	81422.0
15.785	81424.9
15.790	81429.9
15.795	81439.9
15.800	81436.9
15.805	81428.9
15.810	81397.0
15.815	81399.0
15.820	81415.0
15.825	81426.9
15.830	81430.9
15.835	81435.9
15.840	81419.9
15.845	81423.0
15.850	81421.9
15.855	81435.9
15.860	81435.9
15.865	81437.9
15.870	81443.9
15.875	81435.9
15.880	81412.0
15.885	81417.9
15.890	81439.9
15.895	81447.9
15.900	81443.9
15.905	81447.9
15.910	81431.9
15.915	81442.9
15.920	81446.9
15.925	81449.9
15.930	81438.9
15.935	81442.9
15.940	81431.9
15.945	81407.0
15.950	81411.9
15.955	81452.9
15.960	81444.9
15.965	81431.9
15.970	81426.9
15.975	81424.9
15.980	81427.9
15.985	81433.9
15.990	81433.9
15.995	81443.9
16.000	81445.9
16.005	81429.9
16.010	81407.9
16.015	81404.9
16.020	81414.9
16.025	81433.9
16.030	81438.9
16.035	81426.9
16.040	81418.9
16.045	81426.9
16.050	81428.9
16.055	81431.9
16.060	81421.9
16.065	81425.9
16.070	81414.9
16.075	81382.0
16.080	81372.0
16.085	81382.0
16.090	81406.9
16.095	81407.9
16.100	81399.0
16.105	81383.0
16.110	81383.0
16.115	81378.0
16.120	81375.0
16.125	81373.0
16.130	81365.0
16.135	81371.0
16.140	81359.0
16.145	81331.0
16.150	81332.0
16.155	81378.0
16.160	81380.0
16.165	81389.0
16.170	81383.0
16.175	81379.0
16.180	81388.0
16.185	81386.0
16.190	81386.9
16.195	81402.9
16.200	81403.9
16.205	81407.9
16.210	81361.0
16.215	81366.0
16.220	81395.9
16.225	81416.9
16.230	81407.9
16.235	81397.9
16.240	81400.9
16.245	81400.9
16.250	81395.9
16.255	81396.9
16.260	81406.9
16.265	81404.9
16.270	81399.9
16.275	81375.0
16.280	81360.0
16.285	81369.0
16.290	81394.9
16.295	81400.9
16.300	81401.9
16.305	81388.9
16.310	81381.9
16.315	81391.9
16.320	81396.9
16.325	81396.9
16.330	81384.9
16.335	81388.9
16.340	81377.9
16.345	81356.0
16.350	81356.0
16.355	81387.9
16.360	81392.9
16.365	81381.9
16.370	81370.0
16.375	81361.0
16.380	81358.0
16.385	81369.9
16.390	81354.0
16.395	81368.9
16.400	81358.0
16.405	81359.0
16.410	81331.0
16.415	81324.0
16.420	81344.0
16.425	81365.0
16.430	81378.9
16.435	81380.9
16.440	81374.9
16.445	81363.9
16.450	81368.9
16.455	81382.9
16.460	81381.9
16.465	81382.9
16.470	81383.9
16.475	81355.0
16.480	81348.0
16.485	81370.9
16.490	81389.9
16.495	81389.9
16.500	81370.9
16.505	81377.9
16.510	81378.9
16.515	81381.9
16.520	81380.9
16.525	81389.9
16.530	81384.9
16.535	81389.9
16.540	81392.9
16.545	81365.9
16.550	81366.9
16.555	81398.9
16.560	81400.9
16.565	81402.9
16.570	81402.9
16.575	81401.9
16.580	81392.9
16.585	81405.9
16.590	81403.9
16.595	81410.9
16.600	81402.9
16.605	81401.9
16.610	81365.9
16.615	81374.9
16.620	81388.9
16.625	81405.9
16.630	81402.9
16.635	81382.9
16.640	81376.9
16.645	81378.9
16.650	81373.9
16.655	81374.9
16.660	81367.9
16.665	81368.9
16.670	81364.9
16.675	81340.0
16.680	81334.9
16.685	81343.9
16.690	81350.9
16.695	81355.9
16.700	81353.9
16.705	81367.9
16.710	81361.9
16.715	81348.9
16.720	81345.9
16.725	81354.9
16.730	81351.9
16.735	81335.9
16.740	81312.0
16.745	81285.0
16.750	81301.0
16.755	81324.9
16.760	81306.0
16.765	81287.0
16.770	81274.0
16.775	81269.0
16.780	81272.0
16.785	81273.0
16.790	81273.0
16.795	81264.0
16.800	81267.0
16.805	81261.0
16.810	81208.0
16.815	81197.0
16.820	81216.0
16.825	81239.0
16.830	81227.0
16.835	81231.0
16.840	81218.0
16.845	81222.0
16.850	81204.0
16.855	81182.0
16.860	81179.1
16.865	81177.1
16.870	81164.1
16.875	81129.1
16.880	81117.1
16.885	81140.1
16.890	81140.1
16.895	81135.1
16.900	81120.1
16.905	81128.1
16.910	81126.1
16.915	81128.1
16.920	81125.1
16.925	81130.1
16.930	81137.1
16.935	81136.1
16.940	81109.1
16.945	81069.1
16.950	81091.1
16.955	81129.1
16.960	81136.1
16.965	81147.1
16.970	81160.1
16.975	81162.1
16.980	81169.0
16.985	81173.0
16.990	81157.1
16.995	81166.0
17.000	81156.1
17.005	81150.1
17.010	81132.1
17.015	81149.1
17.020	81172.0
17.025	81185.0
17.030	81164.0
17.035	81178.0
17.040	81192.0
17.045	81193.0
17.050	81203.0
17.055	81209.0
17.060	81221.0
17.065	81230.0
17.070	81216.0
17.075	81185.0
17.080	81179.0
17.085	81203.0
17.090	81219.0
17.095	81224.0
17.100	81222.0
17.105	81224.0
17.110	81211.0
17.115	81216.0
17.120	81235.0
17.125	81233.0
17.130	81230.0
17.135	81239.0
17.140	81221.0
17.145	81199.0
17.150	81220.0
17.155	81249.0
17.160	81243.0
17.165	81239.0
17.170	81240.0
17.175	81248.0
17.180	81251.0
17.185	81251.0
17.190	81257.0
17.195	81253.0
17.200	81251.0
17.205	81249.0
17.210	81222.0
17.215	81229.0
17.220	81247.0
17.225	81251.0
17.230	81238.0
17.235	81247.0
17.240	81247.0
17.245	81251.0
17.250	81237.0
17.255	81239.0
17.260	81250.0
17.265	81243.0
17.270	81246.0
17.275	81204.0
17.280	81216.0
17.285	81240.0
17.290	81239.0
17.295	81232.0
17.300	81232.0
17.305	81237.0
17.310	81234.0
17.315	81241.0
17.320	81227.0
17.325	81227.0
17.330	81228.0
17.335	81220.0
17.340	81193.0
17.345	81191.0
17.350	81191.0
17.355	81219.0
17.360	81219.0
17.365	81213.0
17.370	81221.0
17.375	81224.0
17.380	81215.0
17.385	81216.0
17.390	81222.0
17.395	81220.0
17.400	81224.0
17.405	81219.0
17.410	81193.0
17.415	81209.0
17.420	81238.0
17.425	81238.0
17.430	81233.0
17.435	81232.0
17.440	81226.0
17.445	81225.0
17.450	81231.0
17.455	81243.9
17.460	81250.9
17.465	81243.9
17.470	81241.9
17.475	81224.0
17.480	81219.0
17.485	81226.0
17.490	81247.9
17.495	81252.9
17.500	81264.9
17.505	81260.9
17.510	81255.9
17.515	81255.9
17.520	81265.9
17.525	81272.9
17.530	81257.9
17.535	81255.9
17.540	81228.9
17.545	81219.0
17.550	81233.9
17.555	81259.9
17.560	81244.9
17.565	81247.9
17.570	81228.9
17.575	81233.9
17.580	81242.9
17.585	81240.9
17.590	81231.9
17.595	81237.9
17.600	81234.9
17.605	81225.9
17.610	81209.0
17.615	81232.9
17.620	81254.9
17.625	81252.9
17.630	81240.9
17.635	81248.9
17.640	81254.9
17.645	81259.9
17.650	81259.9
17.655	81266.9
17.660	81255.9
17.665	81262.9
17.670	81262.9
17.675	81232.9
17.680	81257.9
17.685	81275.9
17.690	81295.9
17.695	81289.9
17.700	81280.9
17.705	81278.9
17.710	81272.9
17.715	81277.9
17.720	81291.9
17.725	81299.9
17.730	81298.9
17.735	81294.9
17.740	81271.9
17.745	81266.9
17.750	81285.9
17.755	81329.8
17.760	81321.8
17.765	81327.8
17.770	81330.8
17.775	81343.8
17.780	81344.8
17.785	81347.8
17.790	81346.8
17.795	81355.8
17.800	81356.8
17.805	81358.8
17.810	81341.8
17.815	81358.8
17.820	81380.8
17.825	81389.8
17.830	81387.8
17.835	81389.8
17.840	81404.8
17.845	81409.8
17.850	81403.8
17.855	81409.8
17.860	81412.8
17.865	81422.8
17.870	81430.7
17.875	81409.8
17.880	81410.8
17.885	81422.8
17.890	81443.7
17.895	81446.7
17.900	81460.7
17.905	81468.7
17.910	81463.7
17.915	81456.7
17.920	81462.7
17.925	81472.7
17.930	81464.7
17.935	81458.7
17.940	81430.7
17.945	81422.8
17.950	81454.7
17.955	81467.7
17.960	81441.7
17.965	81437.7
17.970	81434.7
17.975	81438.7
17.980	81429.7
17.985	81429.7
17.990	81416.7
17.995	81430.7
18.000	81430.7
18.005	81429.7
18.010	81396.8
18.015	81409.8
18.020	81424.7
18.025	81426.7
18.030	81426.7
18.035	81420.7
18.040	81402.7
18.045	81416.7
18.050	81410.7
18.055	81414.7
18.060	81409.7
18.065	81408.7
18.070	81390.8
18.075	81364.8
18.080	81376.8
18.085	81396.7
18.090	81399.7
18.095	81394.8
18.100	81385.8
18.105	81388.8
18.110	81387.8
18.115	81397.7
18.120	81395.7
18.125	81389.8
18.130	81394.7
18.135	81406.7
18.140	81384.8
18.145	81373.8
18.150	81374.8
18.155	81402.7
18.160	81396.7
18.165	81390.7
18.170	81392.7
18.175	81394.7
18.180	81393.7
18.185	81400.7
18.190	81389.7
18.195	81389.7
18.200	81377.7
18.205	81354.8
18.210	81338.8
18.215	81355.8
18.220	81382.7
18.225	81387.7
18.230	81356.8
18.235	81347.8
18.240	81340.8
18.245	81346.8
18.250	81357.8
18.255	81364.8
18.260	81340.8
18.265	81354.8
18.270	81338.8
18.275	81305.8
18.280	81312.8
18.285	81348.8
18.290	81359.7
18.295	81358.7
18.300	81347.8
18.305	81343.8
18.310	81329.8
18.315	81350.8
18.320	81357.7
18.325	81357.7
18.330	81345.8
18.335	81357.7
18.340	81314.8
18.345	81308.8
18.350	81336.8
18.355	81358.7
18.360	81353.7
18.365	81339.8
18.370	81321.8
18.375	81315.8
18.380	81328.8
18.385	81339.8
18.390	81346.7
18.395	81337.7
18.400	81343.7
18.405	81313.8
18.410	81276.8
18.415	81294.8
18.420	81317.8
18.425	81322.8
18.430	81323.8
18.435	81316.8
18.440	81302.8
18.445	81306.8
18.450	81302.8
18.455	81308.8
18.460	81301.8
18.465	81292.8
18.470	81278.8
18.475	81249.8
18.480	81250.8
18.485	81259.8
18.490	81261.8
18.495	81249.8
18.500	81247.8
18.505	81244.8
18.510	81236.8
18.515	81235.8
18.520	81220.8
18.525	81220.8
18.530	81204.8
18.535	81205.8
18.540	81189.8
18.545	81182.8
18.550	81189.8
18.555	81204.8
18.560	81193.8
18.565	81197.8
18.570	81188.8
18.575	81194.8
18.580	81192.8
18.585	81194.8
18.590	81194.8
18.595	81194.8
18.600	81196.8
18.605	81182.8
18.610	81163.8
18.615	81177.8
18.620	81207.8
18.625	81190.8
18.630	81184.8
18.635	81179.8
18.640	81181.8
18.645	81167.8
18.650	81157.8
18.655	81157.8
18.660	81152.8
18.665	81157.8
18.670	81154.8
18.675	81122.9
18.680	81109.9
18.685	81133.9
18.690	81144.8
18.695	81141.8
18.700	81133.9
18.705	81134.8
18.710	81140.8
18.715	81141.8
18.720	81150.8
18.725	81146.8
18.730	81140.8
18.735	81151.8
18.740	81120.9
18.745	81120.9
18.750	81134.8
18.755	81145.8
18.760	81136.8
18.765	81130.8
18.770	81131.8
18.775	81138.8
18.780	81131.8
18.785	81130.8
18.790	81134.8
18.795	81131.8
18.800	81120.8
18.805	81097.9
18.810	81065.9
18.815	81065.9
18.820	81098.9
18.825	81098.9
18.830	81091.9
18.835	81093.9
18.840	81092.9
18.845	81102.8
18.850	81099.8
18.855	81081.9
18.860	81075.9
18.865	81060.9
18.870	81034.9
18.875	80994.9
18.880	81001.9
18.885	81008.9
18.890	80990.9
18.895	80980.9
18.900	80961.9
18.905	80951.9
18.910	80946.0
18.915	80957.9
18.920	80958.9
18.925	80942.0
18.930	80952.9
18.935	80987.9
18.940	80968.9
18.945	80949.9
18.950	80958.9
18.955	80980.9
18.960	80970.9
18.965	80963.9
18.970	80941.9
18.975	80971.9
18.980	81008.9
18.985	81032.9
18.990	81036.9
18.995	81062.8
19.000	81063.8
19.005	81067.8
19.010	81060.8
19.015	81077.8
19.020	81083.8
19.025	81094.8
19.030	81097.8
19.035	81094.8
19.040	81091.8
19.045	81102.8
19.050	81105.8
19.055	81101.8
19.060	81117.8
19.065	81123.8
19.070	81118.8
19.075	81077.8
19.080	81082.8
19.085	81109.8
19.090	81125.8
19.095	81134.8
19.100	81146.8
19.105	81140.8
19.110	81133.8
19.115	81121.8
19.120	81120.8
19.125	81113.8
19.130	81119.8
19.135	81116.8
19.140	81096.8
19.145	81078.8
19.150	81087.8
19.155	81113.8
19.160	81117.8
19.165	81119.8
19.170	81118.8
19.175	81113.8
19.180	81089.8
19.185	81081.8
19.190	81071.8
19.195	81065.8
19.200	81052.8
19.205	81021.8
19.210	80992.8
19.215	80990.8
19.220	81007.8
19.225	80996.8
19.230	80971.9
19.235	80959.9
19.240	80934.9
19.245	80924.9
19.250	80909.9
19.255	80901.9
19.260	80899.9
19.265	80916.9
19.270	80914.9
19.275	80888.9
19.280	80892.9
19.285	80918.9
19.290	80942.9
19.295	80941.9
19.300	80933.9
19.305	80934.9
19.310	80933.9
19.315	80945.9
19.320	80945.9
19.325	80956.8
19.330	80968.8
19.335	80970.8
19.340	80959.8
19.345	80965.8
19.350	80988.8
19.355	81016.8
19.360	81035.8
19.365	81059.8
19.370	81063.8
19.375	81065.8
19.380	81071.7
19.385	81079.7
19.390	81075.7
19.395	81081.7
19.400	81075.7
19.405	81050.8
19.410	81044.8
19.415	81055.7
19.420	81064.7
19.425	81074.7
19.430	81073.7
19.435	81080.7
19.440	81088.7
19.445	81088.7
19.450	81069.7
19.455	81087.7
19.460	81069.7
19.465	81069.7
19.470	81064.7
19.475	80973.8
19.480	80812.9
19.485	80864.9
19.490	81016.8
19.495	81064.7
19.500	81056.7
19.505	81059.7
19.510	81041.7
19.515	81037.7
19.520	81020.7
19.525	81009.7
19.530	81003.7
19.535	81001.8
19.540	80958.8
19.545	80958.8
19.550	80979.8
19.555	80987.8
19.560	80981.8
19.565	80978.8
19.570	80982.8
19.575	80973.8
19.580	80955.8
19.585	80948.8
19.590	80940.8
19.595	80933.8
19.600	80921.8
19.605	80907.8
19.610	80892.8
19.615	80887.8
19.620	80865.8
19.625	80837.9
19.630	80860.8
19.635	80908.8
19.640	80924.8
19.645	80936.8
19.650	80938.8
19.655	80939.8
19.660	80917.8
19.665	80892.8
19.670	80872.8
19.675	80841.8
19.680	80821.8
19.685	80844.8
19.690	80847.8
19.695	80832.8
19.700	80809.8
19.705	80800.8
19.710	80800.8
19.715	80805.8
19.720	80789.9
19.725	80779.9
19.730	80769.9
19.735	80774.9
19.740	80743.9
19.745	80750.9
19.750	80775.9
19.755	80774.9
19.760	80762.9
19.765	80760.9
19.770	80776.8
19.775	80787.8
19.780	80764.8
19.785	80744.9
19.790	80714.9
19.795	80699.9
19.800	80689.9
19.805	80670.9
19.810	80665.9
19.815	80685.9
19.820	80692.9
19.825	80676.9
19.830	80659.9
19.835	80654.9
19.840	80650.9
19.845	80666.9
19.850	80651.9
19.855	80641.9
19.860	80641.9
19.865	80661.9
19.870	80653.9
19.875	80646.9
19.880	80672.9
19.885	80715.8
19.890	80736.8
19.895	80762.8
19.900	80776.8
19.905	80789.8
19.910	80802.8
19.915	80825.7
19.920	80836.7
19.925	80866.7
19.930	80878.7
19.935	80889.7
19.940	80850.7
19.945	80861.7
19.950	80877.7
19.955	80900.7
19.960	80890.7
19.965	80901.7
19.970	80895.7
19.975	80898.7
19.980	80906.7
19.985	80913.6
19.990	80913.6
19.995	80922.6
20.000	80933.6
20.005	80916.6
20.010	80898.6
20.015	80903.6
20.020	80932.6
20.025	80931.6
20.030	80912.6
20.035	80908.6
20.040	80904.6
20.045	80905.6
20.050	80902.6
20.055	80892.6
20.060	80888.6
20.065	80887.6
20.070	80866.6
20.075	80821.7
20.080	80825.7
20.085	80853.6
20.090	80841.6
20.095	80832.6
20.100	80839.6
20.105	80838.6
20.110	80837.6
20.115	80830.6
20.120	80830.6
20.125	80816.6
20.130	80808.6
20.135	80816.6
20.140	80770.7
20.145	80778.7
20.150	80793.7
20.155	80805.6
20.160	80785.7
20.165	80779.7
20.170	80759.7
20.175	80755.7
20.180	80733.7
20.185	80731.7
20.190	80708.7
20.195	80691.7
20.200	80665.7
20.205	80633.7
20.210	80607.8
20.215	80622.7
20.220	80607.7
20.225	80580.8
20.230	80549.8
20.235	80545.8
20.240	80534.8
20.245	80518.8
20.250	80498.8
20.255	80487.8
20.260	80500.8
20.265	80523.8
20.270	80513.8
20.275	80511.8
20.280	80520.8
20.285	80550.8
20.290	80555.7
20.295	80549.7
20.300	80553.7
20.305	80550.7
20.310	80531.8
20.315	80527.8
20.320	80516.8
20.325	80500.8
20.330	80475.8
20.335	80455.8
20.340	80423.8
20.345	80439.8
20.350	80433.8
20.355	80406.8
20.360	80355.8
20.365	80296.9
20.370	80261.9
20.375	80237.9
20.380	80219.9
20.385	80199.9
20.390	80162.0
20.395	80136.0
20.400	80118.0
20.405	80091.0
20.410	80098.0
20.415	80135.0
20.420	80162.0
20.425	80181.9
20.430	80178.9
20.435	80200.9
20.440	80199.9
20.445	80209.9
20.450	80227.9
20.455	80261.8
20.460	80276.8
20.465	80288.8
20.470	80251.8
20.475	80217.9
20.480	80213.8
20.485	80239.8
20.490	80223.8
20.495	80192.9
20.500	80148.9
20.505	80159.9
20.510	80169.9
20.515	80171.9
20.520	80144.9
20.525	80116.9
20.530	80095.9
20.535	80035.9
20.540	79935.0
20.545	79884.0
20.550	79856.1
20.555	79828.1
20.560	79809.1
20.565	79805.1
20.570	79781.1
20.575	79768.1
20.580	79765.1
20.585	79746.1
20.590	79718.1
20.595	79676.2
20.600	79638.2
20.605	79618.2
20.610	79677.1
20.615	79731.1
20.620	79771.1
20.625	79776.0
20.630	79792.0
20.635	79802.0
20.640	79820.0
20.645	79836.0
20.650	79828.0
20.655	79803.0
20.660	79761.0
20.665	79700.1
20.670	79645.1
20.675	79570.1
20.680	79527.2
20.685	79505.2
20.690	79445.2
20.695	79398.2
20.700	79330.3
20.705	79252.3
20.710	79243.3
20.715	79260.3
20.720	79243.3
20.725	79245.3
20.730	79220.3
20.735	79147.4
20.740	79062.4
20.745	78969.5
20.750	78930.5
20.755	78925.5
20.760	78973.5
20.765	79004.4
20.770	79048.4
20.775	79099.4
20.780	79116.3
20.785	79138.3
20.790	79174.3
20.795	79189.2
20.800	79190.2
20.805	79186.2
20.810	79190.2
20.815	79201.2
20.820	79216.2
20.825	79226.2
20.830	79248.1
20.835	79243.1
20.840	79225.1
20.845	79219.1
20.850	79216.1
20.855	79199.1
20.860	79167.1
20.865	79133.1
20.870	79045.2
20.875	78950.3
20.880	78879.3
20.885	78793.4
20.890	78667.4
20.895	78542.5
20.900	78448.6
20.905	78369.7
20.910	78313.7
20.915	78345.6
20.920	78343.6
20.925	78339.6
20.930	78411.6
20.935	78568.4
20.940	78719.3
20.945	78858.2
20.950	78870.2
20.955	78832.2
20.960	78734.2
20.965	78579.3
20.970	78334.5
20.975	78121.7
20.980	77959.8
20.985	77919.8
20.990	77991.7
20.995	78251.5
21.000	78501.3
21.005	78588.2
21.010	78727.1
21.015	78885.9
21.020	79123.7
21.025	79281.6
21.030	79373.5
21.035	79397.5
21.040	79317.5
21.045	79113.6
21.050	78929.7
21.055	78932.7
21.060	79036.6
21.065	79136.5
21.070	79214.4
21.075	79282.4
21.080	79236.4
21.085	79053.5
21.090	78912.6
21.095	78897.6
21.100	78925.5
21.105	78903.5
21.110	78704.6
21.115	78158.0
21.120	77679.4
21.125	77202.7
21.130	76589.1
21.135	76350.3
21.140	76615.1
21.145	76801.9
21.150	76564.0
21.155	76630.0
21.160	77600.2
21.165	78435.4
21.170	78188.6
21.175	77909.8
21.180	77930.7
21.185	77835.7
21.190	77578.8
21.195	77573.8
21.200	77730.6
21.205	77341.9
21.210	75668.1
21.215	73121.1
21.220	72312.6
21.225	73600.5
21.230	74026.1
21.235	73267.7
21.240	73244.6
21.245	75526.6
21.250	77128.2
21.255	76898.3
21.260	76218.7
21.265	75725.0
21.270	75289.2
21.275	74888.5
21.280	74511.8
21.285	74139.1
21.290	74071.2
21.295	74426.0
21.300	74716.9
21.305	74742.1
21.310	74719.4
21.315	74909.6
21.320	75462.5
21.325	76287.3
21.330	77160.0
21.335	77987.8
21.340	78826.6
21.345	79709.4
21.350	80587.2
21.355	81318.0
21.360	81845.8
21.365	82218.7
21.370	82436.6
21.375	82555.5
21.380	82605.5
21.385	82633.5
21.390	82638.5
21.395	82647.5
21.400	82652.5
21.405	82634.5
21.410	82634.5
21.415	82659.5
21.420	82675.5
21.425	82661.5
21.430	82668.5
21.435	82663.5
21.440	82667.5
21.445	82663.5
21.450	82663.5
21.455	82664.5
21.460	82661.5
21.465	82677.5
21.470	82643.5
21.475	82641.5
21.480	82647.5
21.485	82681.5
21.490	82668.5
21.495	82675.5
21.500	82678.5
21.505	82671.5
21.510	82674.5
21.515	82677.5
21.520	82688.5
21.525	82680.5
21.530	82681.5
21.535	82667.5
21.540	82644.5
21.545	82660.5
21.550	82681.5
21.555	82689.5
21.560	82673.5
21.565	82679.5
21.570	82674.5
21.575	82679.5
21.580	82666.5
21.585	82678.5
21.590	82678.5
21.595	82680.5
21.600	82676.5
21.605	82644.5
21.610	82645.5
21.615	82669.5
21.620	82683.5
21.625	82687.5
21.630	82682.5
21.635	82682.5
21.640	82680.5
21.645	82692.5
21.650	82683.5
21.655	82688.5
21.660	82682.5
21.665	82688.5
21.670	82657.5
21.675	82660.5
21.680	82664.5
21.685	82698.5
21.690	82684.5
21.695	82677.5
21.700	82686.5
21.705	82687.5
21.710	82674.5
21.715	82677.5
21.720	82683.5
21.725	82680.5
21.730	82694.5
21.735	82674.5
21.740	82637.5
21.745	82660.5
21.750	82678.5
21.755	82684.5
21.760	82685.5
21.765	82691.5
21.770	82689.5
21.775	82688.5
21.780	82691.5
21.785	82691.5
21.790	82695.5
21.795	82689.5
21.800	82690.5
21.805	82661.5
21.810	82669.5
21.815	82688.5
21.820	82695.5
21.825	82691.5
21.830	82683.5
21.835	82691.5
21.840	82671.5
21.845	82694.5
21.850	82689.5
21.855	82686.5
21.860	82687.5
21.865	82687.5
21.870	82662.5
21.875	82653.5
21.880	82676.5
21.885	82702.5
21.890	82689.5
21.895	82694.5
21.900	82686.5
21.905	82687.5
21.910	82698.5
21.915	82699.5
21.920	82691.5
21.925	82700.5
21.930	82692.5
21.935	82676.5
21.940	82662.5
21.945	82684.5
21.950	82694.5
21.955	82702.5
21.960	82686.5
21.965	82688.5
21.970	82688.5
21.975	82680.5
21.980	82683.5
21.985	82690.5
21.990	82687.5
21.995	82688.5
22.000	82694.5
22.005	82658.5
22.010	82655.5
22.015	82682.5
22.020	82695.5
22.025	82696.5
22.030	82697.5
22.035	82696.5
22.040	82690.5
22.045	82702.5
22.050	82701.5
22.055	82696.5
22.060	82689.5
22.065	82700.5
22.070	82663.5
22.075	82659.5
22.080	82686.5
22.085	82709.5
22.090	82689.5
22.095	82691.5
22.100	82686.5
22.105	82679.5
22.110	82685.5
22.115	82700.5
22.120	82692.5
22.125	82699.5
22.130	82694.5
22.135	82679.5
22.140	82654.5
22.145	82679.5
22.150	82691.5
22.155	82699.5
22.160	82700.5
22.165	82698.5
22.170	82697.5
22.175	82697.5
22.180	82694.5
22.185	82701.5
22.190	82694.5
22.195	82691.5
22.200	82694.5
22.205	82668.5
22.210	82672.5
22.215	82697.5
22.220	82700.5
22.225	82690.5
22.230	82699.5
22.235	82701.5
22.240	82690.5
22.245	82694.5
22.250	82697.5
22.255	82688.5
22.260	82697.5
22.265	82700.5
22.270	82665.5
22.275	82665.5
22.280	82676.5
22.285	82701.5
22.290	82703.5
22.295	82700.5
22.300	82695.5
22.305	82696.5
22.310	82696.5
22.315	82702.5
22.320	82708.5
22.325	82705.5
22.330	82699.5
22.335	82679.5
22.340	82664.5
22.345	82686.5
22.350	82698.5
22.355	82703.5
22.360	82699.5
22.365	82697.5
22.370	82683.5
22.375	82696.5
22.380	82692.5
22.385	82696.5
22.390	82690.5
22.395	82698.5
22.400	82696.5
22.405	82659.5
22.410	82665.5
22.415	82693.5
22.420	82708.5
22.425	82700.5
22.430	82697.5
22.435	82701.5
22.440	82709.5
22.445	82701.5
22.450	82704.5
22.455	82711.5
22.460	82712.5
22.465	82703.5
22.470	82668.5
22.475	82673.5
22.480	82693.5
22.485	82711.5
22.490	82701.5
22.495	82692.5
22.500	82700.5
22.505	82695.5
22.510	82694.5
22.515	82696.5
22.520	82700.5
22.525	82696.5
22.530	82698.5
22.535	82679.5
22.540	82660.5
22.545	82681.5
22.550	82702.5
22.555	82704.5
22.560	82704.5
22.565	82711.5
22.570	82706.5
22.575	82714.5
22.580	82711.5
22.585	82712.5
22.590	82697.5
22.595	82695.5
22.600	82693.5
22.605	82681.5
22.610	82682.5
22.615	82705.5
22.620	82702.5
22.625	82705.5
22.630	82690.5
22.635	82696.5
22.640	82689.5
22.645	82708.5
22.650	82700.5
22.655	82706.5
22.660	82701.5
22.665	82707.5
22.670	82667.5
22.675	82672.5
22.680	82688.5
22.685	82712.5
22.690	82714.5
22.695	82707.5
22.700	82706.5
22.705	82712.5
22.710	82710.5
22.715	82715.5
22.720	82713.5
22.725	82712.5
22.730	82699.5
22.735	82685.5
22.740	82677.5
22.745	82698.5
22.750	82709.5
22.755	82722.5
22.760	82705.5
22.765	82698.5
22.770	82696.5
22.775	82696.5
22.780	82702.5
22.785	82697.5
22.790	82706.5
22.795	82704.5
22.800	82697.5
22.805	82674.5
22.810	82670.5
22.815	82695.5
22.820	82705.5
22.825	82708.5
22.830	82694.5
22.835	82706.5
22.840	82710.5
22.845	82705.5
22.850	82707.5
22.855	82711.5
22.860	82700.5
22.865	82705.5
22.870	82666.5
22.875	82672.5
22.880	82698.5
22.885	82707.5
22.890	82704.5
22.895	82704.5
22.900	82704.5
22.905	82693.5
22.910	82699.5
22.915	82692.5
22.920	82695.5
22.925	82699.5
22.930	82699.5
22.935	82678.5
22.940	82658.5
22.945	82669.5
22.950	82702.5
22.955	82701.5
22.960	82703.5
22.965	82698.5
22.970	82703.5
22.975	82706.5
22.980	82710.5
22.985	82711.5
22.990	82701.5
22.995	82696.5
23.000	82690.5
23.005	82668.5
23.010	82673.5
23.015	82713.5
23.020	82707.5
23.025	82697.5
23.030	82692.5
23.035	82697.5
23.040	82687.5
23.045	82695.5
23.050	82685.5
23.055	82695.5
23.060	82699.5
23.065	82700.5
23.070	82654.5
23.075	82665.5
23.080	82680.5
23.085	82698.5
23.090	82699.5
23.095	82702.5
23.100	82699.5
23.105	82701.5
23.110	82700.5
23.115	82700.5
23.120	82705.5
23.125	82692.5
23.130	82691.5
23.135	82667.5
23.140	82660.5
23.145	82683.5
23.150	82707.5
23.155	82696.5
23.160	82689.5
23.165	82682.5
23.170	82688.5
23.175	82683.5
23.180	82689.5
23.185	82696.5
23.190	82685.5
23.195	82699.5
23.200	82681.5
23.205	82661.5
23.210	82663.5
23.215	82698.5
23.220	82696.5
23.225	82701.5
23.230	82701.5
23.235	82692.5
23.240	82703.5
23.245	82696.5
23.250	82699.5
23.255	82701.5
23.260	82699.5
23.265	82703.5
23.270	82659.5
23.275	82666.5
23.280	82688.5
23.285	82706.5
23.290	82692.5
23.295	82694.5
23.300	82685.5
23.305	82688.5
23.310	82689.5
23.315	82685.5
23.320	82686.5
23.325	82693.5
23.330	82697.5
23.335	82667.5
23.340	82662.5
23.345	82679.5
23.350	82697.5
23.355	82697.5
23.360	82685.5
23.365	82692.5
23.370	82690.5
23.375	82694.5
23.380	82704.5
23.385	82701.5
23.390	82699.5
23.395	82699.5
23.400	82686.5
23.405	82664.5
23.410	82678.5
23.415	82702.5
23.420	82700.5
23.425	82690.5
23.430	82685.5
23.435	82688.5
23.440	82692.5
23.445	82690.5
23.450	82695.5
23.455	82689.5
23.460	82687.5
23.465	82699.5
23.470	82663.5
23.475	82669.5
23.480	82677.5
23.485	82704.5
23.490	82690.5
23.495	82696.5
23.500	82697.5
23.505	82698.5
23.510	82701.5
23.515	82700.5
23.520	82706.5
23.525	82704.5
23.530	82693.5
23.535	82668.5
23.540	82670.5
23.545	82693.5
23.550	82698.5
23.555	82698.5
23.560	82696.5
23.565	82696.5
23.570	82694.5
23.575	82696.5
23.580	82686.5
23.585	82698.5
23.590	82691.5
23.595	82695.5
23.600	82681.5
23.605	82655.5
23.610	82670.5
23.615	82696.5
23.620	82699.5
23.625	82709.5
23.630	82692.5
23.635	82700.5
23.640	82701.5
23.645	82706.5
23.650	82700.5
23.655	82700.5
23.660	82699.5
23.665	82696.5
23.670	82664.5
23.675	82676.5
23.680	82697.5
23.685	82703.5
23.690	82697.5
23.695	82699.5
23.700	82694.5
23.705	82690.5
23.710	82688.5
23.715	82688.5
23.720	82683.5
23.725	82691.5
23.730	82696.5
23.735	82666.5
23.740	82660.5
23.745	82677.5
23.750	82694.5
23.755	82697.5
23.760	82699.5
23.765	82703.5
23.770	82694.5
23.775	82703.5
23.780	82693.5
23.785	82706.5
23.790	82692.5
23.795	82699.5
23.800	82680.5
23.805	82663.5
23.810	82681.5
23.815	82699.5
23.820	82691.5
23.825	82686.5
23.830	82687.5
23.835	82694.5
23.840	82681.5
23.845	82690.5
23.850	82685.5
23.855	82692.5
23.860	82692.5
23.865	82694.5
23.870	82659.5
23.875	82661.5
23.880	82683.5
23.885	82702.5
23.890	82701.5
23.895	82702.5
23.900	82690.5
23.905	82696.5
23.910	82695.5
23.915	82707.5
23.920	82696.5
23.925	82692.5
23.930	82691.5
23.935	82672.5
23.940	82661.5
23.945	82685.5
23.950	82708.5
23.955	82695.5
23.960	82689.5
23.965	82696.5
23.970	82683.5
23.975	82688.5
23.980	82684.5
23.985	82692.5
23.990	82690.5
23.995	82692.5
24.000	82664.5
24.005	82656.5
24.010	82665.5
24.015	82696.5
24.020	82695.5
24.025	82699.5
24.030	82697.5
24.035	82698.5
24.040	82691.5
24.045	82696.5
24.050	82690.5
24.055	82688.5
24.060	82696.5
24.065	82687.5
24.070	82656.5
24.075	82667.5
24.080	82698.5
24.085	82699.5
24.090	82690.5
24.095	82696.5
24.100	82689.5
24.105	82689.5
24.110	82682.5
24.115	82690.5
24.120	82687.5
24.125	82686.5
24.130	82685.5
24.135	82657.5
24.140	82655.5
24.145	82672.5
24.150	82688.5
24.155	82689.5
24.160	82682.5
24.165	82696.5
24.170	82687.5
24.175	82699.5
24.180	82692.5
24.185	82700.5
24.190	82692.5
24.195	82697.5
24.200	82664.5
24.205	82660.5
24.210	82672.5
24.215	82697.5
24.220	82695.5
24.225	82693.5
24.230	82672.5
24.235	82684.5
24.240	82677.5
24.245	82680.5
24.250	82683.5
24.255	82688.5
24.260	82679.5
24.265	82682.5
24.270	82648.5
24.275	82657.5
24.280	82681.5
24.285	82695.5
24.290	82688.5
24.295	82689.5
24.300	82690.5
24.305	82697.5
24.310	82687.5
24.315	82699.5
24.320	82692.5
24.325	82691.5
24.330	82697.5
24.335	82663.5
24.340	82660.5
24.345	82681.5
24.350	82688.5
24.355	82689.5
24.360	82679.5
24.365	82680.5
24.370	82681.5
24.375	82678.5
24.380	82686.5
24.385	82679.5
24.390	82684.5
24.395	82681.5
24.400	82661.5
24.405	82648.5
24.410	82662.5
24.415	82691.5
24.420	82683.5
24.425	82689.5
24.430	82689.5
24.435	82685.5
24.440	82683.5
24.445	82687.5
24.450	82686.5
24.455	82685.5
24.460	82695.5
24.465	82675.5
24.470	82648.5
24.475	82665.5
24.480	82681.5
24.485	82699.5
24.490	82681.5
24.495	82691.5
24.500	82685.5
24.505	82687.5
24.510	82683.5
24.515	82683.5
24.520	82683.5
24.525	82687.5
24.530	82679.5
24.535	82653.5
24.540	82653.5
24.545	82669.5
24.550	82684.5
24.555	82685.5
24.560	82688.5
24.565	82685.5
24.570	82685.5
24.575	82691.5
24.580	82693.5
24.585	82692.5
24.590	82685.5
24.595	82684.5
24.600	82661.5
24.605	82652.5
24.610	82668.5
24.615	82694.5
24.620	82688.5
24.625	82683.5
24.630	82683.5
24.635	82680.5
24.640	82680.5
24.645	82683.5
24.650	82678.5
24.655	82687.5
24.660	82688.5
24.665	82681.5
24.670	82644.5
24.675	82659.5
24.680	82687.5
24.685	82690.5
24.690	82689.5
24.695	82698.5
24.700	82679.5
24.705	82696.5
24.710	82688.5
24.715	82698.5
24.720	82693.5
24.725	82701.5
24.730	82683.5
24.735	82660.5
24.740	82666.5
24.745	82692.5
24.750	82689.5
24.755	82702.5
24.760	82692.5
24.765	82686.5
24.770	82681.5
24.775	82687.5
24.780	82681.5
24.785	82689.5
24.790	82692.5
24.795	82690.5
24.800	82668.5
24.805	82657.5
24.810	82666.5
24.815	82697.5
24.820	82701.5
24.825	82698.5
24.830	82688.5
24.835	82688.5
24.840	82696.5
24.845	82695.5
24.850	82696.5
24.855	82696.5
24.860	82698.5
24.865	82676.5
24.870	82656.5
24.875	82674.5
24.880	82695.5
24.885	82699.5
24.890	82685.5
24.895	82680.5
24.900	82683.5
24.905	82683.5
24.910	82683.5
24.915	82689.5
24.920	82675.5
24.925	82690.5
24.930	82684.5
24.935	82657.5
24.940	82657.5
24.945	82681.5
24.950	82693.5
24.955	82691.5
24.960	82691.5
24.965	82691.5
24.970	82688.5
24.975	82696.5
24.980	82704.5
24.985	82705.5
24.990	82690.5
24.995	82690.5
25.000	82664.5
25.005	82668.5
25.010	82677.5
25.015	82699.5
25.020	82701.5
25.025	82694.5
25.030	82689.5
25.035	82685.5
25.040	82677.5
25.045	82683.5
25.050	82689.5
25.055	82683.5
25.060	82688.5
25.065	82674.5
25.070	82652.5
25.075	82661.5
25.080	82685.5
25.085	82693.5
25.090	82694.5
25.095	82689.5
25.100	82688.5
25.105	82695.5
25.110	82690.5
25.115	82695.5
25.120	82699.5
25.125	82692.5
25.130	82690.5
25.135	82655.5
25.140	82669.5
25.145	82682.5
25.150	82699.5
25.155	82693.5
25.160	82692.5
25.165	82686.5
25.170	82677.5
25.175	82683.5
25.180	82688.5
25.185	82688.5
25.190	82692.5
25.195	82693.5
25.200	82663.5
25.205	82654.5
25.210	82667.5
25.215	82694.5
25.220	82694.5
25.225	82689.5
25.230	82687.5
25.235	82679.5
25.240	82689.5
25.245	82691.5
25.250	82691.5
25.255	82692.5
25.260	82695.5
25.265	82673.5
25.270	82658.5
25.275	82677.5
25.280	82704.5
25.285	82691.5
25.290	82680.5
25.295	82683.5
25.300	82687.5
25.305	82675.5
25.310	82682.5
25.315	82690.5
25.320	82689.5
25.325	82688.5
25.330	82690.5
25.335	82661.5
25.340	82658.5
25.345	82678.5
25.350	82692.5
25.355	82694.5
25.360	82694.5
25.365	82690.5
25.370	82688.5
25.375	82703.5
25.380	82692.5
25.385	82697.5
25.390	82696.5
25.395	82703.5
25.400	82661.5
25.405	82658.5
25.410	82681.5
25.415	82694.5
25.420	82698.5
25.425	82694.5
25.430	82685.5
25.435	82682.5
25.440	82690.5
25.445	82694.5
25.450	82687.5
25.455	82690.5
25.460	82690.5
25.465	82670.5
25.470	82653.5
25.475	82666.5
25.480	82692.5
25.485	82691.5
25.490	82693.5
25.495	82696.5
25.500	82691.5
25.505	82694.5
25.510	82692.5
25.515	82703.5
25.520	82686.5
25.525	82698.5
25.530	82695.5
25.535	82659.5
25.540	82671.5
25.545	82691.5
25.550	82708.5
25.555	82694.5
25.560	82689.5
25.565	82694.5
25.570	82689.5
25.575	82688.5
25.580	82700.5
25.585	82696.5
25.590	82694.5
25.595	82712.5
25.600	82670.5
25.605	82664.5
25.610	82670.5
25.615	82698.5
25.620	82713.5
25.625	82703.5
25.630	82697.5
25.635	82700.5
25.640	82701.5
25.645	82702.5
25.650	82701.5
25.655	82702.5
25.660	82688.5
25.665	82688.5
25.670	82669.5
25.675	82686.5
25.680	82694.5
25.685	82697.5
25.690	82692.5
25.695	82695.5
25.700	82696.5
25.705	82694.5
25.710	82685.5
25.715	82693.5
25.720	82705.5
25.725	82700.5
25.730	82693.5
25.735	82664.5
25.740	82669.5
25.745	82693.5
25.750	82702.5
25.755	82708.5
25.760	82702.5
25.765	82694.5
25.770	82700.5
25.775	82702.5
25.780	82707.5
25.785	82704.5
25.790	82702.5
25.795	82707.5
25.800	82674.5
25.805	82672.5
25.810	82681.5
25.815	82711.5
25.820	82693.5
25.825	82696.5
25.830	82694.5
25.835	82687.5
25.840	82693.5
25.845	82688.5
25.850	82689.5
25.855	82704.5
25.860	82697.5
25.865	82679.5
25.870	82661.5
25.875	82674.5
25.880	82696.5
25.885	82699.5
25.890	82699.5
25.895	82694.5
25.900	82698.5
25.905	82708.5
25.910	82702.5
25.915	82712.5
25.920	82697.5
25.925	82706.5
25.930	82697.5
25.935	82670.5
25.940	82680.5
25.945	82705.5
25.950	82704.5
25.955	82701.5
25.960	82699.5
25.965	82698.5
25.970	82699.5
25.975	82693.5
25.980	82693.5
25.985	82694.5
25.990	82703.5
25.995	82705.5
26.000	82681.5
26.005	82665.5
26.010	82680.5
26.015	82698.5
26.020	82693.5
26.025	82704.5
26.030	82702.5
26.035	82700.5
26.040	82700.5
26.045	82707.5
26.050	82703.5
26.055	82705.5
26.060	82709.5
26.065	82687.5
26.070	82669.5
26.075	82686.5
26.080	82704.5
26.085	82700.5
26.090	82695.5
26.095	82700.5
26.100	82690.5
26.105	82702.5
26.110	82686.5
26.115	82697.5
26.120	82688.5
26.125	82702.5
26.130	82692.5
26.135	82668.5
26.140	82662.5
26.145	82696.5
26.150	82707.5
26.155	82699.5
26.160	82698.5
26.165	82706.5
26.170	82699.5
26.175	82699.5
26.180	82702.5
26.185	82704.5
26.190	82700.5
26.195	82705.5
26.200	82676.5
26.205	82670.5
26.210	82689.5
26.215	82703.5
26.220	82704.5
26.225	82698.5
26.230	82698.5
26.235	82704.5
26.240	82692.5
26.245	82688.5
26.250	82697.5
26.255	82692.5
26.260	82695.5
26.265	82678.5
26.270	82659.5
26.275	82679.5
26.280	82701.5
26.285	82698.5
26.290	82697.5
26.295	82696.5
26.300	82688.5
26.305	82704.5
26.310	82701.5
26.315	82706.5
26.320	82708.5
26.325	82707.5
