PK2650 Power Data
Z Position (mm)	105.000	W Position (deg)	72.00
Preform ID	Diameter (mm)	Time Stamp	Start Time	Operator	Serial Number
Test 1	25	03-Nov-22 18:05:01	03-Nov-22 18:06:49	[no user]	266007708
Radius (mm)	Power
-26.370	83028.8
-26.365	83030.8
-26.360	83030.8
-26.355	83007.8
-26.350	82995.8
-26.345	83012.8
-26.340	83041.8
-26.335	83047.8
-26.330	83043.8
-26.325	83037.8
-26.320	83026.8
-26.315	83035.8
-26.310	83026.8
-26.305	83034.8
-26.300	83034.8
-26.295	83054.8
-26.290	83033.8
-26.285	83019.8
-26.280	83019.8
-26.275	83057.8
-26.270	83051.8
-26.265	83062.8
-26.260	83056.8
-26.255	83062.8
-26.250	83060.8
-26.245	83066.8
-26.240	83057.8
-26.235	83058.8
-26.230	83052.8
-26.225	83058.8
-26.220	83023.8
-26.215	83034.8
-26.210	83059.8
-26.205	83072.8
-26.200	83075.8
-26.195	83073.8
-26.190	83071.8
-26.185	83063.8
-26.180	83060.8
-26.175	83064.8
-26.170	83061.8
-26.165	83066.8
-26.160	83078.8
-26.155	83056.8
-26.150	83038.8
-26.145	83057.8
-26.140	83069.8
-26.135	83079.8
-26.130	83078.8
-26.125	83081.8
-26.120	83075.8
-26.115	83082.8
-26.110	83087.8
-26.105	83074.8
-26.100	83076.8
-26.095	83084.8
-26.090	83063.8
-26.085	83038.8
-26.080	83055.8
-26.075	83091.8
-26.070	83087.8
-26.065	83090.8
-26.060	83088.8
-26.055	83088.8
-26.050	83073.8
-26.045	83091.8
-26.040	83077.8
-26.035	83081.8
-26.030	83097.8
-26.025	83096.8
-26.020	83071.8
-26.015	83067.8
-26.010	83091.8
-26.005	83104.7
-26.000	83098.7
-25.995	83103.7
-25.990	83085.8
-25.985	83104.7
-25.980	83086.8
-25.975	83099.8
-25.970	83092.8
-25.965	83095.8
-25.960	83088.8
-25.955	83074.8
-25.950	83049.8
-25.945	83081.8
-25.940	83099.7
-25.935	83101.7
-25.930	83095.8
-25.925	83100.7
-25.920	83096.8
-25.915	83096.8
-25.910	83093.8
-25.905	83096.8
-25.900	83097.8
-25.895	83099.7
-25.890	83084.8
-25.885	83072.8
-25.880	83067.8
-25.875	83114.7
-25.870	83113.7
-25.865	83101.7
-25.860	83106.7
-25.855	83104.7
-25.850	83100.7
-25.845	83089.8
-25.840	83091.8
-25.835	83104.7
-25.830	83096.8
-25.825	83090.8
-25.820	83067.8
-25.815	83072.8
-25.810	83101.7
-25.805	83116.7
-25.800	83097.7
-25.795	83103.7
-25.790	83100.7
-25.785	83102.7
-25.780	83091.8
-25.775	83099.8
-25.770	83091.8
-25.765	83109.7
-25.760	83104.7
-25.755	83082.8
-25.750	83068.8
-25.745	83094.8
-25.740	83114.7
-25.735	83118.7
-25.730	83115.7
-25.725	83117.7
-25.720	83100.7
-25.715	83090.8
-25.710	83097.8
-25.705	83103.7
-25.700	83110.7
-25.695	83111.7
-25.690	83080.8
-25.685	83066.8
-25.680	83072.8
-25.675	83100.7
-25.670	83105.7
-25.665	83105.7
-25.660	83099.8
-25.655	83094.8
-25.650	83089.8
-25.645	83100.7
-25.640	83099.8
-25.635	83098.8
-25.630	83097.8
-25.625	83095.8
-25.620	83076.8
-25.615	83076.8
-25.610	83106.7
-25.605	83116.7
-25.600	83105.7
-25.595	83113.7
-25.590	83106.7
-25.585	83100.7
-25.580	83091.8
-25.575	83098.7
-25.570	83098.8
-25.565	83109.7
-25.560	83105.7
-25.555	83087.8
-25.550	83065.8
-25.545	83096.7
-25.540	83109.7
-25.535	83107.7
-25.530	83093.8
-25.525	83098.7
-25.520	83092.8
-25.515	83099.7
-25.510	83089.8
-25.505	83099.8
-25.500	83105.7
-25.495	83115.7
-25.490	83092.8
-25.485	83074.8
-25.480	83079.8
-25.475	83107.7
-25.470	83113.7
-25.465	83117.7
-25.460	83118.7
-25.455	83112.7
-25.450	83099.7
-25.445	83090.8
-25.440	83094.8
-25.435	83101.7
-25.430	83107.7
-25.425	83096.8
-25.420	83075.8
-25.415	83077.8
-25.410	83101.7
-25.405	83107.7
-25.400	83098.7
-25.395	83101.7
-25.390	83088.8
-25.385	83100.7
-25.380	83098.7
-25.375	83104.7
-25.370	83104.7
-25.365	83115.7
-25.360	83112.7
-25.355	83090.8
-25.350	83072.8
-25.345	83099.7
-25.340	83109.7
-25.335	83113.7
-25.330	83113.7
-25.325	83117.7
-25.320	83111.7
-25.315	83104.7
-25.310	83097.8
-25.305	83107.7
-25.300	83102.7
-25.295	83109.7
-25.290	83083.8
-25.285	83071.8
-25.280	83084.8
-25.275	83105.7
-25.270	83099.7
-25.265	83109.7
-25.260	83095.8
-25.255	83100.7
-25.250	83097.8
-25.245	83095.7
-25.240	83099.7
-25.235	83103.7
-25.230	83106.7
-25.225	83106.7
-25.220	83081.8
-25.215	83079.8
-25.210	83116.7
-25.205	83116.7
-25.200	83118.7
-25.195	83118.7
-25.190	83117.7
-25.185	83108.7
-25.180	83112.7
-25.175	83101.7
-25.170	83105.7
-25.165	83100.7
-25.160	83112.7
-25.155	83089.8
-25.150	83079.8
-25.145	83103.7
-25.140	83114.7
-25.135	83111.7
-25.130	83109.7
-25.125	83108.7
-25.120	83100.7
-25.115	83101.7
-25.110	83103.7
-25.105	83110.7
-25.100	83111.7
-25.095	83125.7
-25.090	83107.7
-25.085	83091.7
-25.080	83090.8
-25.075	83120.7
-25.070	83122.7
-25.065	83123.7
-25.060	83125.7
-25.055	83122.7
-25.050	83108.7
-25.045	83113.7
-25.040	83110.7
-25.035	83105.7
-25.030	83101.7
-25.025	83097.7
-25.020	83069.8
-25.015	83079.8
-25.010	83107.7
-25.005	83116.7
-25.000	83104.7
-24.995	83106.7
-24.990	83099.7
-24.985	83092.8
-24.980	83089.8
-24.975	83102.7
-24.970	83101.7
-24.965	83106.7
-24.960	83111.7
-24.955	83096.7
-24.950	83067.8
-24.945	83097.7
-24.940	83108.7
-24.935	83108.7
-24.930	83104.7
-24.925	83105.7
-24.920	83101.7
-24.915	83102.7
-24.910	83105.7
-24.905	83100.7
-24.900	83093.7
-24.895	83099.7
-24.890	83069.8
-24.885	83058.8
-24.880	83083.8
-24.875	83103.7
-24.870	83098.7
-24.865	83098.7
-24.860	83093.7
-24.855	83089.8
-24.850	83073.8
-24.845	83082.8
-24.840	83074.8
-24.835	83090.8
-24.830	83095.7
-24.825	83090.8
-24.820	83064.8
-24.815	83064.8
-24.810	83085.8
-24.805	83096.7
-24.800	83092.7
-24.795	83096.7
-24.790	83084.8
-24.785	83093.7
-24.780	83078.8
-24.775	83083.8
-24.770	83084.8
-24.765	83080.8
-24.760	83072.8
-24.755	83048.8
-24.750	83033.8
-24.745	83073.8
-24.740	83084.8
-24.735	83075.8
-24.730	83071.8
-24.725	83073.8
-24.720	83059.8
-24.715	83060.8
-24.710	83062.8
-24.705	83068.8
-24.700	83066.8
-24.695	83071.8
-24.690	83065.8
-24.685	83053.8
-24.680	83052.8
-24.675	83078.8
-24.670	83074.8
-24.665	83074.8
-24.660	83073.8
-24.655	83076.8
-24.650	83062.8
-24.645	83068.8
-24.640	83064.8
-24.635	83067.8
-24.630	83067.8
-24.625	83042.8
-24.620	83029.8
-24.615	83041.8
-24.610	83056.8
-24.605	83071.8
-24.600	83056.8
-24.595	83067.8
-24.590	83052.8
-24.585	83062.8
-24.580	83051.8
-24.575	83054.8
-24.570	83054.8
-24.565	83059.8
-24.560	83058.8
-24.555	83044.8
-24.550	83031.8
-24.545	83065.8
-24.540	83059.8
-24.535	83065.8
-24.530	83064.8
-24.525	83061.8
-24.520	83051.8
-24.515	83058.8
-24.510	83060.8
-24.505	83058.8
-24.500	83046.8
-24.495	83048.8
-24.490	83028.8
-24.485	83007.8
-24.480	83033.8
-24.475	83049.8
-24.470	83052.8
-24.465	83048.8
-24.460	83050.8
-24.455	83037.8
-24.450	83033.8
-24.445	83044.8
-24.440	83038.8
-24.435	83043.8
-24.430	83049.8
-24.425	83040.8
-24.420	83013.8
-24.415	83027.8
-24.410	83058.8
-24.405	83062.8
-24.400	83053.8
-24.395	83052.8
-24.390	83045.8
-24.385	83051.8
-24.380	83043.8
-24.375	83046.8
-24.370	83046.8
-24.365	83046.8
-24.360	83044.8
-24.355	83010.8
-24.350	83012.8
-24.345	83044.8
-24.340	83046.8
-24.335	83050.8
-24.330	83047.8
-24.325	83050.8
-24.320	83040.8
-24.315	83042.8
-24.310	83035.8
-24.305	83040.8
-24.300	83041.8
-24.295	83048.8
-24.290	83030.8
-24.285	83011.8
-24.280	83025.8
-24.275	83054.8
-24.270	83056.8
-24.265	83049.8
-24.260	83044.8
-24.255	83046.8
-24.250	83041.8
-24.245	83041.8
-24.240	83041.8
-24.235	83044.8
-24.230	83041.8
-24.225	83020.8
-24.220	83008.8
-24.215	83019.8
-24.210	83043.8
-24.205	83046.8
-24.200	83036.8
-24.195	83038.8
-24.190	83036.8
-24.185	83038.8
-24.180	83039.8
-24.175	83045.8
-24.170	83047.8
-24.165	83048.8
-24.160	83039.8
-24.155	83016.8
-24.150	83016.8
-24.145	83052.8
-24.140	83055.8
-24.135	83057.8
-24.130	83052.8
-24.125	83039.8
-24.120	83034.8
-24.115	83039.8
-24.110	83035.8
-24.105	83041.8
-24.100	83042.8
-24.095	83043.8
-24.090	83007.8
-24.085	83007.8
-24.080	83029.8
-24.075	83049.8
-24.070	83041.8
-24.065	83042.8
-24.060	83036.8
-24.055	83038.8
-24.050	83027.8
-24.045	83041.8
-24.040	83039.8
-24.035	83042.8
-24.030	83046.8
-24.025	83037.8
-24.020	83013.8
-24.015	83019.8
-24.010	83058.8
-24.005	83058.8
-24.000	83054.8
-23.995	83054.8
-23.990	83047.8
-23.985	83049.8
-23.980	83038.8
-23.975	83047.8
-23.970	83046.8
-23.965	83060.8
-23.960	83044.8
-23.955	83030.8
-23.950	83019.8
-23.945	83044.8
-23.940	83055.8
-23.935	83058.8
-23.930	83050.8
-23.925	83052.8
-23.920	83043.8
-23.915	83052.8
-23.910	83051.8
-23.905	83061.8
-23.900	83055.8
-23.895	83069.8
-23.890	83041.8
-23.885	83030.8
-23.880	83044.8
-23.875	83065.8
-23.870	83065.8
-23.865	83074.8
-23.860	83056.8
-23.855	83060.8
-23.850	83063.8
-23.845	83057.8
-23.840	83051.8
-23.835	83061.8
-23.830	83059.8
-23.825	83037.8
-23.820	83027.8
-23.815	83045.8
-23.810	83062.8
-23.805	83065.8
-23.800	83060.8
-23.795	83056.8
-23.790	83050.8
-23.785	83050.8
-23.780	83053.8
-23.775	83056.8
-23.770	83062.8
-23.765	83074.8
-23.760	83064.8
-23.755	83041.8
-23.750	83016.8
-23.745	83060.8
-23.740	83074.8
-23.735	83074.8
-23.730	83063.8
-23.725	83069.8
-23.720	83067.8
-23.715	83059.8
-23.710	83060.8
-23.705	83069.8
-23.700	83051.8
-23.695	83054.8
-23.690	83025.8
-23.685	83025.8
-23.680	83041.8
-23.675	83062.8
-23.670	83061.8
-23.665	83067.8
-23.660	83059.8
-23.655	83053.8
-23.650	83055.8
-23.645	83054.8
-23.640	83052.8
-23.635	83072.8
-23.630	83072.8
-23.625	83058.8
-23.620	83030.8
-23.615	83045.8
-23.610	83066.8
-23.605	83079.8
-23.600	83064.8
-23.595	83084.8
-23.590	83066.8
-23.585	83069.8
-23.580	83063.8
-23.575	83068.8
-23.570	83063.8
-23.565	83063.8
-23.560	83055.8
-23.555	83035.8
-23.550	83032.8
-23.545	83071.8
-23.540	83069.8
-23.535	83078.8
-23.530	83073.8
-23.525	83068.8
-23.520	83055.8
-23.515	83066.8
-23.510	83064.8
-23.505	83072.8
-23.500	83077.8
-23.495	83086.8
-23.490	83063.8
-23.485	83051.8
-23.480	83071.8
-23.475	83085.8
-23.470	83087.8
-23.465	83089.8
-23.460	83079.8
-23.455	83081.8
-23.450	83081.8
-23.445	83082.8
-23.440	83085.8
-23.435	83090.8
-23.430	83087.8
-23.425	83070.8
-23.420	83043.8
-23.415	83079.8
-23.410	83086.8
-23.405	83091.8
-23.400	83091.8
-23.395	83097.7
-23.390	83077.8
-23.385	83081.8
-23.380	83081.8
-23.375	83091.8
-23.370	83090.8
-23.365	83099.7
-23.360	83086.8
-23.355	83075.8
-23.350	83063.8
-23.345	83101.7
-23.340	83100.7
-23.335	83099.7
-23.330	83096.7
-23.325	83100.7
-23.320	83092.8
-23.315	83092.8
-23.310	83090.8
-23.305	83100.7
-23.300	83095.8
-23.295	83089.8
-23.290	83060.8
-23.285	83059.8
-23.280	83089.8
-23.275	83104.7
-23.270	83098.7
-23.265	83099.7
-23.260	83090.8
-23.255	83095.7
-23.250	83090.8
-23.245	83091.8
-23.240	83092.8
-23.235	83106.7
-23.230	83106.7
-23.225	83092.8
-23.220	83070.8
-23.215	83076.8
-23.210	83106.7
-23.205	83105.7
-23.200	83104.7
-23.195	83103.7
-23.190	83103.7
-23.185	83095.8
-23.180	83094.7
-23.175	83100.7
-23.170	83101.7
-23.165	83102.7
-23.160	83083.8
-23.155	83075.8
-23.150	83073.8
-23.145	83107.7
-23.140	83104.7
-23.135	83107.7
-23.130	83099.7
-23.125	83096.8
-23.120	83092.8
-23.115	83101.7
-23.110	83091.8
-23.105	83099.8
-23.100	83109.7
-23.095	83119.7
-23.090	83091.8
-23.085	83075.8
-23.080	83100.7
-23.075	83109.7
-23.070	83107.7
-23.065	83111.7
-23.060	83105.7
-23.055	83097.7
-23.050	83089.8
-23.045	83096.8
-23.040	83089.8
-23.035	83102.7
-23.030	83101.7
-23.025	83073.8
-23.020	83072.8
-23.015	83085.8
-23.010	83092.8
-23.005	83098.7
-23.000	83092.8
-22.995	83096.7
-22.990	83092.8
-22.985	83096.8
-22.980	83090.8
-22.975	83093.8
-22.970	83099.7
-22.965	83111.7
-22.960	83089.8
-22.955	83077.8
-22.950	83076.8
-22.945	83111.7
-22.940	83109.7
-22.935	83110.7
-22.930	83108.7
-22.925	83106.7
-22.920	83100.7
-22.915	83102.7
-22.910	83104.7
-22.905	83102.7
-22.900	83099.7
-22.895	83102.7
-22.890	83073.8
-22.885	83072.8
-22.880	83086.8
-22.875	83102.7
-22.870	83101.7
-22.865	83098.7
-22.860	83102.7
-22.855	83099.7
-22.850	83090.8
-22.845	83095.7
-22.840	83093.8
-22.835	83099.7
-22.830	83104.7
-22.825	83088.8
-22.820	83064.8
-22.815	83088.8
-22.810	83104.7
-22.805	83114.7
-22.800	83111.7
-22.795	83104.7
-22.790	83110.7
-22.785	83105.7
-22.780	83092.8
-22.775	83101.7
-22.770	83096.7
-22.765	83103.7
-22.760	83083.8
-22.755	83071.8
-22.750	83074.8
-22.745	83102.7
-22.740	83094.8
-22.735	83096.7
-22.730	83096.7
-22.725	83106.7
-22.720	83100.7
-22.715	83094.8
-22.710	83081.8
-22.705	83097.8
-22.700	83104.7
-22.695	83106.7
-22.690	83081.8
-22.685	83077.8
-22.680	83094.8
-22.675	83113.7
-22.670	83110.7
-22.665	83112.7
-22.660	83104.7
-22.655	83105.7
-22.650	83098.7
-22.645	83089.8
-22.640	83083.8
-22.635	83102.7
-22.630	83098.7
-22.625	83081.8
-22.620	83064.8
-22.615	83084.8
-22.610	83100.7
-22.605	83104.7
-22.600	83085.8
-22.595	83096.7
-22.590	83101.7
-22.585	83095.7
-22.580	83088.8
-22.575	83096.8
-22.570	83101.7
-22.565	83110.7
-22.560	83096.7
-22.555	83074.8
-22.550	83082.8
-22.545	83117.7
-22.540	83100.7
-22.535	83112.7
-22.530	83110.7
-22.525	83107.7
-22.520	83100.7
-22.515	83105.7
-22.510	83108.7
-22.505	83105.7
-22.500	83095.8
-22.495	83101.7
-22.490	83075.8
-22.485	83076.8
-22.480	83105.7
-22.475	83104.7
-22.470	83106.7
-22.465	83107.7
-22.460	83092.8
-22.455	83099.7
-22.450	83101.7
-22.445	83103.7
-22.440	83103.7
-22.435	83115.7
-22.430	83101.7
-22.425	83088.8
-22.420	83063.8
-22.415	83091.8
-22.410	83107.7
-22.405	83116.7
-22.400	83111.7
-22.395	83110.7
-22.390	83104.7
-22.385	83101.7
-22.380	83100.7
-22.375	83099.7
-22.370	83097.8
-22.365	83100.7
-22.360	83078.8
-22.355	83072.8
-22.350	83069.8
-22.345	83111.7
-22.340	83100.7
-22.335	83101.7
-22.330	83094.7
-22.325	83095.7
-22.320	83087.8
-22.315	83093.8
-22.310	83088.8
-22.305	83103.7
-22.300	83102.7
-22.295	83094.8
-22.290	83078.8
-22.285	83065.8
-22.280	83105.7
-22.275	83099.7
-22.270	83104.7
-22.265	83113.7
-22.260	83100.7
-22.255	83103.7
-22.250	83093.8
-22.245	83095.8
-22.240	83090.8
-22.235	83094.8
-22.230	83082.8
-22.225	83063.8
-22.220	83054.8
-22.215	83081.8
-22.210	83104.7
-22.205	83091.8
-22.200	83099.7
-22.195	83085.8
-22.190	83083.8
-22.185	83076.8
-22.180	83084.8
-22.175	83079.8
-22.170	83095.8
-22.165	83104.7
-22.160	83077.8
-22.155	83070.8
-22.150	83058.8
-22.145	83106.7
-22.140	83088.8
-22.135	83107.7
-22.130	83091.8
-22.125	83091.8
-22.120	83088.8
-22.115	83083.8
-22.110	83082.8
-22.105	83094.8
-22.100	83092.8
-22.095	83068.8
-22.090	83050.8
-22.085	83053.8
-22.080	83088.8
-22.075	83089.8
-22.070	83082.8
-22.065	83082.8
-22.060	83073.8
-22.055	83080.8
-22.050	83074.8
-22.045	83080.8
-22.040	83077.8
-22.035	83086.8
-22.030	83088.8
-22.025	83074.8
-22.020	83053.8
-22.015	83076.8
-22.010	83087.8
-22.005	83095.8
-22.000	83094.7
-21.995	83085.8
-21.990	83084.8
-21.985	83085.8
-21.980	83084.8
-21.975	83087.8
-21.970	83073.8
-21.965	83082.8
-21.960	83047.8
-21.955	83040.8
-21.950	83050.8
-21.945	83082.8
-21.940	83073.8
-21.935	83079.8
-21.930	83069.8
-21.925	83073.8
-21.920	83064.8
-21.915	83069.8
-21.910	83063.8
-21.905	83076.8
-21.900	83079.8
-21.895	83071.8
-21.890	83052.8
-21.885	83050.8
-21.880	83067.8
-21.875	83085.8
-21.870	83074.8
-21.865	83078.8
-21.860	83074.8
-21.855	83080.8
-21.850	83063.8
-21.845	83072.8
-21.840	83076.8
-21.835	83086.8
-21.830	83063.8
-21.825	83036.8
-21.820	83024.8
-21.815	83053.8
-21.810	83068.8
-21.805	83073.8
-21.800	83068.8
-21.795	83062.8
-21.790	83058.8
-21.785	83052.8
-21.780	83054.8
-21.775	83063.8
-21.770	83066.8
-21.765	83070.8
-21.760	83052.8
-21.755	83034.8
-21.750	83047.8
-21.745	83075.8
-21.740	83065.8
-21.735	83079.8
-21.730	83068.8
-21.725	83064.8
-21.720	83063.8
-21.715	83064.8
-21.710	83056.8
-21.705	83071.8
-21.700	83063.8
-21.695	83046.8
-21.690	83023.8
-21.685	83032.8
-21.680	83056.8
-21.675	83063.8
-21.670	83054.8
-21.665	83058.8
-21.660	83050.8
-21.655	83056.8
-21.650	83046.8
-21.645	83054.8
-21.640	83050.8
-21.635	83063.8
-21.630	83064.8
-21.625	83042.8
-21.620	83027.8
-21.615	83055.8
-21.610	83066.8
-21.605	83070.8
-21.600	83072.8
-21.595	83069.8
-21.590	83053.8
-21.585	83051.8
-21.580	83049.8
-21.575	83057.8
-21.570	83052.8
-21.565	83057.8
-21.560	83033.8
-21.555	83017.8
-21.550	83033.8
-21.545	83048.8
-21.540	83056.8
-21.535	83055.8
-21.530	83048.8
-21.525	83052.8
-21.520	83039.8
-21.515	83044.8
-21.510	83038.8
-21.505	83044.8
-21.500	83048.8
-21.495	83039.8
-21.490	83012.8
-21.485	83002.8
-21.480	83041.8
-21.475	83034.8
-21.470	83011.8
-21.465	82994.8
-21.460	82938.9
-21.455	82876.0
-21.450	82788.1
-21.445	82681.2
-21.440	82516.4
-21.435	82308.6
-21.430	82012.0
-21.425	81617.4
-21.420	81165.9
-21.415	80731.4
-21.410	80283.9
-21.405	79840.5
-21.400	79388.1
-21.395	78853.8
-21.390	78249.6
-21.385	77628.4
-21.380	77021.2
-21.375	76400.1
-21.370	75668.9
-21.365	74758.0
-21.360	73809.0
-21.355	73328.7
-21.350	73165.1
-21.345	72743.5
-21.340	72829.4
-21.335	73594.8
-21.330	73638.6
-21.325	73671.4
-21.320	74521.7
-21.315	75561.9
-21.310	76460.2
-21.305	76819.8
-21.300	76262.2
-21.295	74850.0
-21.290	74451.2
-21.285	75400.4
-21.280	75843.0
-21.275	75438.2
-21.270	76142.7
-21.265	76107.6
-21.260	74505.7
-21.255	75198.2
-21.250	77096.7
-21.245	77845.2
-21.240	78090.9
-21.235	77981.0
-21.230	77545.2
-21.225	76390.0
-21.220	75470.6
-21.215	76383.9
-21.210	77205.4
-21.205	77372.2
-21.200	77858.8
-21.195	78487.2
-21.190	78420.3
-21.185	77386.0
-21.180	75792.1
-21.175	75528.2
-21.170	77198.0
-21.165	78017.4
-21.160	76296.7
-21.155	74378.0
-21.150	75125.4
-21.145	77490.7
-21.140	78529.9
-21.135	78379.0
-21.130	77845.3
-21.125	77786.4
-21.120	77952.2
-21.115	77759.3
-21.110	77632.4
-21.105	78112.0
-21.100	78709.6
-21.095	78930.4
-21.090	78810.5
-21.085	78633.6
-21.080	78543.6
-21.075	78484.6
-21.070	78459.6
-21.065	78408.7
-21.060	78486.6
-21.055	78895.3
-21.050	79291.0
-21.045	79443.8
-21.040	79361.9
-21.035	79097.1
-21.030	78612.4
-21.025	78241.7
-21.020	78266.7
-21.015	78539.4
-21.010	78807.2
-21.005	78977.1
-21.000	78959.1
-20.995	78961.1
-20.990	79052.0
-20.985	79190.9
-20.980	79254.8
-20.975	79219.8
-20.970	79139.9
-20.965	79098.9
-20.960	79024.9
-20.955	79049.9
-20.950	79134.8
-20.945	79241.7
-20.940	79339.6
-20.935	79361.6
-20.930	79326.6
-20.925	79273.7
-20.920	79186.7
-20.915	79097.8
-20.910	79037.8
-20.905	78953.8
-20.900	78807.9
-20.895	78740.0
-20.890	78800.9
-20.885	78878.9
-20.880	78963.8
-20.875	79049.7
-20.870	79109.7
-20.865	79173.6
-20.860	79187.6
-20.855	79147.6
-20.850	79107.6
-20.845	79123.6
-20.840	79184.6
-20.835	79274.5
-20.830	79334.4
-20.825	79339.4
-20.820	79355.4
-20.815	79460.3
-20.810	79527.2
-20.805	79619.2
-20.800	79662.1
-20.795	79699.1
-20.790	79765.1
-20.785	79794.0
-20.780	79804.0
-20.775	79828.0
-20.770	79840.0
-20.765	79882.9
-20.760	79884.9
-20.755	79904.9
-20.750	79938.9
-20.745	79968.8
-20.740	79937.8
-20.735	79922.8
-20.730	79879.9
-20.725	79857.9
-20.720	79845.9
-20.715	79829.9
-20.710	79804.9
-20.705	79810.9
-20.700	79851.9
-20.695	79879.8
-20.690	79866.8
-20.685	79899.8
-20.680	79967.8
-20.675	79951.8
-20.670	79937.8
-20.665	79948.7
-20.660	79970.7
-20.655	79980.7
-20.650	79927.7
-20.645	79900.8
-20.640	79877.8
-20.635	79898.8
-20.630	79906.7
-20.625	79925.7
-20.620	80001.7
-20.615	80105.6
-20.610	80159.5
-20.605	80216.5
-20.600	80231.5
-20.595	80256.4
-20.590	80297.4
-20.585	80329.4
-20.580	80353.4
-20.575	80371.3
-20.570	80388.3
-20.565	80400.3
-20.560	80389.3
-20.555	80387.3
-20.550	80400.3
-20.545	80418.3
-20.540	80424.3
-20.535	80439.3
-20.530	80415.3
-20.525	80411.3
-20.520	80421.3
-20.515	80434.2
-20.510	80425.2
-20.505	80426.2
-20.500	80404.3
-20.495	80363.3
-20.490	80332.3
-20.485	80346.3
-20.480	80381.3
-20.475	80397.2
-20.470	80385.2
-20.465	80362.3
-20.460	80321.3
-20.455	80303.3
-20.450	80310.3
-20.445	80327.3
-20.440	80312.3
-20.435	80306.3
-20.430	80278.3
-20.425	80252.3
-20.420	80237.3
-20.415	80237.3
-20.410	80219.3
-20.405	80188.3
-20.400	80185.3
-20.395	80206.3
-20.390	80219.3
-20.385	80230.3
-20.380	80268.3
-20.375	80304.2
-20.370	80324.2
-20.365	80355.2
-20.360	80366.2
-20.355	80399.1
-20.350	80457.1
-20.345	80509.1
-20.340	80530.0
-20.335	80561.0
-20.330	80573.0
-20.325	80598.0
-20.320	80611.0
-20.315	80624.9
-20.310	80645.9
-20.305	80664.9
-20.300	80664.9
-20.295	80651.9
-20.290	80642.9
-20.285	80633.9
-20.280	80628.9
-20.275	80630.9
-20.270	80624.9
-20.265	80630.9
-20.260	80601.9
-20.255	80584.9
-20.250	80571.9
-20.245	80592.9
-20.240	80600.9
-20.235	80604.9
-20.230	80576.9
-20.225	80559.9
-20.220	80579.9
-20.215	80629.9
-20.210	80646.9
-20.205	80655.9
-20.200	80655.9
-20.195	80667.8
-20.190	80668.8
-20.185	80669.8
-20.180	80682.8
-20.175	80689.8
-20.170	80696.8
-20.165	80705.8
-20.160	80699.8
-20.155	80689.8
-20.150	80743.8
-20.145	80774.7
-20.140	80808.7
-20.135	80818.7
-20.130	80840.7
-20.125	80857.7
-20.120	80864.7
-20.115	80873.6
-20.110	80901.6
-20.105	80920.6
-20.100	80928.6
-20.095	80909.6
-20.090	80895.6
-20.085	80901.6
-20.080	80916.6
-20.075	80919.6
-20.070	80918.6
-20.065	80937.6
-20.060	80935.6
-20.055	80939.6
-20.050	80936.6
-20.045	80935.6
-20.040	80932.6
-20.035	80940.6
-20.030	80934.6
-20.025	80923.6
-20.020	80920.6
-20.015	80958.5
-20.010	80970.5
-20.005	80979.5
-20.000	80984.5
-19.995	80994.5
-19.990	80988.5
-19.985	80970.5
-19.980	80962.5
-19.975	80955.5
-19.970	80942.5
-19.965	80941.5
-19.960	80917.5
-19.955	80910.5
-19.950	80923.5
-19.945	80928.5
-19.940	80905.5
-19.935	80884.6
-19.930	80869.6
-19.925	80847.6
-19.920	80834.6
-19.915	80835.6
-19.910	80815.6
-19.905	80818.6
-19.900	80801.6
-19.895	80776.6
-19.890	80743.6
-19.885	80750.6
-19.880	80765.6
-19.875	80753.6
-19.870	80724.6
-19.865	80703.7
-19.860	80683.7
-19.855	80686.7
-19.850	80695.7
-19.845	80714.6
-19.840	80701.7
-19.835	80686.7
-19.830	80671.7
-19.825	80674.7
-19.820	80686.6
-19.815	80719.6
-19.810	80718.6
-19.805	80736.6
-19.800	80720.6
-19.795	80720.6
-19.790	80722.6
-19.785	80728.6
-19.780	80717.6
-19.775	80721.6
-19.770	80718.6
-19.765	80722.6
-19.760	80705.6
-19.755	80698.6
-19.750	80720.6
-19.745	80738.6
-19.740	80728.6
-19.735	80734.6
-19.730	80746.6
-19.725	80732.6
-19.720	80717.6
-19.715	80711.6
-19.710	80705.6
-19.705	80698.6
-19.700	80702.6
-19.695	80689.6
-19.690	80692.6
-19.685	80725.6
-19.680	80740.5
-19.675	80722.6
-19.670	80705.6
-19.665	80694.6
-19.660	80692.6
-19.655	80698.6
-19.650	80684.6
-19.645	80684.6
-19.640	80679.6
-19.635	80697.6
-19.630	80696.6
-19.625	80697.6
-19.620	80710.6
-19.615	80765.5
-19.610	80765.5
-19.605	80800.5
-19.600	80820.5
-19.595	80861.4
-19.590	80883.4
-19.585	80903.4
-19.580	80887.4
-19.575	80886.4
-19.570	80885.4
-19.565	80910.4
-19.560	80894.4
-19.555	80920.4
-19.550	80949.4
-19.545	80976.3
-19.540	80962.3
-19.535	80983.3
-19.530	81010.3
-19.525	81028.3
-19.520	81048.3
-19.515	81054.3
-19.510	81071.3
-19.505	81084.2
-19.500	81079.3
-19.495	81046.3
-19.490	81032.3
-19.485	81045.3
-19.480	81051.3
-19.475	81058.3
-19.470	81050.3
-19.465	81047.3
-19.460	81025.3
-19.455	81015.3
-19.450	81010.3
-19.445	80992.3
-19.440	80963.3
-19.435	80966.3
-19.430	80933.3
-19.425	80922.3
-19.420	80927.3
-19.415	80961.3
-19.410	80944.3
-19.405	80949.3
-19.400	80930.3
-19.395	80904.3
-19.390	80890.4
-19.385	80882.4
-19.380	80886.4
-19.375	80905.3
-19.370	80928.3
-19.365	80948.3
-19.360	80903.3
-19.355	80892.3
-19.350	80920.3
-19.345	80971.3
-19.340	80989.3
-19.335	81004.3
-19.330	81015.3
-19.325	81015.3
-19.320	81026.2
-19.315	81056.2
-19.310	81083.2
-19.305	81126.2
-19.300	81153.1
-19.295	81149.1
-19.290	81157.1
-19.285	81200.1
-19.280	81229.1
-19.275	81243.1
-19.270	81251.1
-19.265	81256.1
-19.260	81263.0
-19.255	81285.0
-19.250	81290.0
-19.245	81315.0
-19.240	81320.0
-19.235	81328.0
-19.230	81314.0
-19.225	81295.0
-19.220	81287.0
-19.215	81314.0
-19.210	81305.0
-19.205	81306.0
-19.200	81309.0
-19.195	81295.0
-19.190	81282.0
-19.185	81272.0
-19.180	81262.0
-19.175	81247.0
-19.170	81227.1
-19.165	81216.1
-19.160	81169.1
-19.155	81175.1
-19.150	81196.1
-19.145	81185.1
-19.140	81166.1
-19.135	81169.1
-19.130	81144.1
-19.125	81131.1
-19.120	81133.1
-19.115	81149.1
-19.110	81165.1
-19.105	81188.1
-19.100	81197.1
-19.095	81171.1
-19.090	81159.1
-19.085	81155.1
-19.080	81166.1
-19.075	81181.1
-19.070	81184.1
-19.065	81186.1
-19.060	81186.1
-19.055	81189.1
-19.050	81187.1
-19.045	81194.1
-19.040	81194.1
-19.035	81201.1
-19.030	81179.1
-19.025	81161.1
-19.020	81153.1
-19.015	81165.1
-19.010	81173.1
-19.005	81163.1
-19.000	81154.1
-18.995	81147.1
-18.990	81150.1
-18.985	81157.1
-18.980	81152.1
-18.975	81156.1
-18.970	81175.0
-18.965	81177.0
-18.960	81164.1
-18.955	81147.1
-18.950	81165.1
-18.945	81163.1
-18.940	81149.1
-18.935	81155.1
-18.930	81148.1
-18.925	81153.1
-18.920	81145.1
-18.915	81155.0
-18.910	81127.1
-18.905	81122.1
-18.900	81103.1
-18.895	81084.1
-18.890	81085.1
-18.885	81101.1
-18.880	81127.1
-18.875	81149.0
-18.870	81152.0
-18.865	81144.0
-18.860	81131.1
-18.855	81137.1
-18.850	81136.1
-18.845	81138.1
-18.840	81148.0
-18.835	81151.0
-18.830	81152.0
-18.825	81146.0
-18.820	81166.0
-18.815	81213.0
-18.810	81218.0
-18.805	81238.0
-18.800	81264.9
-18.795	81297.9
-18.790	81306.9
-18.785	81318.9
-18.780	81327.9
-18.775	81348.9
-18.770	81354.9
-18.765	81357.9
-18.760	81347.9
-18.755	81346.9
-18.750	81379.9
-18.745	81381.8
-18.740	81385.8
-18.735	81387.8
-18.730	81397.8
-18.725	81415.8
-18.720	81413.8
-18.715	81421.8
-18.710	81422.8
-18.705	81442.8
-18.700	81435.8
-18.695	81420.8
-18.690	81418.8
-18.685	81447.8
-18.680	81467.8
-18.675	81484.8
-18.670	81484.8
-18.665	81484.8
-18.660	81482.8
-18.655	81488.8
-18.650	81487.8
-18.645	81501.7
-18.640	81505.7
-18.635	81520.7
-18.630	81488.8
-18.625	81481.8
-18.620	81495.7
-18.615	81534.7
-18.610	81528.7
-18.605	81520.7
-18.600	81522.7
-18.595	81515.7
-18.590	81511.7
-18.585	81519.7
-18.580	81526.7
-18.575	81528.7
-18.570	81534.7
-18.565	81525.7
-18.560	81505.7
-18.555	81514.7
-18.550	81533.7
-18.545	81544.7
-18.540	81530.7
-18.535	81541.7
-18.530	81529.7
-18.525	81529.7
-18.520	81522.7
-18.515	81529.7
-18.510	81518.7
-18.505	81515.7
-18.500	81524.7
-18.495	81497.7
-18.490	81484.7
-18.485	81515.7
-18.480	81515.7
-18.475	81523.7
-18.470	81521.7
-18.465	81527.7
-18.460	81525.7
-18.455	81535.7
-18.450	81532.7
-18.445	81539.7
-18.440	81536.7
-18.435	81543.7
-18.430	81519.7
-18.425	81512.7
-18.420	81517.7
-18.415	81547.7
-18.410	81554.7
-18.405	81559.7
-18.400	81543.7
-18.395	81547.7
-18.390	81532.7
-18.385	81540.7
-18.380	81538.7
-18.375	81551.7
-18.370	81540.7
-18.365	81532.7
-18.360	81515.7
-18.355	81525.7
-18.350	81553.7
-18.345	81565.6
-18.340	81567.6
-18.335	81557.7
-18.330	81565.6
-18.325	81561.6
-18.320	81567.6
-18.315	81564.6
-18.310	81567.6
-18.305	81574.6
-18.300	81578.6
-18.295	81549.7
-18.290	81536.7
-18.285	81573.6
-18.280	81589.6
-18.275	81586.6
-18.270	81581.6
-18.265	81576.6
-18.260	81564.6
-18.255	81546.6
-18.250	81533.7
-18.245	81533.7
-18.240	81524.7
-18.235	81528.7
-18.230	81495.7
-18.225	81462.7
-18.220	81478.7
-18.215	81489.7
-18.210	81481.7
-18.205	81474.7
-18.200	81455.7
-18.195	81451.7
-18.190	81435.7
-18.185	81438.7
-18.180	81423.7
-18.175	81427.7
-18.170	81424.7
-18.165	81413.7
-18.160	81388.8
-18.155	81390.8
-18.150	81409.7
-18.145	81406.7
-18.140	81390.7
-18.135	81376.8
-18.130	81351.8
-18.125	81340.8
-18.120	81334.8
-18.115	81324.8
-18.110	81335.8
-18.105	81334.8
-18.100	81327.8
-18.095	81304.8
-18.090	81290.8
-18.085	81317.8
-18.080	81334.8
-18.075	81333.8
-18.070	81340.8
-18.065	81346.8
-18.060	81354.8
-18.055	81373.8
-18.050	81379.8
-18.045	81379.8
-18.040	81382.7
-18.035	81411.7
-18.030	81390.7
-18.025	81382.7
-18.020	81398.7
-18.015	81445.7
-18.010	81449.7
-18.005	81456.7
-18.000	81471.7
-17.995	81470.7
-17.990	81464.7
-17.985	81471.7
-17.980	81463.7
-17.975	81472.7
-17.970	81486.7
-17.965	81471.7
-17.960	81463.7
-17.955	81487.7
-17.950	81505.6
-17.945	81505.6
-17.940	81488.7
-17.935	81506.6
-17.930	81503.6
-17.925	81506.6
-17.920	81506.6
-17.915	81513.6
-17.910	81509.6
-17.905	81512.6
-17.900	81515.6
-17.895	81499.6
-17.890	81481.7
-17.885	81501.6
-17.880	81526.6
-17.875	81528.6
-17.870	81530.6
-17.865	81541.6
-17.860	81533.6
-17.855	81536.6
-17.850	81530.6
-17.845	81534.6
-17.840	81539.6
-17.835	81529.6
-17.830	81506.6
-17.825	81498.6
-17.820	81521.6
-17.815	81544.6
-17.810	81559.6
-17.805	81560.6
-17.800	81558.6
-17.795	81564.6
-17.790	81554.6
-17.785	81570.6
-17.780	81575.6
-17.775	81588.6
-17.770	81594.6
-17.765	81586.6
-17.760	81572.6
-17.755	81580.6
-17.750	81614.5
-17.745	81620.5
-17.740	81611.5
-17.735	81619.5
-17.730	81617.5
-17.725	81628.5
-17.720	81616.5
-17.715	81615.5
-17.710	81619.5
-17.705	81630.5
-17.700	81618.5
-17.695	81591.5
-17.690	81594.5
-17.685	81623.5
-17.680	81625.5
-17.675	81630.5
-17.670	81618.5
-17.665	81618.5
-17.660	81608.5
-17.655	81610.5
-17.650	81600.5
-17.645	81592.5
-17.640	81599.5
-17.635	81603.5
-17.630	81585.5
-17.625	81571.5
-17.620	81574.5
-17.615	81589.5
-17.610	81592.5
-17.605	81596.5
-17.600	81606.5
-17.595	81593.5
-17.590	81586.5
-17.585	81591.5
-17.580	81600.5
-17.575	81599.5
-17.570	81598.5
-17.565	81570.5
-17.560	81571.5
-17.555	81573.5
-17.550	81617.5
-17.545	81616.5
-17.540	81615.5
-17.535	81603.5
-17.530	81596.5
-17.525	81606.5
-17.520	81608.5
-17.515	81607.5
-17.510	81610.5
-17.505	81624.5
-17.500	81633.5
-17.495	81635.5
-17.490	81629.5
-17.485	81669.5
-17.480	81671.5
-17.475	81669.5
-17.470	81672.5
-17.465	81656.5
-17.460	81659.5
-17.455	81672.5
-17.450	81667.5
-17.445	81663.5
-17.440	81654.5
-17.435	81665.5
-17.430	81635.5
-17.425	81635.5
-17.420	81655.5
-17.415	81682.4
-17.410	81674.4
-17.405	81676.4
-17.400	81675.4
-17.395	81676.4
-17.390	81682.4
-17.385	81682.4
-17.380	81688.4
-17.375	81705.4
-17.370	81717.4
-17.365	81708.4
-17.360	81687.4
-17.355	81702.4
-17.350	81731.4
-17.345	81737.4
-17.340	81744.4
-17.335	81733.4
-17.330	81739.4
-17.325	81743.4
-17.320	81744.4
-17.315	81749.4
-17.310	81755.4
-17.305	81763.4
-17.300	81751.4
-17.295	81735.4
-17.290	81719.4
-17.285	81754.4
-17.280	81756.4
-17.275	81758.4
-17.270	81754.4
-17.265	81755.4
-17.260	81742.4
-17.255	81757.4
-17.250	81746.4
-17.245	81757.4
-17.240	81761.4
-17.235	81775.4
-17.230	81734.4
-17.225	81724.4
-17.220	81732.4
-17.215	81752.4
-17.210	81736.4
-17.205	81739.4
-17.200	81726.4
-17.195	81717.4
-17.190	81724.4
-17.185	81722.4
-17.180	81726.4
-17.175	81737.4
-17.170	81739.4
-17.165	81721.4
-17.160	81701.4
-17.155	81710.4
-17.150	81731.4
-17.145	81734.4
-17.140	81742.4
-17.135	81739.4
-17.130	81736.4
-17.125	81737.4
-17.120	81749.4
-17.115	81747.4
-17.110	81753.4
-17.105	81758.4
-17.100	81750.4
-17.095	81734.4
-17.090	81733.4
-17.085	81760.4
-17.080	81756.4
-17.075	81767.3
-17.070	81774.3
-17.065	81771.3
-17.060	81782.3
-17.055	81781.3
-17.050	81778.3
-17.045	81780.3
-17.040	81771.3
-17.035	81774.3
-17.030	81747.4
-17.025	81743.4
-17.020	81763.3
-17.015	81777.3
-17.010	81779.3
-17.005	81773.3
-17.000	81763.3
-16.995	81768.3
-16.990	81763.3
-16.985	81755.4
-16.980	81753.4
-16.975	81767.3
-16.970	81759.3
-16.965	81744.4
-16.960	81733.4
-16.955	81750.3
-16.950	81768.3
-16.945	81769.3
-16.940	81778.3
-16.935	81769.3
-16.930	81760.3
-16.925	81762.3
-16.920	81752.3
-16.915	81751.3
-16.910	81756.3
-16.905	81758.3
-16.900	81744.4
-16.895	81716.4
-16.890	81700.4
-16.885	81726.4
-16.880	81716.4
-16.875	81707.4
-16.870	81707.4
-16.865	81700.4
-16.860	81689.4
-16.855	81680.4
-16.850	81671.4
-16.845	81678.4
-16.840	81676.4
-16.835	81679.4
-16.830	81644.4
-16.825	81644.4
-16.820	81672.4
-16.815	81684.4
-16.810	81683.4
-16.805	81669.4
-16.800	81673.4
-16.795	81675.4
-16.790	81665.4
-16.785	81663.4
-16.780	81670.4
-16.775	81670.4
-16.770	81674.4
-16.765	81655.4
-16.760	81646.4
-16.755	81651.4
-16.750	81664.4
-16.745	81664.4
-16.740	81660.4
-16.735	81656.4
-16.730	81650.4
-16.725	81663.4
-16.720	81654.4
-16.715	81669.4
-16.710	81673.4
-16.705	81684.4
-16.700	81665.4
-16.695	81660.4
-16.690	81644.4
-16.685	81679.4
-16.680	81672.4
-16.675	81657.4
-16.670	81660.4
-16.665	81654.4
-16.660	81647.4
-16.655	81643.4
-16.650	81638.4
-16.645	81642.4
-16.640	81640.4
-16.635	81637.4
-16.630	81616.4
-16.625	81598.4
-16.620	81622.4
-16.615	81633.4
-16.610	81622.4
-16.605	81623.4
-16.600	81621.4
-16.595	81630.4
-16.590	81626.4
-16.585	81630.4
-16.580	81629.4
-16.575	81641.4
-16.570	81636.4
-16.565	81616.4
-16.560	81594.4
-16.555	81611.4
-16.550	81630.4
-16.545	81638.4
-16.540	81627.4
-16.535	81636.4
-16.530	81615.4
-16.525	81614.4
-16.520	81606.4
-16.515	81622.4
-16.510	81623.4
-16.505	81637.4
-16.500	81620.4
-16.495	81619.4
-16.490	81625.4
-16.485	81665.4
-16.480	81656.4
-16.475	81660.4
-16.470	81653.4
-16.465	81648.4
-16.460	81653.4
-16.455	81659.4
-16.450	81671.4
-16.445	81675.4
-16.440	81683.4
-16.435	81685.4
-16.430	81668.4
-16.425	81657.4
-16.420	81684.4
-16.415	81698.3
-16.410	81697.3
-16.405	81698.3
-16.400	81693.3
-16.395	81694.3
-16.390	81689.3
-16.385	81699.3
-16.380	81697.3
-16.375	81704.3
-16.370	81711.3
-16.365	81695.3
-16.360	81692.3
-16.355	81708.3
-16.350	81727.3
-16.345	81726.3
-16.340	81718.3
-16.335	81722.3
-16.330	81706.3
-16.325	81705.3
-16.320	81705.3
-16.315	81714.3
-16.310	81717.3
-16.305	81716.3
-16.300	81707.3
-16.295	81698.3
-16.290	81687.3
-16.285	81725.3
-16.280	81722.3
-16.275	81724.3
-16.270	81726.3
-16.265	81724.3
-16.260	81702.3
-16.255	81691.3
-16.250	81680.3
-16.245	81689.3
-16.240	81678.3
-16.235	81672.3
-16.230	81646.4
-16.225	81647.4
-16.220	81671.3
-16.215	81674.3
-16.210	81672.3
-16.205	81671.3
-16.200	81654.4
-16.195	81646.4
-16.190	81626.4
-16.185	81611.4
-16.180	81615.4
-16.175	81632.4
-16.170	81626.4
-16.165	81607.4
-16.160	81567.4
-16.155	81572.4
-16.150	81579.4
-16.145	81585.4
-16.140	81589.4
-16.135	81589.4
-16.130	81565.4
-16.125	81557.4
-16.120	81530.4
-16.115	81527.4
-16.110	81528.4
-16.105	81543.4
-16.100	81523.4
-16.095	81514.5
-16.090	81521.5
-16.085	81552.4
-16.080	81546.4
-16.075	81554.4
-16.070	81544.4
-16.065	81549.4
-16.060	81543.4
-16.055	81555.4
-16.050	81546.4
-16.045	81555.4
-16.040	81561.4
-16.035	81555.4
-16.030	81531.4
-16.025	81537.4
-16.020	81559.4
-16.015	81565.4
-16.010	81571.4
-16.005	81584.4
-16.000	81590.4
-15.995	81597.4
-15.990	81596.4
-15.985	81597.4
-15.980	81597.4
-15.975	81600.4
-15.970	81606.4
-15.965	81593.4
-15.960	81593.4
-15.955	81613.4
-15.950	81634.4
-15.945	81646.4
-15.940	81647.3
-15.935	81647.3
-15.930	81641.3
-15.925	81643.3
-15.920	81657.3
-15.915	81664.3
-15.910	81677.3
-15.905	81685.3
-15.900	81674.3
-15.895	81661.3
-15.890	81677.3
-15.885	81712.3
-15.880	81712.3
-15.875	81728.3
-15.870	81721.3
-15.865	81721.3
-15.860	81732.3
-15.855	81747.3
-15.850	81737.3
-15.845	81746.3
-15.840	81748.3
-15.835	81752.3
-15.830	81725.3
-15.825	81726.3
-15.820	81759.3
-15.815	81772.2
-15.810	81762.3
-15.805	81765.2
-15.800	81754.3
-15.795	81757.3
-15.790	81762.3
-15.785	81755.3
-15.780	81750.3
-15.775	81773.2
-15.770	81770.2
-15.765	81750.3
-15.760	81740.3
-15.755	81751.3
-15.750	81781.2
-15.745	81777.2
-15.740	81770.2
-15.735	81768.2
-15.730	81750.3
-15.725	81754.3
-15.720	81752.3
-15.715	81758.2
-15.710	81754.3
-15.705	81754.3
-15.700	81724.3
-15.695	81705.3
-15.690	81717.3
-15.685	81748.2
-15.680	81747.3
-15.675	81739.3
-15.670	81735.3
-15.665	81728.3
-15.660	81720.3
-15.655	81723.3
-15.650	81708.3
-15.645	81713.3
-15.640	81719.3
-15.635	81721.3
-15.630	81690.3
-15.625	81682.3
-15.620	81702.3
-15.615	81714.3
-15.610	81716.3
-15.605	81712.3
-15.600	81706.3
-15.595	81711.3
-15.590	81706.3
-15.585	81716.3
-15.580	81702.3
-15.575	81712.3
-15.570	81702.3
-15.565	81668.3
-15.560	81669.3
-15.555	81690.3
-15.550	81705.3
-15.545	81711.3
-15.540	81703.3
-15.535	81696.3
-15.530	81698.3
-15.525	81696.3
-15.520	81685.3
-15.515	81688.3
-15.510	81688.3
-15.505	81695.3
-15.500	81686.3
-15.495	81658.3
-15.490	81662.3
-15.485	81695.3
-15.480	81705.3
-15.475	81708.3
-15.470	81704.3
-15.465	81707.3
-15.460	81705.3
-15.455	81711.3
-15.450	81698.3
-15.445	81711.3
-15.440	81709.3
-15.435	81697.3
-15.430	81669.3
-15.425	81680.3
-15.420	81712.3
-15.415	81715.3
-15.410	81708.3
-15.405	81711.3
-15.400	81714.3
-15.395	81721.3
-15.390	81724.3
-15.385	81735.2
-15.380	81735.2
-15.375	81729.2
-15.370	81733.2
-15.365	81704.3
-15.360	81699.3
-15.355	81715.3
-15.350	81729.2
-15.345	81731.2
-15.340	81721.3
-15.335	81726.2
-15.330	81718.3
-15.325	81719.3
-15.320	81715.3
-15.315	81731.2
-15.310	81720.2
-15.305	81717.3
-15.300	81693.3
-15.295	81678.3
-15.290	81672.3
-15.285	81694.3
-15.280	81687.3
-15.275	81678.3
-15.270	81659.3
-15.265	81658.3
-15.260	81653.3
-15.255	81660.3
-15.250	81658.3
-15.245	81649.3
-15.240	81643.3
-15.235	81632.3
-15.230	81596.3
-15.225	81574.4
-15.220	81604.3
-15.215	81590.3
-15.210	81575.3
-15.205	81559.4
-15.200	81535.4
-15.195	81521.4
-15.190	81513.4
-15.185	81497.4
-15.180	81483.4
-15.175	81466.4
-15.170	81438.5
-15.165	81397.5
-15.160	81373.5
-15.155	81399.5
-15.150	81400.5
-15.145	81399.5
-15.140	81388.5
-15.135	81385.5
-15.130	81384.5
-15.125	81380.5
-15.120	81382.5
-15.115	81382.5
-15.110	81381.5
-15.105	81386.5
-15.100	81371.5
-15.095	81363.5
-15.090	81360.5
-15.085	81396.5
-15.080	81388.5
-15.075	81384.5
-15.070	81379.5
-15.065	81376.5
-15.060	81363.5
-15.055	81382.5
-15.050	81385.5
-15.045	81384.5
-15.040	81382.5
-15.035	81369.5
-15.030	81366.5
-15.025	81374.5
-15.020	81426.5
-15.015	81427.5
-15.010	81438.4
-15.005	81448.4
-15.000	81451.4
-14.995	81466.4
-14.990	81479.4
-14.985	81490.4
-14.980	81507.4
-14.975	81528.4
-14.970	81534.4
-14.965	81528.4
-14.960	81513.4
-14.955	81547.4
-14.950	81570.3
-14.945	81585.3
-14.940	81584.3
-14.935	81595.3
-14.930	81598.3
-14.925	81602.3
-14.920	81612.3
-14.915	81620.3
-14.910	81623.3
-14.905	81639.3
-14.900	81617.3
-14.895	81613.3
-14.890	81629.3
-14.885	81674.3
-14.880	81665.3
-14.875	81676.3
-14.870	81676.3
-14.865	81676.3
-14.860	81679.3
-14.855	81683.3
-14.850	81693.2
-14.845	81698.2
-14.840	81700.2
-14.835	81698.2
-14.830	81670.3
-14.825	81671.3
-14.820	81700.2
-14.815	81712.2
-14.810	81714.2
-14.805	81703.2
-14.800	81703.2
-14.795	81703.2
-14.790	81703.2
-14.785	81702.2
-14.780	81695.2
-14.775	81703.2
-14.770	81697.2
-14.765	81666.3
-14.760	81656.3
-14.755	81670.3
-14.750	81686.2
-14.745	81683.2
-14.740	81676.3
-14.735	81671.3
-14.730	81659.3
-14.725	81671.3
-14.720	81671.3
-14.715	81685.2
-14.710	81693.2
-14.705	81680.2
-14.700	81653.3
-14.695	81634.3
-14.690	81638.3
-14.685	81667.3
-14.680	81676.2
-14.675	81686.2
-14.670	81678.2
-14.665	81665.3
-14.660	81654.3
-14.655	81661.3
-14.650	81660.3
-14.645	81660.3
-14.640	81666.3
-14.635	81660.3
-14.630	81636.3
-14.625	81661.3
-14.620	81675.2
-14.615	81680.2
-14.610	81677.2
-14.605	81682.2
-14.600	81689.2
-14.595	81694.2
-14.590	81686.2
-14.585	81687.2
-14.580	81694.2
-14.575	81707.2
-14.570	81712.2
-14.565	81695.2
-14.560	81689.2
-14.555	81716.2
-14.550	81729.2
-14.545	81733.2
-14.540	81726.2
-14.535	81722.2
-14.530	81736.2
-14.525	81721.2
-14.520	81723.2
-14.515	81732.2
-14.510	81734.2
-14.505	81735.2
-14.500	81720.2
-14.495	81712.2
-14.490	81727.2
-14.485	81753.2
-14.480	81750.2
-14.475	81755.2
-14.470	81752.2
-14.465	81748.2
-14.460	81750.2
-14.455	81763.2
-14.450	81775.2
-14.445	81783.2
-14.440	81790.1
-14.435	81786.1
-14.430	81762.2
-14.425	81759.2
-14.420	81796.1
-14.415	81801.1
-14.410	81804.1
-14.405	81803.1
-14.400	81805.1
-14.395	81804.1
-14.390	81803.1
-14.385	81802.1
-14.380	81801.1
-14.375	81804.1
-14.370	81784.1
-14.365	81776.2
-14.360	81773.2
-14.355	81800.1
-14.350	81807.1
-14.345	81814.1
-14.340	81808.1
-14.335	81808.1
-14.330	81806.1
-14.325	81807.1
-14.320	81808.1
-14.315	81804.1
-14.310	81819.1
-14.305	81816.1
-14.300	81796.1
-14.295	81780.2
-14.290	81786.1
-14.285	81815.1
-14.280	81811.1
-14.275	81814.1
-14.270	81813.1
-14.265	81816.1
-14.260	81810.1
-14.255	81807.1
-14.250	81808.1
-14.245	81804.1
-14.240	81805.1
-14.235	81775.1
-14.230	81767.2
-14.225	81777.1
-14.220	81812.1
-14.215	81819.1
-14.210	81809.1
-14.205	81807.1
-14.200	81796.1
-14.195	81803.1
-14.190	81804.1
-14.185	81811.1
-14.180	81809.1
-14.175	81817.1
-14.170	81818.1
-14.165	81797.1
-14.160	81784.1
-14.155	81815.1
-14.150	81816.1
-14.145	81814.1
-14.140	81815.1
-14.135	81822.1
-14.130	81822.1
-14.125	81820.1
-14.120	81824.1
-14.115	81820.1
-14.110	81833.1
-14.105	81823.1
-14.100	81794.1
-14.095	81791.1
-14.090	81807.1
-14.085	81826.1
-14.080	81821.1
-14.075	81821.1
-14.070	81813.1
-14.065	81817.1
-14.060	81818.1
-14.055	81825.1
-14.050	81824.1
-14.045	81835.1
-14.040	81840.1
-14.035	81830.1
-14.030	81820.1
-14.025	81811.1
-14.020	81843.1
-14.015	81832.1
-14.010	81838.1
-14.005	81837.1
-14.000	81832.1
-13.995	81840.1
-13.990	81834.1
-13.985	81833.1
-13.980	81833.1
-13.975	81843.1
-13.970	81828.1
-13.965	81804.1
-13.960	81801.1
-13.955	81834.1
-13.950	81827.1
-13.945	81832.1
-13.940	81827.1
-13.935	81834.1
-13.930	81824.1
-13.925	81824.1
-13.920	81822.1
-13.915	81825.1
-13.910	81825.1
-13.905	81830.1
-13.900	81799.1
-13.895	81799.1
-13.890	81805.1
-13.885	81832.1
-13.880	81830.1
-13.875	81835.1
-13.870	81839.1
-13.865	81836.1
-13.860	81842.1
-13.855	81837.1
-13.850	81844.1
-13.845	81842.1
-13.840	81835.1
-13.835	81822.1
-13.830	81810.1
-13.825	81816.1
-13.820	81851.1
-13.815	81849.1
-13.810	81849.1
-13.805	81839.1
-13.800	81844.1
-13.795	81857.1
-13.790	81856.1
-13.785	81856.1
-13.780	81866.1
-13.775	81869.1
-13.770	81859.1
-13.765	81846.1
-13.760	81837.1
-13.755	81865.1
-13.750	81879.0
-13.745	81881.0
-13.740	81878.0
-13.735	81883.0
-13.730	81869.1
-13.725	81876.1
-13.720	81864.1
-13.715	81890.0
-13.710	81875.1
-13.705	81885.0
-13.700	81854.1
-13.695	81859.1
-13.690	81879.0
-13.685	81889.0
-13.680	81888.0
-13.675	81887.0
-13.670	81884.0
-13.665	81886.0
-13.660	81878.0
-13.655	81878.0
-13.650	81879.0
-13.645	81884.0
-13.640	81890.0
-13.635	81880.0
-13.630	81839.1
-13.625	81847.1
-13.620	81876.0
-13.615	81875.0
-13.610	81868.1
-13.605	81864.1
-13.600	81850.1
-13.595	81855.1
-13.590	81853.1
-13.585	81843.1
-13.580	81844.1
-13.575	81845.1
-13.570	81836.1
-13.565	81807.1
-13.560	81806.1
-13.555	81836.1
-13.550	81828.1
-13.545	81817.1
-13.540	81810.1
-13.535	81804.1
-13.530	81797.1
-13.525	81790.1
-13.520	81788.1
-13.515	81799.1
-13.510	81799.1
-13.505	81793.1
-13.500	81754.1
-13.495	81738.1
-13.490	81746.1
-13.485	81764.1
-13.480	81759.1
-13.475	81753.1
-13.470	81735.1
-13.465	81721.2
-13.460	81709.2
-13.455	81709.2
-13.450	81695.2
-13.445	81705.2
-13.440	81696.2
-13.435	81672.2
-13.430	81650.2
-13.425	81661.2
-13.420	81689.2
-13.415	81690.2
-13.410	81689.2
-13.405	81696.2
-13.400	81683.2
-13.395	81683.2
-13.390	81683.2
-13.385	81697.2
-13.380	81688.2
-13.375	81696.2
-13.370	81693.2
-13.365	81673.2
-13.360	81669.2
-13.355	81693.2
-13.350	81705.2
-13.345	81708.2
-13.340	81713.2
-13.335	81701.2
-13.330	81707.2
-13.325	81710.2
-13.320	81709.2
-13.315	81721.1
-13.310	81709.2
-13.305	81716.2
-13.300	81695.2
-13.295	81681.2
-13.290	81716.1
-13.285	81739.1
-13.280	81735.1
-13.275	81739.1
-13.270	81729.1
-13.265	81725.1
-13.260	81732.1
-13.255	81733.1
-13.250	81732.1
-13.245	81751.1
-13.240	81747.1
-13.235	81736.1
-13.230	81726.1
-13.225	81733.1
-13.220	81750.1
-13.215	81767.1
-13.210	81771.1
-13.205	81772.1
-13.200	81773.1
-13.195	81774.1
-13.190	81767.1
-13.185	81771.1
-13.180	81775.1
-13.175	81771.1
-13.170	81759.1
-13.165	81751.1
-13.160	81764.1
-13.155	81786.1
-13.150	81781.1
-13.145	81781.1
-13.140	81784.1
-13.135	81781.1
-13.130	81790.1
-13.125	81787.1
-13.120	81780.1
-13.115	81784.1
-13.110	81786.1
-13.105	81787.1
-13.100	81754.1
-13.095	81747.1
-13.090	81778.1
-13.085	81786.1
-13.080	81783.1
-13.075	81788.1
-13.070	81782.1
-13.065	81778.1
-13.060	81773.1
-13.055	81767.1
-13.050	81762.1
-13.045	81768.1
-13.040	81761.1
-13.035	81744.1
-13.030	81726.1
-13.025	81747.1
-13.020	81764.1
-13.015	81756.1
-13.010	81752.1
-13.005	81754.1
-13.000	81747.1
-12.995	81756.1
-12.990	81746.1
-12.985	81751.1
-12.980	81761.1
-12.975	81763.1
-12.970	81748.1
-12.965	81734.1
-12.960	81724.1
-12.955	81751.1
-12.950	81744.1
-12.945	81758.1
-12.940	81755.1
-12.935	81757.1
-12.930	81749.1
-12.925	81742.1
-12.920	81744.1
-12.915	81748.1
-12.910	81743.1
-12.905	81737.1
-12.900	81719.1
-12.895	81715.1
-12.890	81739.1
-12.885	81752.1
-12.880	81746.1
-12.875	81756.1
-12.870	81750.1
-12.865	81755.1
-12.860	81753.1
-12.855	81756.1
-12.850	81759.1
-12.845	81771.1
-12.840	81783.1
-12.835	81764.1
-12.830	81747.1
-12.825	81761.1
-12.820	81785.1
-12.815	81789.1
-12.810	81786.1
-12.805	81794.1
-12.800	81790.1
-12.795	81791.1
-12.790	81783.1
-12.785	81790.1
-12.780	81787.1
-12.775	81800.1
-12.770	81780.1
-12.765	81770.1
-12.760	81765.1
-12.755	81795.1
-12.750	81788.1
-12.745	81779.1
-12.740	81786.1
-12.735	81790.1
-12.730	81776.1
-12.725	81788.1
-12.720	81787.1
-12.715	81794.1
-12.710	81800.1
-12.705	81799.1
-12.700	81785.1
-12.695	81769.1
-12.690	81795.1
-12.685	81806.1
-12.680	81804.1
-12.675	81816.0
-12.670	81813.1
-12.665	81823.0
-12.660	81820.0
-12.655	81821.0
-12.650	81821.0
-12.645	81816.1
-12.640	81821.0
-12.635	81788.1
-12.630	81780.1
-12.625	81794.1
-12.620	81820.0
-12.615	81812.1
-12.610	81814.0
-12.605	81828.0
-12.600	81816.0
-12.595	81820.0
-12.590	81827.0
-12.585	81818.1
-12.580	81816.0
-12.575	81833.0
-12.570	81817.0
-12.565	81796.1
-12.560	81793.1
-12.555	81831.0
-12.550	81830.0
-12.545	81830.0
-12.540	81826.0
-12.535	81837.0
-12.530	81825.0
-12.525	81835.0
-12.520	81827.0
-12.515	81834.0
-12.510	81826.0
-12.505	81813.0
-12.500	81792.1
-12.495	81791.1
-12.490	81817.0
-12.485	81832.0
-12.480	81825.0
-12.475	81825.0
-12.470	81820.0
-12.465	81826.0
-12.460	81817.0
-12.455	81821.0
-12.450	81830.0
-12.445	81840.0
-12.440	81847.0
-12.435	81824.0
-12.430	81815.0
-12.425	81829.0
-12.420	81840.0
-12.415	81847.0
-12.410	81846.0
-12.405	81841.0
-12.400	81834.0
-12.395	81844.0
-12.390	81845.0
-12.385	81847.0
-12.380	81843.0
-12.375	81845.0
-12.370	81818.0
-12.365	81812.0
-12.360	81820.0
-12.355	81841.0
-12.350	81848.0
-12.345	81855.0
-12.340	81845.0
-12.335	81851.0
-12.330	81852.0
-12.325	81852.0
-12.320	81853.0
-12.315	81867.0
-12.310	81866.0
-12.305	81871.0
-12.300	81849.0
-12.295	81843.0
-12.290	81867.0
-12.285	81877.0
-12.280	81882.0
-12.275	81885.0
-12.270	81873.0
-12.265	81873.0
-12.260	81870.0
-12.255	81877.0
-12.250	81865.0
-12.245	81879.0
-12.240	81884.0
-12.235	81858.0
-12.230	81846.0
-12.225	81875.0
-12.220	81883.0
-12.215	81889.0
-12.210	81887.0
-12.205	81902.0
-12.200	81893.0
-12.195	81890.0
-12.190	81895.0
-12.185	81894.0
-12.180	81896.0
-12.175	81910.0
-12.170	81901.0
-12.165	81885.0
-12.160	81888.0
-12.155	81923.0
-12.150	81921.0
-12.145	81923.0
-12.140	81911.0
-12.135	81921.0
-12.130	81918.0
-12.125	81908.0
-12.120	81915.0
-12.115	81920.0
-12.110	81930.9
-12.105	81927.9
-12.100	81903.0
-12.095	81903.0
-12.090	81927.9
-12.085	81937.9
-12.080	81936.9
-12.075	81939.9
-12.070	81935.9
-12.065	81942.9
-12.060	81935.9
-12.055	81945.9
-12.050	81937.9
-12.045	81951.9
-12.040	81951.9
-12.035	81934.9
-12.030	81916.0
-12.025	81944.9
-12.020	81957.9
-12.015	81970.9
-12.010	81961.9
-12.005	81957.9
-12.000	81957.9
-11.995	81960.9
-11.990	81951.9
-11.985	81955.9
-11.980	81946.9
-11.975	81959.9
-11.970	81935.9
-11.965	81921.9
-11.960	81920.9
-11.955	81953.9
-11.950	81953.9
-11.945	81949.9
-11.940	81953.9
-11.935	81954.9
-11.930	81946.9
-11.925	81959.9
-11.920	81952.9
-11.915	81958.9
-11.910	81966.9
-11.905	81962.9
-11.900	81942.9
-11.895	81930.9
-11.890	81967.9
-11.885	81970.9
-11.880	81965.9
-11.875	81966.9
-11.870	81975.9
-11.865	81966.9
-11.860	81960.9
-11.855	81963.9
-11.850	81965.9
-11.845	81973.9
-11.840	81976.9
-11.835	81950.9
-11.830	81931.9
-11.825	81950.9
-11.820	81953.9
-11.815	81954.9
-11.810	81955.9
-11.805	81964.9
-11.800	81959.9
-11.795	81971.9
-11.790	81955.9
-11.785	81949.9
-11.780	81948.9
-11.775	81959.9
-11.770	81937.9
-11.765	81925.9
-11.760	81926.9
-11.755	81958.9
-11.750	81951.9
-11.745	81958.9
-11.740	81950.9
-11.735	81943.9
-11.730	81937.9
-11.725	81935.9
-11.720	81933.9
-11.715	81937.9
-11.710	81936.9
-11.705	81921.9
-11.700	81902.9
-11.695	81898.0
-11.690	81924.9
-11.685	81929.9
-11.680	81926.9
-11.675	81930.9
-11.670	81914.9
-11.665	81920.9
-11.660	81930.9
-11.655	81919.9
-11.650	81910.9
-11.645	81923.9
-11.640	81920.9
-11.635	81897.9
-11.630	81884.0
-11.625	81908.9
-11.620	81925.9
-11.615	81936.9
-11.610	81926.9
-11.605	81932.9
-11.600	81920.9
-11.595	81921.9
-11.590	81912.9
-11.585	81918.9
-11.580	81915.9
-11.575	81921.9
-11.570	81890.0
-11.565	81878.0
-11.560	81884.0
-11.555	81903.9
-11.550	81898.9
-11.545	81905.9
-11.540	81896.0
-11.535	81896.0
-11.530	81888.0
-11.525	81888.0
-11.520	81881.0
-11.515	81896.0
-11.510	81890.0
-11.505	81891.0
-11.500	81866.0
-11.495	81871.0
-11.490	81900.9
-11.485	81905.9
-11.480	81905.9
-11.475	81898.0
-11.470	81897.9
-11.465	81896.9
-11.460	81885.0
-11.455	81885.0
-11.450	81884.0
-11.445	81892.0
-11.440	81879.0
-11.435	81867.0
-11.430	81855.0
-11.425	81889.0
-11.420	81894.9
-11.415	81896.9
-11.410	81887.0
-11.405	81888.0
-11.400	81888.0
-11.395	81895.9
-11.390	81903.9
-11.385	81900.9
-11.380	81905.9
-11.375	81912.9
-11.370	81891.9
-11.365	81874.0
-11.360	81876.0
-11.355	81906.9
-11.350	81897.9
-11.345	81901.9
-11.340	81892.9
-11.335	81893.9
-11.330	81896.9
-11.325	81900.9
-11.320	81896.9
-11.315	81898.9
-11.310	81896.9
-11.305	81878.0
-11.300	81866.0
-11.295	81872.0
-11.290	81903.9
-11.285	81896.9
-11.280	81895.9
-11.275	81885.0
-11.270	81876.0
-11.265	81877.0
-11.260	81879.0
-11.255	81885.0
-11.250	81887.9
-11.245	81895.9
-11.240	81898.9
-11.235	81880.0
-11.230	81870.0
-11.225	81891.9
-11.220	81903.9
-11.215	81911.9
-11.210	81896.9
-11.205	81899.9
-11.200	81900.9
-11.195	81893.9
-11.190	81895.9
-11.185	81904.9
-11.180	81893.9
-11.175	81890.9
-11.170	81865.0
-11.165	81866.0
-11.160	81875.0
-11.155	81905.9
-11.150	81892.9
-11.145	81899.9
-11.140	81884.9
-11.135	81887.9
-11.130	81882.0
-11.125	81881.9
-11.120	81888.9
-11.115	81902.9
-11.110	81901.9
-11.105	81890.9
-11.100	81866.0
-11.095	81867.0
-11.090	81894.9
-11.085	81902.9
-11.080	81894.9
-11.075	81900.9
-11.070	81894.9
-11.065	81902.9
-11.060	81892.9
-11.055	81894.9
-11.050	81901.9
-11.045	81893.9
-11.040	81888.9
-11.035	81870.0
-11.030	81857.0
-11.025	81895.9
-11.020	81901.9
-11.015	81898.9
-11.010	81900.9
-11.005	81895.9
-11.000	81892.9
-10.995	81891.9
-10.990	81890.9
-10.985	81898.9
-10.980	81905.9
-10.975	81911.9
-10.970	81893.9
-10.965	81880.9
-10.960	81892.9
-10.955	81920.9
-10.950	81922.9
-10.945	81939.9
-10.940	81924.9
-10.935	81927.9
-10.930	81929.9
-10.925	81918.9
-10.920	81917.9
-10.915	81923.9
-10.910	81936.9
-10.905	81924.9
-10.900	81905.9
-10.895	81915.9
-10.890	81928.9
-10.885	81930.9
-10.880	81932.9
-10.875	81933.9
-10.870	81938.9
-10.865	81940.9
-10.860	81940.9
-10.855	81939.9
-10.850	81944.9
-10.845	81955.9
-10.840	81963.9
-10.835	81933.9
-10.830	81929.9
-10.825	81958.9
-10.820	81955.9
-10.815	81964.9
-10.810	81966.9
-10.805	81966.9
-10.800	81968.9
-10.795	81960.9
-10.790	81960.9
-10.785	81964.9
-10.780	81961.9
-10.775	81960.9
-10.770	81938.9
-10.765	81924.9
-10.760	81945.9
-10.755	81965.9
-10.750	81963.9
-10.745	81964.9
-10.740	81962.9
-10.735	81960.9
-10.730	81961.9
-10.725	81969.9
-10.720	81959.9
-10.715	81970.9
-10.710	81972.9
-10.705	81958.9
-10.700	81939.9
-10.695	81933.9
-10.690	81958.9
-10.685	81955.9
-10.680	81953.9
-10.675	81953.9
-10.670	81950.9
-10.665	81950.9
-10.660	81948.9
-10.655	81964.9
-10.650	81951.9
-10.645	81954.9
-10.640	81937.9
-10.635	81914.9
-10.630	81910.9
-10.625	81944.9
-10.620	81938.9
-10.615	81938.9
-10.610	81936.9
-10.605	81934.9
-10.600	81928.9
-10.595	81920.9
-10.590	81913.9
-10.585	81918.9
-10.580	81911.9
-10.575	81923.9
-10.570	81891.9
-10.565	81873.9
-10.560	81899.9
-10.555	81915.9
-10.550	81924.9
-10.545	81926.9
-10.540	81916.9
-10.535	81914.9
-10.530	81897.9
-10.525	81898.9
-10.520	81902.9
-10.515	81902.9
-10.510	81908.9
-10.505	81881.9
-10.500	81870.9
-10.495	81868.9
-10.490	81897.9
-10.485	81904.9
-10.480	81902.9
-10.475	81907.9
-10.470	81897.9
-10.465	81906.9
-10.460	81898.9
-10.455	81902.9
-10.450	81909.9
-10.445	81918.9
-10.440	81908.9
-10.435	81896.9
-10.430	81884.9
-10.425	81922.9
-10.420	81923.9
-10.415	81924.9
-10.410	81921.9
-10.405	81923.9
-10.400	81911.9
-10.395	81909.9
-10.390	81907.9
-10.385	81914.9
-10.380	81902.9
-10.375	81904.9
-10.370	81867.9
-10.365	81866.9
-10.360	81888.9
-10.355	81906.9
-10.350	81908.9
-10.345	81903.9
-10.340	81890.9
-10.335	81908.9
-10.330	81906.9
-10.325	81916.9
-10.320	81914.9
-10.315	81928.9
-10.310	81939.9
-10.305	81922.9
-10.300	81906.9
-10.295	81907.9
-10.290	81931.9
-10.285	81936.9
-10.280	81945.9
-10.275	81939.9
-10.270	81923.9
-10.265	81928.9
-10.260	81923.9
-10.255	81928.9
-10.250	81928.9
-10.245	81928.9
-10.240	81919.9
-10.235	81900.9
-10.230	81905.9
-10.225	81931.9
-10.220	81934.9
-10.215	81923.9
-10.210	81927.9
-10.205	81926.9
-10.200	81917.9
-10.195	81934.9
-10.190	81919.9
-10.185	81932.9
-10.180	81939.9
-10.175	81933.9
-10.170	81906.9
-10.165	81896.9
-10.160	81916.9
-10.155	81944.9
-10.150	81941.9
-10.145	81947.9
-10.140	81940.9
-10.135	81942.9
-10.130	81930.9
-10.125	81935.9
-10.120	81934.9
-10.115	81946.9
-10.110	81950.9
-10.105	81914.9
-10.100	81902.9
-10.095	81908.9
-10.090	81946.9
-10.085	81938.9
-10.080	81934.9
-10.075	81928.9
-10.070	81928.9
-10.065	81921.9
-10.060	81936.9
-10.055	81943.9
-10.050	81945.9
-10.045	81960.9
-10.040	81950.9
-10.035	81923.9
-10.030	81910.9
-10.025	81949.9
-10.020	81951.9
-10.015	81950.9
-10.010	81954.9
-10.005	81952.9
-10.000	81935.9
-9.995	81923.9
-9.990	81935.9
-9.985	81943.9
-9.980	81932.9
-9.975	81942.9
-9.970	81909.9
-9.965	81901.9
-9.960	81925.9
-9.955	81931.9
-9.950	81933.9
-9.945	81940.9
-9.940	81924.9
-9.935	81923.9
-9.930	81922.9
-9.925	81927.9
-9.920	81925.9
-9.915	81934.9
-9.910	81937.9
-9.905	81912.9
-9.900	81895.9
-9.895	81900.9
-9.890	81927.9
-9.885	81927.9
-9.880	81918.9
-9.875	81928.9
-9.870	81920.9
-9.865	81922.9
-9.860	81915.9
-9.855	81919.9
-9.850	81923.9
-9.845	81916.9
-9.840	81907.9
-9.835	81890.9
-9.830	81893.9
-9.825	81924.9
-9.820	81924.9
-9.815	81924.9
-9.810	81920.9
-9.805	81919.9
-9.800	81916.9
-9.795	81922.9
-9.790	81919.9
-9.785	81930.9
-9.780	81930.9
-9.775	81933.9
-9.770	81902.9
-9.765	81894.9
-9.760	81907.9
-9.755	81927.9
-9.750	81927.9
-9.745	81940.9
-9.740	81918.9
-9.735	81921.9
-9.730	81923.9
-9.725	81924.9
-9.720	81918.9
-9.715	81929.9
-9.710	81930.9
-9.705	81904.9
-9.700	81882.9
-9.695	81905.9
-9.690	81929.9
-9.685	81933.9
-9.680	81924.9
-9.675	81922.9
-9.670	81918.9
-9.665	81918.9
-9.660	81905.9
-9.655	81912.9
-9.650	81924.9
-9.645	81936.9
-9.640	81923.9
-9.635	81908.9
-9.630	81899.9
-9.625	81921.9
-9.620	81924.9
-9.615	81929.9
-9.610	81936.9
-9.605	81928.9
-9.600	81925.9
-9.595	81922.9
-9.590	81924.9
-9.585	81933.8
-9.580	81921.9
-9.575	81914.8
-9.570	81888.8
-9.565	81874.8
-9.560	81888.7
-9.555	81890.7
-9.550	81856.6
-9.545	81832.4
-9.540	81793.2
-9.535	81762.0
-9.530	81721.7
-9.525	81681.4
-9.520	81617.1
-9.515	81560.7
-9.510	81490.3
-9.505	81401.9
-9.500	81314.5
-9.495	81253.1
-9.490	81182.7
-9.485	81134.3
-9.480	81075.9
-9.475	81026.6
-9.470	80973.6
-9.465	80996.7
-9.460	81027.0
-9.455	80990.5
-9.450	81003.9
-9.445	81188.2
-9.440	81265.4
-9.435	81256.7
-9.430	81250.9
-9.425	81295.0
-9.420	81410.1
-9.415	81466.1
-9.410	81499.2
-9.405	81540.3
-9.400	81516.4
-9.395	81449.5
-9.390	81425.6
-9.385	81469.6
-9.380	81496.6
-9.375	81487.7
-9.370	81435.8
-9.365	81404.9
-9.360	81436.9
-9.355	81471.9
-9.350	81501.9
-9.345	81522.9
-9.340	81510.0
-9.335	81523.0
-9.330	81517.0
-9.325	81518.1
-9.320	81532.1
-9.315	81557.1
-9.310	81554.1
-9.305	81519.2
-9.300	81510.2
-9.295	81521.2
-9.290	81509.3
-9.285	81454.4
-9.280	81373.4
-9.275	81373.5
-9.270	81425.4
-9.265	81485.4
-9.260	81506.4
-9.255	81526.4
-9.250	81529.4
-9.245	81550.4
-9.240	81536.5
-9.235	81520.5
-9.230	81508.5
-9.225	81538.5
-9.220	81525.5
-9.215	81540.6
-9.210	81530.6
-9.205	81520.6
-9.200	81495.6
-9.195	81469.7
-9.190	81456.7
-9.185	81436.7
-9.180	81414.8
-9.175	81403.8
-9.170	81331.8
-9.165	81277.9
-9.160	81313.9
-9.155	81331.9
-9.150	81316.9
-9.145	81297.9
-9.140	81284.9
-9.135	81243.0
-9.130	81156.1
-9.125	81099.1
-9.120	81084.1
-9.115	81132.1
-9.110	81197.1
-9.105	81200.1
-9.100	81177.1
-9.095	81178.1
-9.090	81183.1
-9.085	81173.1
-9.080	81168.1
-9.075	81200.1
-9.070	81247.1
-9.065	81285.1
-9.060	81342.0
-9.055	81400.0
-9.050	81426.0
-9.045	81448.0
-9.040	81435.0
-9.035	81413.0
-9.030	81405.1
-9.025	81426.0
-9.020	81389.1
-9.015	81378.1
-9.010	81383.1
-9.005	81350.1
-9.000	81296.2
-8.995	81290.2
-8.990	81250.2
-8.985	81218.3
-8.980	81217.3
-8.975	81210.3
-8.970	81158.3
-8.965	81125.3
-8.960	81130.3
-8.955	81151.3
-8.950	81169.3
-8.945	81160.3
-8.940	81148.4
-8.935	81157.4
-8.930	81182.3
-8.925	81213.3
-8.920	81237.3
-8.915	81220.3
-8.910	81189.4
-8.905	81164.4
-8.900	81212.3
-8.895	81290.3
-8.890	81366.2
-8.885	81400.2
-8.880	81439.2
-8.875	81460.2
-8.870	81475.2
-8.865	81491.2
-8.860	81511.2
-8.855	81556.1
-8.850	81585.1
-8.845	81624.1
-8.840	81627.1
-8.835	81621.1
-8.830	81626.1
-8.825	81668.1
-8.820	81672.1
-8.815	81680.1
-8.810	81673.1
-8.805	81660.1
-8.800	81630.1
-8.795	81609.1
-8.790	81559.2
-8.785	81559.2
-8.780	81569.2
-8.775	81576.2
-8.770	81560.2
-8.765	81556.2
-8.760	81588.2
-8.755	81592.2
-8.750	81572.2
-8.745	81562.2
-8.740	81565.2
-8.735	81566.2
-8.730	81580.2
-8.725	81603.2
-8.720	81616.2
-8.715	81621.2
-8.710	81611.2
-8.705	81584.2
-8.700	81574.2
-8.695	81610.2
-8.690	81657.2
-8.685	81664.2
-8.680	81673.2
-8.675	81681.2
-8.670	81671.2
-8.665	81674.2
-8.660	81659.2
-8.655	81669.2
-8.650	81672.2
-8.645	81694.2
-8.640	81689.2
-8.635	81696.2
-8.630	81735.2
-8.625	81801.1
-8.620	81824.1
-8.615	81857.1
-8.610	81871.1
-8.605	81876.1
-8.600	81894.1
-8.595	81906.1
-8.590	81907.1
-8.585	81917.1
-8.580	81909.1
-8.575	81913.1
-8.570	81875.1
-8.565	81880.1
-8.560	81906.1
-8.555	81918.1
-8.550	81900.1
-8.545	81906.1
-8.540	81905.1
-8.535	81904.1
-8.530	81894.1
-8.525	81895.1
-8.520	81882.1
-8.515	81877.1
-8.510	81866.1
-8.505	81846.2
-8.500	81827.2
-8.495	81845.2
-8.490	81855.2
-8.485	81848.2
-8.480	81837.2
-8.475	81832.2
-8.470	81831.2
-8.465	81825.2
-8.460	81814.2
-8.455	81818.2
-8.450	81813.2
-8.445	81819.2
-8.440	81788.2
-8.435	81772.2
-8.430	81772.2
-8.425	81794.2
-8.420	81794.2
-8.415	81784.2
-8.410	81791.2
-8.405	81780.2
-8.400	81775.3
-8.395	81767.3
-8.390	81773.3
-8.385	81777.3
-8.380	81781.3
-8.375	81789.3
-8.370	81758.3
-8.365	81750.3
-8.360	81779.3
-8.355	81787.3
-8.350	81776.3
-8.345	81777.3
-8.340	81760.3
-8.335	81742.3
-8.330	81715.3
-8.325	81698.3
-8.320	81685.4
-8.315	81711.3
-8.310	81734.3
-8.305	81755.3
-8.300	81758.3
-8.295	81804.3
-8.290	81833.3
-8.285	81859.2
-8.280	81852.2
-8.275	81871.2
-8.270	81858.2
-8.265	81861.2
-8.260	81856.2
-8.255	81857.2
-8.250	81863.2
-8.245	81870.2
-8.240	81831.3
-8.235	81809.3
-8.230	81822.3
-8.225	81838.3
-8.220	81832.3
-8.215	81816.3
-8.210	81803.3
-8.205	81802.3
-8.200	81791.3
-8.195	81782.3
-8.190	81779.3
-8.185	81776.3
-8.180	81781.3
-8.175	81762.3
-8.170	81728.4
-8.165	81713.4
-8.160	81725.4
-8.155	81729.4
-8.150	81727.4
-8.145	81720.4
-8.140	81718.4
-8.135	81722.4
-8.130	81716.4
-8.125	81725.4
-8.120	81711.4
-8.115	81722.4
-8.110	81737.4
-8.105	81733.4
-8.100	81720.4
-8.095	81748.4
-8.090	81743.4
-8.085	81753.4
-8.080	81754.4
-8.075	81774.4
-8.070	81772.4
-8.065	81771.4
-8.060	81766.4
-8.055	81767.4
-8.050	81777.4
-8.045	81813.3
-8.040	81796.3
-8.035	81802.3
-8.030	81814.3
-8.025	81854.3
-8.020	81862.3
-8.015	81879.3
-8.010	81883.3
-8.005	81892.3
-8.000	81903.3
-7.995	81904.3
-7.990	81905.3
-7.985	81907.3
-7.980	81912.3
-7.975	81897.3
-7.970	81882.3
-7.965	81891.3
-7.960	81917.3
-7.955	81923.3
-7.950	81907.3
-7.945	81900.3
-7.940	81895.3
-7.935	81909.3
-7.930	81909.3
-7.925	81908.3
-7.920	81914.3
-7.915	81920.3
-7.910	81925.3
-7.905	81908.3
-7.900	81897.3
-7.895	81913.3
-7.890	81922.3
-7.885	81927.3
-7.880	81922.3
-7.875	81927.3
-7.870	81923.3
-7.865	81919.3
-7.860	81915.3
-7.855	81926.3
-7.850	81913.3
-7.845	81923.3
-7.840	81900.3
-7.835	81897.3
-7.830	81901.3
-7.825	81935.3
-7.820	81922.3
-7.815	81927.3
-7.810	81926.3
-7.805	81922.3
-7.800	81915.3
-7.795	81919.3
-7.790	81923.3
-7.785	81933.3
-7.780	81934.3
-7.775	81925.3
-7.770	81899.3
-7.765	81892.3
-7.760	81920.3
-7.755	81922.3
-7.750	81926.3
-7.745	81920.3
-7.740	81916.3
-7.735	81921.3
-7.730	81918.3
-7.725	81915.3
-7.720	81915.3
-7.715	81907.3
-7.710	81907.3
-7.705	81890.3
-7.700	81874.4
-7.695	81912.3
-7.690	81918.3
-7.685	81930.3
-7.680	81923.3
-7.675	81923.3
-7.670	81923.3
-7.665	81926.3
-7.660	81920.3
-7.655	81928.3
-7.650	81937.3
-7.645	81938.3
-7.640	81917.3
-7.635	81912.3
-7.630	81908.3
-7.625	81934.3
-7.620	81931.3
-7.615	81937.3
-7.610	81921.3
-7.605	81930.3
-7.600	81927.3
-7.595	81930.3
-7.590	81923.3
-7.585	81926.3
-7.580	81925.3
-7.575	81900.4
-7.570	81883.4
-7.565	81892.4
-7.560	81920.3
-7.555	81930.3
-7.550	81923.3
-7.545	81923.4
-7.540	81914.4
-7.535	81919.4
-7.530	81905.4
-7.525	81907.4
-7.520	81915.4
-7.515	81922.4
-7.510	81919.4
-7.505	81907.4
-7.500	81893.4
-7.495	81920.4
-7.490	81912.4
-7.485	81916.4
-7.480	81914.4
-7.475	81916.4
-7.470	81905.4
-7.465	81910.4
-7.460	81927.4
-7.455	81918.4
-7.450	81909.4
-7.445	81916.4
-7.440	81887.4
-7.435	81872.4
-7.430	81891.4
-7.425	81920.4
-7.420	81914.4
-7.415	81912.4
-7.410	81920.4
-7.405	81914.4
-7.400	81904.4
-7.395	81910.4
-7.390	81912.4
-7.385	81932.4
-7.380	81936.4
-7.375	81928.4
-7.370	81907.4
-7.365	81914.4
-7.360	81953.4
-7.355	81961.4
-7.350	81965.3
-7.345	81957.4
-7.340	81948.4
-7.335	81961.4
-7.330	81974.3
-7.325	81972.3
-7.320	81978.3
-7.315	81982.3
-7.310	81970.4
-7.305	81951.4
-7.300	81949.4
-7.295	81979.3
-7.290	81990.3
-7.285	81996.3
-7.280	81997.3
-7.275	81993.3
-7.270	81994.3
-7.265	81998.3
-7.260	82000.3
-7.255	82007.3
-7.250	82017.3
-7.245	82016.3
-7.240	81999.3
-7.235	81975.3
-7.230	81993.3
-7.225	82024.3
-7.220	82028.3
-7.215	82028.3
-7.210	82025.3
-7.205	82028.3
-7.200	82018.3
-7.195	82036.3
-7.190	82036.3
-7.185	82038.3
-7.180	82032.3
-7.175	82014.3
-7.170	81998.3
-7.165	82008.3
-7.160	82034.3
-7.155	82030.3
-7.150	82026.3
-7.145	82027.3
-7.140	82032.3
-7.135	82029.3
-7.130	82030.3
-7.125	82030.3
-7.120	82038.3
-7.115	82033.3
-7.110	82034.3
-7.105	82016.3
-7.100	82004.3
-7.095	82024.3
-7.090	82035.3
-7.085	82033.3
-7.080	82036.3
-7.075	82027.3
-7.070	82030.3
-7.065	82025.3
-7.060	82022.3
-7.055	82013.3
-7.050	82016.3
-7.045	82017.3
-7.040	81995.4
-7.035	81983.4
-7.030	82006.3
-7.025	82025.3
-7.020	82019.3
-7.015	82022.3
-7.010	82023.3
-7.005	82031.3
-7.000	82019.3
-6.995	82032.3
-6.990	82028.3
-6.985	82038.3
-6.980	82041.3
-6.975	82018.3
-6.970	81995.4
-6.965	82002.4
-6.960	82037.3
-6.955	82030.3
-6.950	82032.3
-6.945	82029.3
-6.940	82013.4
-6.935	82013.4
-6.930	82006.4
-6.925	82025.3
-6.920	82015.4
-6.915	82022.4
-6.910	82002.4
-6.905	81990.4
-6.900	81972.4
-6.895	82007.4
-6.890	82007.4
-6.885	82016.4
-6.880	82006.4
-6.875	82007.4
-6.870	82000.4
-6.865	82003.4
-6.860	81998.4
-6.855	81994.4
-6.850	81993.4
-6.845	81995.4
-6.840	81973.4
-6.835	81964.4
-6.830	81982.4
-6.825	81998.4
-6.820	81995.4
-6.815	81990.4
-6.810	82002.4
-6.805	81991.4
-6.800	81989.4
-6.795	81986.4
-6.790	81973.4
-6.785	81974.4
-6.780	81974.4
-6.775	81955.4
-6.770	81934.4
-6.765	81942.4
-6.760	81959.4
-6.755	81964.4
-6.750	81965.4
-6.745	81960.4
-6.740	81958.4
-6.735	81956.4
-6.730	81953.4
-6.725	81954.4
-6.720	81946.4
-6.715	81958.4
-6.710	81953.4
-6.705	81923.4
-6.700	81912.4
-6.695	81949.4
-6.690	81952.4
-6.685	81958.4
-6.680	81957.4
-6.675	81958.4
-6.670	81940.4
-6.665	81945.4
-6.660	81938.4
-6.655	81952.4
-6.650	81940.4
-6.645	81946.4
-6.640	81914.5
-6.635	81914.5
-6.630	81922.4
-6.625	81933.4
-6.620	81940.4
-6.615	81940.4
-6.610	81936.4
-6.605	81927.4
-6.600	81931.4
-6.595	81928.4
-6.590	81927.4
-6.585	81929.4
-6.580	81946.4
-6.575	81932.4
-6.570	81908.5
-6.565	81919.4
-6.560	81939.4
-6.555	81947.4
-6.550	81948.4
-6.545	81948.4
-6.540	81943.4
-6.535	81934.4
-6.530	81934.4
-6.525	81945.4
-6.520	81939.4
-6.515	81949.4
-6.510	81937.4
-6.505	81915.5
-6.500	81918.5
-6.495	81957.4
-6.490	81945.4
-6.485	81946.4
-6.480	81940.4
-6.475	81938.4
-6.470	81932.4
-6.465	81937.4
-6.460	81928.4
-6.455	81943.4
-6.450	81940.4
-6.445	81956.4
-6.440	81919.5
-6.435	81915.5
-6.430	81928.4
-6.425	81952.4
-6.420	81949.4
-6.415	81943.4
-6.410	81943.4
-6.405	81955.4
-6.400	81936.4
-6.395	81942.4
-6.390	81941.4
-6.385	81944.4
-6.380	81945.4
-6.375	81937.4
-6.370	81922.5
-6.365	81938.4
-6.360	81948.4
-6.355	81940.4
-6.350	81936.4
-6.345	81941.4
-6.340	81936.4
-6.335	81937.4
-6.330	81937.4
-6.325	81934.5
-6.320	81934.5
-6.315	81936.5
-6.310	81932.5
-6.305	81913.5
-6.300	81889.5
-6.295	81916.5
-6.290	81928.5
-6.285	81926.5
-6.280	81934.5
-6.275	81930.5
-6.270	81936.5
-6.265	81937.5
-6.260	81923.5
-6.255	81926.5
-6.250	81909.5
-6.245	81920.5
-6.240	81893.5
-6.235	81893.5
-6.230	81916.5
-6.225	81925.5
-6.220	81920.5
-6.215	81921.5
-6.210	81915.5
-6.205	81922.5
-6.200	81912.5
-6.195	81915.5
-6.190	81918.5
-6.185	81928.5
-6.180	81924.5
-6.175	81913.5
-6.170	81876.5
-6.165	81893.5
-6.160	81910.5
-6.155	81903.5
-6.150	81910.5
-6.145	81908.5
-6.140	81898.5
-6.135	81893.5
-6.130	81881.5
-6.125	81874.5
-6.120	81871.5
-6.115	81857.5
-6.110	81830.5
-6.105	81799.6
-6.100	81785.6
-6.095	81801.6
-6.090	81790.6
-6.085	81781.6
-6.080	81764.6
-6.075	81749.6
-6.070	81715.6
-6.065	81697.6
-6.060	81674.7
-6.055	81670.7
-6.050	81673.7
-6.045	81670.7
-6.040	81632.7
-6.035	81622.7
-6.030	81660.7
-6.025	81694.7
-6.020	81716.6
-6.015	81734.6
-6.010	81752.6
-6.005	81785.6
-6.000	81812.6
-5.995	81827.6
-5.990	81844.5
-5.985	81883.5
-5.980	81885.5
-5.975	81874.5
-5.970	81870.5
-5.965	81909.5
-5.960	81939.5
-5.955	81958.5
-5.950	81950.5
-5.945	81953.5
-5.940	81952.5
-5.935	81950.5
-5.930	81953.5
-5.925	81962.5
-5.920	81966.5
-5.915	81975.5
-5.910	81958.5
-5.905	81948.5
-5.900	81937.5
-5.895	81964.5
-5.890	81973.5
-5.885	81972.5
-5.880	81969.5
-5.875	81968.5
-5.870	81962.5
-5.865	81963.5
-5.860	81968.5
-5.855	81968.5
-5.850	81958.5
-5.845	81957.5
-5.840	81921.5
-5.835	81919.5
-5.830	81941.5
-5.825	81955.5
-5.820	81948.5
-5.815	81949.5
-5.810	81950.5
-5.805	81944.5
-5.800	81934.5
-5.795	81941.5
-5.790	81938.5
-5.785	81957.5
-5.780	81946.5
-5.775	81925.5
-5.770	81895.5
-5.765	81907.5
-5.760	81924.4
-5.755	81932.4
-5.750	81920.4
-5.745	81914.4
-5.740	81913.4
-5.735	81913.4
-5.730	81908.4
-5.725	81913.4
-5.720	81900.4
-5.715	81911.4
-5.710	81890.4
-5.705	81866.4
-5.700	81866.4
-5.695	81893.4
-5.690	81871.4
-5.685	81872.4
-5.680	81864.5
-5.675	81852.5
-5.670	81819.5
-5.665	81811.5
-5.660	81789.6
-5.655	81758.6
-5.650	81720.6
-5.645	81674.7
-5.640	81600.8
-5.635	81555.8
-5.630	81540.8
-5.625	81503.8
-5.620	81469.9
-5.615	81436.9
-5.610	81412.9
-5.605	81386.9
-5.600	81368.9
-5.595	81338.0
-5.590	81323.0
-5.585	81310.0
-5.580	81302.0
-5.575	81268.0
-5.570	81271.0
-5.565	81310.0
-5.560	81351.0
-5.555	81376.9
-5.550	81396.9
-5.545	81443.9
-5.540	81476.9
-5.535	81513.8
-5.530	81554.8
-5.525	81583.8
-5.520	81615.8
-5.515	81650.7
-5.510	81657.7
-5.505	81661.7
-5.500	81670.7
-5.495	81730.7
-5.490	81744.7
-5.485	81757.7
-5.480	81762.6
-5.475	81773.6
-5.470	81774.6
-5.465	81793.6
-5.460	81784.6
-5.455	81800.6
-5.450	81794.7
-5.445	81759.8
-5.440	81708.9
-5.435	81683.1
-5.430	81675.3
-5.425	81646.6
-5.420	81578.9
-5.415	81504.4
-5.410	81431.9
-5.405	81344.4
-5.400	81272.0
-5.395	81222.6
-5.390	81125.3
-5.385	81030.1
-5.380	80973.8
-5.375	80935.4
-5.370	80869.1
-5.365	80833.8
-5.360	80847.3
-5.355	80966.4
-5.350	81153.2
-5.345	81359.7
-5.340	81497.1
-5.335	81583.6
-5.330	81675.1
-5.325	81764.7
-5.320	81835.3
-5.315	81871.0
-5.310	81868.8
-5.305	81871.6
-5.300	81886.4
-5.295	81912.2
-5.290	81893.1
-5.285	81884.0
-5.280	81860.9
-5.275	81859.7
-5.270	81856.7
-5.265	81857.6
-5.260	81874.5
-5.255	81900.4
-5.250	81918.3
-5.245	81925.2
-5.240	81902.2
-5.235	81905.1
-5.230	81921.0
-5.225	81931.0
-5.220	81946.9
-5.215	81967.8
-5.210	81981.8
-5.205	81975.7
-5.200	81983.7
-5.195	81991.6
-5.190	82005.5
-5.185	82012.5
-5.180	82015.4
-5.175	81992.4
-5.170	81990.4
-5.165	82011.3
-5.160	82014.3
-5.155	82008.2
-5.150	82020.2
-5.145	82023.2
-5.140	82037.1
-5.135	82055.1
-5.130	82053.1
-5.125	82049.0
-5.120	82063.0
-5.115	82061.0
-5.110	82050.0
-5.105	82036.0
-5.100	82036.9
-5.095	82071.9
-5.090	82084.9
-5.085	82090.8
-5.080	82092.8
-5.075	82092.8
-5.070	82078.8
-5.065	82077.8
-5.060	82085.7
-5.055	82089.7
-5.050	82084.7
-5.045	82085.7
-5.040	82060.7
-5.035	82073.6
-5.030	82114.6
-5.025	82124.6
-5.020	82125.6
-5.015	82129.5
-5.010	82124.5
-5.005	82144.5
-5.000	82157.5
-4.995	82165.4
-4.990	82167.4
-4.985	82172.4
-4.980	82150.4
-4.975	82119.4
-4.970	82100.4
-4.965	82124.4
-4.960	82153.3
-4.955	82160.3
-4.950	82156.3
-4.945	82159.3
-4.940	82160.3
-4.935	82147.3
-4.930	82134.3
-4.925	82140.2
-4.920	82140.2
-4.915	82150.2
-4.910	82134.2
-4.905	82131.2
-4.900	82147.2
-4.895	82174.2
-4.890	82162.2
-4.885	82152.2
-4.880	82144.2
-4.875	82152.2
-4.870	82151.2
-4.865	82170.1
-4.860	82159.1
-4.855	82173.1
-4.850	82158.1
-4.845	82152.1
-4.840	82128.1
-4.835	82119.1
-4.830	82146.1
-4.825	82170.1
-4.820	82183.0
-4.815	82202.0
-4.810	82177.0
-4.805	82171.0
-4.800	82149.0
-4.795	82156.0
-4.790	82152.0
-4.785	82144.0
-4.780	82131.0
-4.775	82102.0
-4.770	82102.0
-4.765	82130.0
-4.760	82133.0
-4.755	82124.0
-4.750	82123.0
-4.745	82130.9
-4.740	82122.9
-4.735	82130.9
-4.730	82135.9
-4.725	82140.9
-4.720	82137.9
-4.715	82146.9
-4.710	82129.9
-4.705	82103.9
-4.700	82088.9
-4.695	82120.9
-4.690	82123.9
-4.685	82138.9
-4.680	82136.9
-4.675	82133.9
-4.670	82123.9
-4.665	82129.9
-4.660	82129.9
-4.655	82123.8
-4.650	82123.8
-4.645	82108.8
-4.640	82077.8
-4.635	82076.8
-4.630	82109.8
-4.625	82103.8
-4.620	82106.8
-4.615	82099.8
-4.610	82080.8
-4.605	82077.8
-4.600	82085.8
-4.595	82113.8
-4.590	82120.8
-4.585	82121.8
-4.580	82105.8
-4.575	82077.8
-4.570	82070.8
-4.565	82083.8
-4.560	82106.8
-4.555	82137.7
-4.550	82235.7
-4.545	82376.6
-4.540	82384.5
-4.535	82276.6
-4.530	82166.7
-4.525	82131.7
-4.520	82141.7
-4.515	82145.7
-4.510	82113.7
-4.505	82093.7
-4.500	82097.7
-4.495	82112.7
-4.490	82118.7
-4.485	82115.7
-4.480	82114.7
-4.475	82116.7
-4.470	82117.6
-4.465	82114.6
-4.460	82105.6
-4.455	82112.6
-4.450	82108.6
-4.445	82105.6
-4.440	82096.6
-4.435	82089.6
-4.430	82127.6
-4.425	82117.6
-4.420	82118.6
-4.415	82109.6
-4.410	82118.6
-4.405	82125.6
-4.400	82111.6
-4.395	82115.6
-4.390	82116.6
-4.385	82100.6
-4.380	82074.6
-4.375	82041.6
-4.370	82036.6
-4.365	82091.6
-4.360	82108.6
-4.355	82110.6
-4.350	82099.6
-4.345	82095.6
-4.340	82086.6
-4.335	82084.6
-4.330	82100.6
-4.325	82095.6
-4.320	82088.6
-4.315	82096.6
-4.310	82059.6
-4.305	82047.6
-4.300	82046.6
-4.295	82070.5
-4.290	82075.5
-4.285	82090.5
-4.280	82081.5
-4.275	82075.5
-4.270	82075.5
-4.265	82072.5
-4.260	82080.5
-4.255	82079.5
-4.250	82058.5
-4.245	82038.6
-4.240	82004.6
-4.235	82006.6
-4.230	82036.5
-4.225	82025.5
-4.220	82027.5
-4.215	82019.5
-4.210	82003.6
-4.205	82007.6
-4.200	82011.6
-4.195	82005.5
-4.190	82015.5
-4.185	82016.5
-4.180	82005.5
-4.175	81971.5
-4.170	81959.5
-4.165	81970.5
-4.160	81980.5
-4.155	81984.5
-4.150	81972.5
-4.145	81975.4
-4.140	81959.3
-4.135	81958.2
-4.130	81938.1
-4.125	81919.9
-4.120	81888.7
-4.115	81858.4
-4.110	81793.1
-4.105	81720.7
-4.100	81660.3
-4.095	81598.8
-4.090	81531.3
-4.085	81461.7
-4.080	81395.1
-4.075	81336.5
-4.070	81273.9
-4.065	81220.2
-4.060	81141.7
-4.055	81079.2
-4.050	81071.8
-4.045	81095.6
-4.040	81101.6
-4.035	81152.8
-4.030	81247.1
-4.025	81324.5
-4.020	81384.9
-4.015	81462.2
-4.010	81594.5
-4.005	81708.7
-4.000	81762.9
-3.995	81783.2
-3.990	81785.4
-3.985	81787.5
-3.980	81799.7
-3.975	81795.8
-3.970	81777.0
-3.965	81817.1
-3.960	81857.1
-3.955	81852.2
-3.950	81830.3
-3.945	81826.4
-3.940	81833.5
-3.935	81828.6
-3.930	81798.7
-3.925	81789.7
-3.920	81820.8
-3.915	81811.8
-3.910	81764.9
-3.905	81729.0
-3.900	81743.0
-3.895	81783.0
-3.890	81764.1
-3.885	81747.2
-3.880	81749.2
-3.875	81789.2
-3.870	81777.3
-3.865	81759.3
-3.860	81744.4
-3.855	81741.4
-3.850	81779.4
-3.845	81774.5
-3.840	81738.5
-3.835	81734.6
-3.830	81761.6
-3.825	81784.6
-3.820	81798.6
-3.815	81799.7
-3.810	81794.7
-3.805	81786.7
-3.800	81798.7
-3.795	81822.7
-3.790	81828.8
-3.785	81830.8
-3.780	81820.8
-3.775	81794.9
-3.770	81785.9
-3.765	81813.9
-3.760	81827.9
-3.755	81822.9
-3.750	81815.0
-3.745	81802.0
-3.740	81806.0
-3.735	81805.0
-3.730	81817.0
-3.725	81829.1
-3.720	81833.1
-3.715	81822.1
-3.710	81794.1
-3.705	81787.2
-3.700	81798.2
-3.695	81834.2
-3.690	81822.2
-3.685	81808.2
-3.680	81809.2
-3.675	81806.2
-3.670	81794.3
-3.665	81782.3
-3.660	81780.3
-3.655	81785.3
-3.650	81776.3
-3.645	81753.4
-3.640	81713.4
-3.635	81690.4
-3.630	81719.4
-3.625	81727.4
-3.620	81725.4
-3.615	81720.5
-3.610	81701.5
-3.605	81709.5
-3.600	81706.5
-3.595	81738.5
-3.590	81749.5
-3.585	81754.6
-3.580	81735.6
-3.575	81708.6
-3.570	81704.7
-3.565	81733.7
-3.560	81725.7
-3.555	81745.7
-3.550	81767.8
-3.545	81819.8
-3.540	81902.8
-3.535	81976.8
-3.530	82044.8
-3.525	82067.8
-3.520	82046.9
-3.515	82036.0
-3.510	81996.1
-3.505	81958.2
-3.500	81954.3
-3.495	81973.3
-3.490	81967.4
-3.485	81963.4
-3.480	81977.5
-3.475	81986.5
-3.470	81981.6
-3.465	81991.6
-3.460	81987.6
-3.455	81999.7
-3.450	82007.7
-3.445	81982.7
-3.440	81943.7
-3.435	81942.7
-3.430	81959.7
-3.425	81970.7
-3.420	81980.7
-3.415	82000.7
-3.410	82029.7
-3.405	82034.7
-3.400	81991.8
-3.395	81925.9
-3.390	81913.9
-3.385	82007.0
-3.380	82092.0
-3.375	82120.0
-3.370	82036.2
-3.365	81990.4
-3.360	81955.5
-3.355	81996.6
-3.350	82061.7
-3.345	82113.7
-3.340	82073.8
-3.335	82018.9
-3.330	82000.9
-3.325	81993.9
-3.320	82000.8
-3.315	82008.8
-3.310	81980.7
-3.305	81985.7
-3.300	81996.7
-3.295	81999.6
-3.290	81976.6
-3.285	81971.6
-3.280	81963.6
-3.275	81964.6
-3.270	81973.6
-3.265	81966.6
-3.260	81988.6
-3.255	82005.5
-3.250	82025.5
-3.245	82041.5
-3.240	82024.6
-3.235	82003.6
-3.230	82011.6
-3.225	81982.6
-3.220	81984.6
-3.215	81966.6
-3.210	81949.7
-3.205	81959.7
-3.200	81956.7
-3.195	81970.7
-3.190	81980.7
-3.185	81995.7
-3.180	81990.7
-3.175	81980.7
-3.170	81976.7
-3.165	82022.7
-3.160	82011.7
-3.155	82003.7
-3.150	81979.8
-3.145	81970.8
-3.140	81998.8
-3.135	82012.8
-3.130	82004.8
-3.125	82014.8
-3.120	82021.8
-3.115	82034.8
-3.110	82010.8
-3.105	82002.8
-3.100	82020.8
-3.095	82034.8
-3.090	82026.8
-3.085	82031.8
-3.080	82030.8
-3.075	82025.8
-3.070	82015.9
-3.065	82005.9
-3.060	82009.9
-3.055	82029.9
-3.050	82036.9
-3.045	82013.9
-3.040	81993.9
-3.035	82001.9
-3.030	82010.9
-3.025	82010.9
-3.020	82000.9
-3.015	81993.0
-3.010	81986.0
-3.005	81983.0
-3.000	81997.0
-2.995	81995.0
-2.990	81999.0
-2.985	82004.0
-2.980	82009.0
-2.975	81988.0
-2.970	81976.1
-2.965	82020.0
-2.960	82030.0
-2.955	82037.0
-2.950	82032.1
-2.945	82021.1
-2.940	82027.1
-2.935	82029.1
-2.930	82035.1
-2.925	82041.1
-2.920	82042.1
-2.915	82050.1
-2.910	82040.1
-2.905	82054.1
-2.900	82059.2
-2.895	82059.2
-2.890	82051.2
-2.885	82065.2
-2.880	82061.2
-2.875	82062.2
-2.870	82049.2
-2.865	82053.2
-2.860	82058.2
-2.855	82059.2
-2.850	82065.2
-2.845	82050.3
-2.840	82030.3
-2.835	82032.3
-2.830	82045.3
-2.825	82043.3
-2.820	82046.3
-2.815	82052.3
-2.810	82066.3
-2.805	82080.2
-2.800	82075.3
-2.795	82065.3
-2.790	82058.3
-2.785	82052.3
-2.780	82027.3
-2.775	82013.3
-2.770	82009.3
-2.765	82052.3
-2.760	82051.3
-2.755	82048.3
-2.750	82031.3
-2.745	82024.3
-2.740	82030.3
-2.735	82029.4
-2.730	82051.3
-2.725	82055.3
-2.720	82057.3
-2.715	82054.4
-2.710	82024.4
-2.705	82004.4
-2.700	82012.4
-2.695	82049.4
-2.690	82054.4
-2.685	82064.4
-2.680	82061.4
-2.675	82070.4
-2.670	82070.5
-2.665	82078.5
-2.660	82053.5
-2.655	82041.5
-2.650	82031.5
-2.645	82004.6
-2.640	81986.6
-2.635	82013.6
-2.630	82044.5
-2.625	82038.6
-2.620	82028.6
-2.615	82022.6
-2.610	82002.6
-2.605	82009.6
-2.600	82016.6
-2.595	82043.5
-2.590	82051.5
-2.585	82051.5
-2.580	82021.6
-2.575	81996.6
-2.570	81991.6
-2.565	82017.6
-2.560	82016.6
-2.555	82011.6
-2.550	82001.6
-2.545	82010.6
-2.540	82007.6
-2.535	82014.6
-2.530	82018.6
-2.525	82027.6
-2.520	82033.6
-2.515	82032.6
-2.510	82007.6
-2.505	81999.6
-2.500	82005.6
-2.495	82029.6
-2.490	82024.6
-2.485	82023.6
-2.480	82016.6
-2.475	82012.6
-2.470	82013.6
-2.465	82035.6
-2.460	82036.6
-2.455	82053.6
-2.450	82066.6
-2.445	82057.6
-2.440	82027.6
-2.435	82036.6
-2.430	82066.6
-2.425	82064.6
-2.420	82040.6
-2.415	82051.6
-2.410	82049.7
-2.405	82057.7
-2.400	82051.7
-2.395	82074.7
-2.390	82076.7
-2.385	82076.7
-2.380	82041.7
-2.375	82020.7
-2.370	82027.7
-2.365	82067.7
-2.360	82065.7
-2.355	82054.7
-2.350	82028.7
-2.345	82029.7
-2.340	82008.8
-2.335	81992.8
-2.330	81987.8
-2.325	82003.8
-2.320	82021.8
-2.315	82037.7
-2.310	82013.8
-2.305	82002.8
-2.300	82029.8
-2.295	82045.7
-2.290	82043.7
-2.285	82059.7
-2.280	82056.7
-2.275	82073.7
-2.270	82069.7
-2.265	82075.7
-2.260	82087.7
-2.255	82101.7
-2.250	82107.7
-2.245	82080.7
-2.240	82054.7
-2.235	82051.7
-2.230	82061.7
-2.225	82065.7
-2.220	82070.7
-2.215	82080.7
-2.210	82066.7
-2.205	82061.7
-2.200	82067.7
-2.195	82080.7
-2.190	82095.7
-2.185	82110.7
-2.180	82094.7
-2.175	82076.7
-2.170	82076.7
-2.165	82126.7
-2.160	82109.7
-2.155	82090.7
-2.150	82073.7
-2.145	82074.7
-2.140	82089.6
-2.135	82100.6
-2.130	82110.6
-2.125	82118.6
-2.120	82128.6
-2.115	82131.6
-2.110	82106.7
-2.105	82120.7
-2.100	82145.7
-2.095	82131.7
-2.090	82111.7
-2.085	82107.7
-2.080	82094.8
-2.075	82098.7
-2.070	82097.8
-2.065	82104.8
-2.060	82103.8
-2.055	82113.7
-2.050	82108.7
-2.045	82076.8
-2.040	82057.8
-2.035	82073.7
-2.030	82103.7
-2.025	82103.7
-2.020	82112.7
-2.015	82119.7
-2.010	82117.7
-2.005	82127.7
-2.000	82122.7
-1.995	82135.6
-1.990	82137.6
-1.985	82145.6
-1.980	82126.6
-1.975	82117.7
-1.970	82114.7
-1.965	82130.7
-1.960	82105.7
-1.955	82093.7
-1.950	82087.7
-1.945	82087.7
-1.940	82088.7
-1.935	82067.7
-1.930	82059.8
-1.925	82070.7
-1.920	82056.7
-1.915	82070.7
-1.910	82050.7
-1.905	82053.7
-1.900	82068.7
-1.895	82076.7
-1.890	82077.7
-1.885	82067.7
-1.880	82058.7
-1.875	82058.7
-1.870	82047.7
-1.865	82039.7
-1.860	82035.7
-1.855	82049.7
-1.850	82053.6
-1.845	82028.6
-1.840	82016.6
-1.835	82035.6
-1.830	82056.6
-1.825	82044.6
-1.820	82045.6
-1.815	82052.6
-1.810	82064.6
-1.805	82079.6
-1.800	82076.6
-1.795	82083.6
-1.790	82085.6
-1.785	82084.6
-1.780	82067.6
-1.775	82043.7
-1.770	82030.7
-1.765	82059.7
-1.760	82034.7
-1.755	82041.7
-1.750	82037.7
-1.745	82033.7
-1.740	82025.7
-1.735	82031.7
-1.730	82031.7
-1.725	82023.7
-1.720	82017.7
-1.715	82005.7
-1.710	81965.7
-1.705	81950.7
-1.700	81973.7
-1.695	81974.6
-1.690	81958.6
-1.685	81965.6
-1.680	81978.6
-1.675	81994.6
-1.670	81979.6
-1.665	81982.6
-1.660	81979.6
-1.655	81992.6
-1.650	81982.6
-1.645	81950.6
-1.640	81927.6
-1.635	81955.6
-1.630	81961.6
-1.625	81975.6
-1.620	81967.6
-1.615	81972.6
-1.610	81957.6
-1.605	81970.6
-1.600	81984.6
-1.595	81999.6
-1.590	81994.6
-1.585	82009.6
-1.580	81997.6
-1.575	81981.6
-1.570	81980.6
-1.565	82013.6
-1.560	82011.6
-1.555	82012.6
-1.550	82021.6
-1.545	82031.6
-1.540	82032.6
-1.535	82037.6
-1.530	82039.5
-1.525	82036.5
-1.520	82056.5
-1.515	82052.5
-1.510	82037.5
-1.505	82034.5
-1.500	82069.5
-1.495	82080.4
-1.490	82072.4
-1.485	82070.4
-1.480	82064.4
-1.475	82052.4
-1.470	82046.4
-1.465	82055.4
-1.460	82052.4
-1.455	82062.3
-1.450	82058.3
-1.445	82037.3
-1.440	82040.3
-1.435	82059.3
-1.430	82079.3
-1.425	82084.3
-1.420	82088.3
-1.415	82097.3
-1.410	82107.2
-1.405	82098.3
-1.400	82087.3
-1.395	82084.3
-1.390	82095.3
-1.385	82113.3
-1.380	82100.3
-1.375	82088.3
-1.370	82095.3
-1.365	82129.3
-1.360	82132.3
-1.355	82144.2
-1.350	82147.2
-1.345	82139.2
-1.340	82141.2
-1.335	82147.2
-1.330	82150.2
-1.325	82164.2
-1.320	82156.2
-1.315	82128.2
-1.310	82105.2
-1.305	82106.2
-1.300	82125.2
-1.295	82120.2
-1.290	82111.2
-1.285	82109.2
-1.280	82099.2
-1.275	82098.2
-1.270	82100.2
-1.265	82099.2
-1.260	82103.2
-1.255	82099.2
-1.250	82082.2
-1.245	82050.2
-1.240	82023.2
-1.235	82041.2
-1.230	82033.2
-1.225	82033.2
-1.220	82039.2
-1.215	82046.1
-1.210	82055.1
-1.205	82066.1
-1.200	82066.1
-1.195	82070.1
-1.190	82061.1
-1.185	82070.1
-1.180	82042.1
-1.175	82033.1
-1.170	82041.1
-1.165	82077.1
-1.160	82070.1
-1.155	82071.1
-1.150	82059.1
-1.145	82049.1
-1.140	82051.1
-1.135	82055.1
-1.130	82047.1
-1.125	82031.1
-1.120	82029.1
-1.115	82013.2
-1.110	81977.2
-1.105	81963.2
-1.100	81990.1
-1.095	81989.1
-1.090	81981.1
-1.085	81988.1
-1.080	81978.1
-1.075	81981.1
-1.070	81984.1
-1.065	81985.1
-1.060	82003.0
-1.055	81993.0
-1.050	81985.0
-1.045	81958.0
-1.040	81953.0
-1.035	81985.0
-1.030	81995.0
-1.025	81986.0
-1.020	81961.0
-1.015	81962.0
-1.010	81938.0
-1.005	81935.0
-1.000	81922.0
-0.995	81918.1
-0.990	81905.1
-0.985	81919.1
-0.980	81885.1
-0.975	81862.1
-0.970	81863.1
-0.965	81884.1
-0.960	81888.1
-0.955	81893.0
-0.950	81894.0
-0.945	81903.0
-0.940	81906.0
-0.935	81898.0
-0.930	81892.0
-0.925	81905.9
-0.920	81905.9
-0.915	81888.9
-0.910	81859.9
-0.905	81878.9
-0.900	81916.9
-0.895	81934.9
-0.890	81929.9
-0.885	81928.9
-0.880	81920.9
-0.875	81925.9
-0.870	81916.9
-0.865	81913.9
-0.860	81920.9
-0.855	81924.9
-0.850	81929.9
-0.845	81891.9
-0.840	81870.9
-0.835	81865.9
-0.830	81866.9
-0.825	81854.9
-0.820	81830.9
-0.815	81822.9
-0.810	81819.9
-0.805	81820.9
-0.800	81813.9
-0.795	81824.9
-0.790	81829.9
-0.785	81822.9
-0.780	81794.9
-0.775	81795.8
-0.770	81818.8
-0.765	81850.8
-0.760	81856.8
-0.755	81872.7
-0.750	81866.7
-0.745	81875.7
-0.740	81874.7
-0.735	81882.7
-0.730	81887.7
-0.725	81903.7
-0.720	81910.6
-0.715	81897.6
-0.710	81876.7
-0.705	81872.7
-0.700	81896.6
-0.695	81916.6
-0.690	81904.6
-0.685	81889.6
-0.680	81872.6
-0.675	81859.6
-0.670	81845.7
-0.665	81849.7
-0.660	81852.7
-0.655	81878.6
-0.650	81873.6
-0.645	81852.7
-0.640	81849.7
-0.635	81874.6
-0.630	81910.6
-0.625	81921.6
-0.620	81935.6
-0.615	81952.6
-0.610	81966.6
-0.605	81989.5
-0.600	81989.5
-0.595	82007.5
-0.590	82011.5
-0.585	82017.5
-0.580	81983.5
-0.575	81955.5
-0.570	81949.5
-0.565	81964.5
-0.560	81960.5
-0.555	81957.4
-0.550	81941.4
-0.545	81936.4
-0.540	81923.4
-0.535	81942.4
-0.530	81947.4
-0.525	81965.4
-0.520	81959.4
-0.515	81946.4
-0.510	81922.4
-0.505	81924.4
-0.500	81950.3
-0.495	81964.3
-0.490	81950.3
-0.485	81958.3
-0.480	81948.3
-0.475	81954.3
-0.470	81954.3
-0.465	81968.3
-0.460	81974.3
-0.455	81978.3
-0.450	81991.2
-0.445	81975.3
-0.440	81972.2
-0.435	82001.2
-0.430	81997.2
-0.425	81992.2
-0.420	81971.2
-0.415	81966.2
-0.410	81953.2
-0.405	81948.2
-0.400	81932.2
-0.395	81939.2
-0.390	81932.2
-0.385	81926.2
-0.380	81914.2
-0.375	81924.2
-0.370	81943.2
-0.365	81987.2
-0.360	82004.1
-0.355	82010.1
-0.350	82005.1
-0.345	82003.1
-0.340	81993.1
-0.335	81974.2
-0.330	81955.2
-0.325	81953.2
-0.320	81953.1
-0.315	81948.1
-0.310	81927.2
-0.305	81938.1
-0.300	81969.1
-0.295	81977.1
-0.290	81976.1
-0.285	81977.1
-0.280	81975.1
-0.275	81980.1
-0.270	81957.1
-0.265	81950.1
-0.260	81939.1
-0.255	81952.0
-0.250	81958.0
-0.245	81942.0
-0.240	81953.0
-0.235	81974.0
-0.230	81967.0
-0.225	81969.0
-0.220	81982.0
-0.215	81981.0
-0.210	81970.0
-0.205	81985.9
-0.200	81983.9
-0.195	81965.9
-0.190	81946.9
-0.185	81955.9
-0.180	81949.9
-0.175	81946.9
-0.170	81959.9
-0.165	81975.9
-0.160	81961.9
-0.155	81941.9
-0.150	81936.9
-0.145	81925.9
-0.140	81923.9
-0.135	81916.9
-0.130	81908.9
-0.125	81921.8
-0.120	81948.8
-0.115	81932.8
-0.110	81934.8
-0.105	81941.8
-0.100	81965.8
-0.095	81971.8
-0.090	81983.8
-0.085	82010.8
-0.080	82031.8
-0.075	82031.8
-0.070	82003.9
-0.065	81980.9
-0.060	81965.9
-0.055	81976.9
-0.050	81975.9
-0.045	81971.9
-0.040	81949.9
-0.035	81964.9
-0.030	81952.9
-0.025	81954.8
-0.020	81937.8
-0.015	81932.7
-0.010	81942.6
-0.005	81932.5
0.000	81895.4
0.005	81890.3
0.010	81862.2
0.015	81801.2
0.020	81688.2
0.025	81724.2
0.030	81864.1
0.035	81920.2
0.040	81874.4
0.045	81901.5
0.050	81945.7
0.055	81919.9
0.060	81903.1
0.065	81960.2
0.070	82022.3
0.075	82010.3
0.080	81965.3
0.085	81887.3
0.090	81812.2
0.095	81794.0
0.100	81811.8
0.105	81828.6
0.110	81878.4
0.115	81925.3
0.120	81941.2
0.125	81902.2
0.130	81848.2
0.135	81810.3
0.140	81814.3
0.145	81844.3
0.150	81850.4
0.155	81841.4
0.160	81854.4
0.165	81886.4
0.170	81868.5
0.175	81861.5
0.180	81863.5
0.185	81877.4
0.190	81858.4
0.195	81849.4
0.200	81838.5
0.205	81861.4
0.210	81860.4
0.215	81879.4
0.220	81842.4
0.225	81836.4
0.230	81852.4
0.235	81866.4
0.240	81855.4
0.245	81860.4
0.250	81883.4
0.255	81903.3
0.260	81914.3
0.265	81912.3
0.270	81901.3
0.275	81878.3
0.280	81871.3
0.285	81855.3
0.290	81839.4
0.295	81867.3
0.300	81898.3
0.305	81912.3
0.310	81922.3
0.315	81946.2
0.320	81961.2
0.325	81942.2
0.330	81923.2
0.335	81898.2
0.340	81899.2
0.345	81902.2
0.350	81878.2
0.355	81860.2
0.360	81858.2
0.365	81906.2
0.370	81914.2
0.375	81940.1
0.380	81939.1
0.385	81925.1
0.390	81890.2
0.395	81870.2
0.400	81882.2
0.405	81879.2
0.410	81881.2
0.415	81874.2
0.420	81828.2
0.425	81832.2
0.430	81848.1
0.435	81875.1
0.440	81885.1
0.445	81893.1
0.450	81890.1
0.455	81888.1
0.460	81866.1
0.465	81869.1
0.470	81865.1
0.475	81872.1
0.480	81886.0
0.485	81875.0
0.490	81884.0
0.495	81900.0
0.500	81914.0
0.505	81921.0
0.510	81923.0
0.515	81909.0
0.520	81897.0
0.525	81904.0
0.530	81893.0
0.535	81896.9
0.540	81899.9
0.545	81909.9
0.550	81910.9
0.555	81900.9
0.560	81882.9
0.565	81929.9
0.570	81923.9
0.575	81903.9
0.580	81891.9
0.585	81866.9
0.590	81851.9
0.595	81829.9
0.600	81809.9
0.605	81813.9
0.610	81823.9
0.615	81843.8
0.620	81838.8
0.625	81827.8
0.630	81832.8
0.635	81856.8
0.640	81847.8
0.645	81852.8
0.650	81860.8
0.655	81857.8
0.660	81849.8
0.665	81841.8
0.670	81833.8
0.675	81833.8
0.680	81844.8
0.685	81810.8
0.690	81797.8
0.695	81822.8
0.700	81852.8
0.705	81855.8
0.710	81845.8
0.715	81845.8
0.720	81835.8
0.725	81844.8
0.730	81858.8
0.735	81872.7
0.740	81875.7
0.745	81883.7
0.750	81861.7
0.755	81845.8
0.760	81835.8
0.765	81863.7
0.770	81865.7
0.775	81855.7
0.780	81843.7
0.785	81831.7
0.790	81822.7
0.795	81820.7
0.800	81823.7
0.805	81831.7
0.810	81825.7
0.815	81820.7
0.820	81796.7
0.825	81790.7
0.830	81801.6
0.835	81812.6
0.840	81810.6
0.845	81803.6
0.850	81797.6
0.855	81794.6
0.860	81805.5
0.865	81802.5
0.870	81803.5
0.875	81807.5
0.880	81804.5
0.885	81790.5
0.890	81755.5
0.895	81764.5
0.900	81772.5
0.905	81785.5
0.910	81772.5
0.915	81777.5
0.920	81780.5
0.925	81775.5
0.930	81781.5
0.935	81774.5
0.940	81781.5
0.945	81785.5
0.950	81767.5
0.955	81753.5
0.960	81757.5
0.965	81792.4
0.970	81807.4
0.975	81819.4
0.980	81826.4
0.985	81846.4
0.990	81843.4
0.995	81845.3
1.000	81839.3
1.005	81836.3
1.010	81845.3
1.015	81849.3
1.020	81819.3
1.025	81802.3
1.030	81810.3
1.035	81821.3
1.040	81802.3
1.045	81808.3
1.050	81804.3
1.055	81804.3
1.060	81802.3
1.065	81812.3
1.070	81809.3
1.075	81826.3
1.080	81825.3
1.085	81795.4
1.090	81784.4
1.095	81805.3
1.100	81824.3
1.105	81814.3
1.110	81811.3
1.115	81808.3
1.120	81806.3
1.125	81796.3
1.130	81797.3
1.135	81796.3
1.140	81804.3
1.145	81812.2
1.150	81790.2
1.155	81764.2
1.160	81760.2
1.165	81798.2
1.170	81785.2
1.175	81783.2
1.180	81779.2
1.185	81786.2
1.190	81788.2
1.195	81804.1
1.200	81801.1
1.205	81812.1
1.210	81811.1
1.215	81805.1
1.220	81777.1
1.225	81781.1
1.230	81806.1
1.235	81811.1
1.240	81785.1
1.245	81784.1
1.250	81774.1
1.255	81765.1
1.260	81767.1
1.265	81748.1
1.270	81749.1
1.275	81774.1
1.280	81787.1
1.285	81789.1
1.290	81764.1
1.295	81772.1
1.300	81788.1
1.305	81764.1
1.310	81760.1
1.315	81751.1
1.320	81750.1
1.325	81753.1
1.330	81755.1
1.335	81777.1
1.340	81788.1
1.345	81797.1
1.350	81778.1
1.355	81763.1
1.360	81777.1
1.365	81824.1
1.370	81825.1
1.375	81830.0
1.380	81835.0
1.385	81839.0
1.390	81836.0
1.395	81846.0
1.400	81833.0
1.405	81842.0
1.410	81846.0
1.415	81853.9
1.420	81832.0
1.425	81835.9
1.430	81864.9
1.435	81885.9
1.440	81885.9
1.445	81905.9
1.450	81907.9
1.455	81907.8
1.460	81906.8
1.465	81905.8
1.470	81908.8
1.475	81909.8
1.480	81910.8
1.485	81869.8
1.490	81843.9
1.495	81868.8
1.500	81878.8
1.505	81889.8
1.510	81888.8
1.515	81896.8
1.520	81909.8
1.525	81885.8
1.530	81877.8
1.535	81857.8
1.540	81877.8
1.545	81882.8
1.550	81854.8
1.555	81846.8
1.560	81841.8
1.565	81866.8
1.570	81862.8
1.575	81858.8
1.580	81860.8
1.585	81855.8
1.590	81852.8
1.595	81874.8
1.600	81867.8
1.605	81887.7
1.610	81889.7
1.615	81875.7
1.620	81836.7
1.625	81815.7
1.630	81838.7
1.635	81839.7
1.640	81828.7
1.645	81847.7
1.650	81851.7
1.655	81856.7
1.660	81844.7
1.665	81820.7
1.670	81798.7
1.675	81811.7
1.680	81827.7
1.685	81810.7
1.690	81791.7
1.695	81818.7
1.700	81818.7
1.705	81818.7
1.710	81821.7
1.715	81827.7
1.720	81830.7
1.725	81846.7
1.730	81847.7
1.735	81866.7
1.740	81861.7
1.745	81862.7
1.750	81828.7
1.755	81787.7
1.760	81786.7
1.765	81808.7
1.770	81807.7
1.775	81810.7
1.780	81814.7
1.785	81838.7
1.790	81835.7
1.795	81830.7
1.800	81831.7
1.805	81848.6
1.810	81861.6
1.815	81870.6
1.820	81843.6
1.825	81831.6
1.830	81844.6
1.835	81822.6
1.840	81815.6
1.845	81806.6
1.850	81800.6
1.855	81794.6
1.860	81797.6
1.865	81804.6
1.870	81810.6
1.875	81824.6
1.880	81813.6
1.885	81795.6
1.890	81763.6
1.895	81773.6
1.900	81789.6
1.905	81813.6
1.910	81810.6
1.915	81795.6
1.920	81776.6
1.925	81761.6
1.930	81745.6
1.935	81760.6
1.940	81754.7
1.945	81754.7
1.950	81729.7
1.955	81703.7
1.960	81732.7
1.965	81779.6
1.970	81788.6
1.975	81791.6
1.980	81771.6
1.985	81754.6
1.990	81723.6
1.995	81729.6
2.000	81723.6
2.005	81743.6
2.010	81742.6
2.015	81721.6
2.020	81719.6
2.025	81689.6
2.030	81705.6
2.035	81699.6
2.040	81675.6
2.045	81682.6
2.050	81698.6
2.055	81715.6
2.060	81724.6
2.065	81741.6
2.070	81731.6
2.075	81723.6
2.080	81717.6
2.085	81698.6
2.090	81674.6
2.095	81716.6
2.100	81720.6
2.105	81749.6
2.110	81761.6
2.115	81750.6
2.120	81733.6
2.125	81699.7
2.130	81689.7
2.135	81683.7
2.140	81663.7
2.145	81659.7
2.150	81635.7
2.155	81624.7
2.160	81628.7
2.165	81656.7
2.170	81653.7
2.175	81652.7
2.180	81650.7
2.185	81651.7
2.190	81648.7
2.195	81666.7
2.200	81663.7
2.205	81679.6
2.210	81665.7
2.215	81655.7
2.220	81628.7
2.225	81629.7
2.230	81647.7
2.235	81631.7
2.240	81601.7
2.245	81591.7
2.250	81596.8
2.255	81617.7
2.260	81637.7
2.265	81664.7
2.270	81666.7
2.275	81658.7
2.280	81660.7
2.285	81617.8
2.290	81600.8
2.295	81623.7
2.300	81611.7
2.305	81616.7
2.310	81613.7
2.315	81610.7
2.320	81606.7
2.325	81604.7
2.330	81605.7
2.335	81606.7
2.340	81629.7
2.345	81676.6
2.350	81667.6
2.355	81659.6
2.360	81667.6
2.365	81678.6
2.370	81665.6
2.375	81648.6
2.380	81648.7
2.385	81654.7
2.390	81657.7
2.395	81684.7
2.400	81706.7
2.405	81730.7
2.410	81750.7
2.415	81717.7
2.420	81690.7
2.425	81679.7
2.430	81694.7
2.435	81703.7
2.440	81709.7
2.445	81714.7
2.450	81729.7
2.455	81763.7
2.460	81780.7
2.465	81790.7
2.470	81805.7
2.475	81787.7
2.480	81789.7
2.485	81748.7
2.490	81713.7
2.495	81715.7
2.500	81728.7
2.505	81738.7
2.510	81740.7
2.515	81746.7
2.520	81725.7
2.525	81721.7
2.530	81721.8
2.535	81729.8
2.540	81737.8
2.545	81761.8
2.550	81733.8
2.555	81734.8
2.560	81746.8
2.565	81756.8
2.570	81751.8
2.575	81740.8
2.580	81738.8
2.585	81741.8
2.590	81742.8
2.595	81752.8
2.600	81736.8
2.605	81734.8
2.610	81750.8
2.615	81758.8
2.620	81747.8
2.625	81751.8
2.630	81769.7
2.635	81762.7
2.640	81732.8
2.645	81740.8
2.650	81723.8
2.655	81737.8
2.660	81766.8
2.665	81782.8
2.670	81781.8
2.675	81792.8
2.680	81788.8
2.685	81738.9
2.690	81704.9
2.695	81713.9
2.700	81731.9
2.705	81768.9
2.710	81806.9
2.715	81835.9
2.720	81826.9
2.725	81823.9
2.730	81824.9
2.735	81838.9
2.740	81822.9
2.745	81788.9
2.750	81735.9
2.755	81704.0
2.760	81707.0
2.765	81748.0
2.770	81760.0
2.775	81783.0
2.780	81796.0
2.785	81792.0
2.790	81785.0
2.795	81759.1
2.800	81745.1
2.805	81758.1
2.810	81766.1
2.815	81756.1
2.820	81745.1
2.825	81780.1
2.830	81807.0
2.835	81819.0
2.840	81816.0
2.845	81818.0
2.850	81793.0
2.855	81787.0
2.860	81802.0
2.865	81791.0
2.870	81790.0
2.875	81780.0
2.880	81760.1
2.885	81724.1
2.890	81716.1
2.895	81748.1
2.900	81758.2
2.905	81792.1
2.910	81815.1
2.915	81815.1
2.920	81831.1
2.925	81849.1
2.930	81873.1
2.935	81863.2
2.940	81838.2
2.945	81828.2
2.950	81782.2
2.955	81777.2
2.960	81817.2
2.965	81822.2
2.970	81829.2
2.975	81846.2
2.980	81859.2
2.985	81864.2
2.990	81848.3
2.995	81828.3
3.000	81797.3
3.005	81790.3
3.010	81786.3
3.015	81788.3
3.020	81783.4
3.025	81796.4
3.030	81825.4
3.035	81823.4
3.040	81821.4
3.045	81824.4
3.050	81819.4
3.055	81823.4
3.060	81820.4
3.065	81849.4
3.070	81860.4
3.075	81851.4
3.080	81799.5
3.085	81788.5
3.090	81787.5
3.095	81825.5
3.100	81829.5
3.105	81841.5
3.110	81844.5
3.115	81844.5
3.120	81832.5
3.125	81827.5
3.130	81839.5
3.135	81843.5
3.140	81861.5
3.145	81867.5
3.150	81843.5
3.155	81845.5
3.160	81850.5
3.165	81869.5
3.170	81867.6
3.175	81867.6
3.180	81868.6
3.185	81858.6
3.190	81845.6
3.195	81845.6
3.200	81848.6
3.205	81862.6
3.210	81883.6
3.215	81872.7
3.220	81861.7
3.225	81853.7
3.230	81872.7
3.235	81861.7
3.240	81833.8
3.245	81832.8
3.250	81831.8
3.255	81867.7
3.260	81885.7
3.265	81913.7
3.270	81914.7
3.275	81905.7
3.280	81877.7
3.285	81854.7
3.290	81835.7
3.295	81875.7
3.300	81894.7
3.305	81915.7
3.310	81913.6
3.315	81919.6
3.320	81915.6
3.325	81914.5
3.330	81937.5
3.335	81986.4
3.340	82002.4
3.345	81965.4
3.350	81870.5
3.355	81780.6
3.360	81760.6
3.365	81829.6
3.370	81895.6
3.375	81937.6
3.380	81912.7
3.385	81916.8
3.390	81939.9
3.395	81947.1
3.400	81906.3
3.405	81905.4
3.410	82004.5
3.415	82052.5
3.420	82032.5
3.425	81997.6
3.430	82010.6
3.435	82017.6
3.440	82026.5
3.445	82020.5
3.450	82002.5
3.455	82007.5
3.460	82017.5
3.465	82021.5
3.470	82018.5
3.475	82031.5
3.480	82015.6
3.485	82002.6
3.490	81992.7
3.495	82020.7
3.500	82026.8
3.505	82031.8
3.510	82020.9
3.515	82016.0
3.520	82002.1
3.525	82018.1
3.530	82000.2
3.535	81992.3
3.540	81999.4
3.545	82015.4
3.550	81990.5
3.555	82019.5
3.560	82051.6
3.565	82057.6
3.570	82057.7
3.575	82045.7
3.580	82028.7
3.585	82033.8
3.590	82034.8
3.595	82035.8
3.600	82041.8
3.605	82044.9
3.610	82036.9
3.615	82003.9
3.620	81973.0
3.625	81980.0
3.630	81992.0
3.635	81995.0
3.640	82002.0
3.645	81991.0
3.650	82006.0
3.655	82016.0
3.660	82017.1
3.665	82015.1
3.670	82027.1
3.675	82031.1
3.680	82016.1
3.685	82001.1
3.690	81987.2
3.695	82018.2
3.700	82028.2
3.705	82018.2
3.710	82003.2
3.715	82001.2
3.720	82002.2
3.725	82009.2
3.730	82016.3
3.735	82027.3
3.740	82025.3
3.745	82028.3
3.750	82005.4
3.755	81989.4
3.760	82022.4
3.765	82037.4
3.770	82036.4
3.775	82053.4
3.780	82055.4
3.785	82051.5
3.790	82045.5
3.795	82058.5
3.800	82041.6
3.805	82058.6
3.810	82068.6
3.815	82059.6
3.820	82042.7
3.825	82053.7
3.830	82079.7
3.835	82082.7
3.840	82099.8
3.845	82115.8
3.850	82103.8
3.855	82098.9
3.860	82101.9
3.865	82117.9
3.870	82118.0
3.875	82142.0
3.880	82117.1
3.885	82081.1
3.890	82064.2
3.895	82089.2
3.900	82077.3
3.905	82045.3
3.910	82026.4
3.915	82008.5
3.920	81996.5
3.925	81982.6
3.930	81959.7
3.935	81933.8
3.940	81883.9
3.945	81803.0
3.950	81707.1
3.955	81732.2
3.960	81801.2
3.965	81823.3
3.970	81813.4
3.975	81813.5
3.980	81597.8
3.985	81120.3
3.990	80916.6
3.995	81242.6
4.000	81662.5
4.005	81871.6
4.010	81924.9
4.015	81849.2
4.020	81591.7
4.025	81371.2
4.030	81404.5
4.035	81519.7
4.040	81526.9
4.045	81478.1
4.050	81432.2
4.055	81387.3
4.060	81374.2
4.065	81337.1
4.070	81272.8
4.075	81253.4
4.080	81252.9
4.085	81308.1
4.090	81389.2
4.095	81496.2
4.100	81557.2
4.105	81637.3
4.110	81683.6
4.115	81722.0
4.120	81732.6
4.125	81729.4
4.130	81746.2
4.135	81744.1
4.140	81752.0
4.145	81746.0
4.150	81719.0
4.155	81697.0
4.160	81718.9
4.165	81748.9
4.170	81751.9
4.175	81746.9
4.180	81746.9
4.185	81760.8
4.190	81746.8
4.195	81729.8
4.200	81720.9
4.205	81708.9
4.210	81707.9
4.215	81686.9
4.220	81682.9
4.225	81689.9
4.230	81723.8
4.235	81715.8
4.240	81722.8
4.245	81739.8
4.250	81726.8
4.255	81733.8
4.260	81738.8
4.265	81753.8
4.270	81747.8
4.275	81767.8
4.280	81755.8
4.285	81727.8
4.290	81710.8
4.295	81733.8
4.300	81717.8
4.305	81720.8
4.310	81727.8
4.315	81729.8
4.320	81726.8
4.325	81738.8
4.330	81744.8
4.335	81755.7
4.340	81769.7
4.345	81777.7
4.350	81749.7
4.355	81753.7
4.360	81777.7
4.365	81776.7
4.370	81779.7
4.375	81778.7
4.380	81774.7
4.385	81798.7
4.390	81806.7
4.395	81791.7
4.400	81783.7
4.405	81785.7
4.410	81779.7
4.415	81750.7
4.420	81748.7
4.425	81758.7
4.430	81766.7
4.435	81769.7
4.440	81780.7
4.445	81775.7
4.450	81771.7
4.455	81771.7
4.460	81749.7
4.465	81741.7
4.470	81742.6
4.475	81753.6
4.480	81744.6
4.485	81730.6
4.490	81723.7
4.495	81772.6
4.500	81775.6
4.505	81798.6
4.510	81805.6
4.515	81803.6
4.520	81795.6
4.525	81788.6
4.530	81766.6
4.535	81766.6
4.540	81771.6
4.545	81763.6
4.550	81735.6
4.555	81731.6
4.560	81753.5
4.565	81770.5
4.570	81773.5
4.575	81785.5
4.580	81769.5
4.585	81770.5
4.590	81761.5
4.595	81759.5
4.600	81759.5
4.605	81745.5
4.610	81726.6
4.615	81701.6
4.620	81692.6
4.625	81693.5
4.630	81698.5
4.635	81713.5
4.640	81692.5
4.645	81675.5
4.650	81640.6
4.655	81614.6
4.660	81587.6
4.665	81586.6
4.670	81579.6
4.675	81564.6
4.680	81525.6
4.685	81501.6
4.690	81521.6
4.695	81558.5
4.700	81542.5
4.705	81508.6
4.710	81504.6
4.715	81516.6
4.720	81515.6
4.725	81513.6
4.730	81529.5
4.735	81549.5
4.740	81566.5
4.745	81572.5
4.750	81554.5
4.755	81544.5
4.760	81588.5
4.765	81628.4
4.770	81637.4
4.775	81648.4
4.780	81653.4
4.785	81647.4
4.790	81654.3
4.795	81664.3
4.800	81656.3
4.805	81651.3
4.810	81657.3
4.815	81663.3
4.820	81667.3
4.825	81709.2
4.830	81723.2
4.835	81711.2
4.840	81707.2
4.845	81714.2
4.850	81706.2
4.855	81697.2
4.860	81703.2
4.865	81701.2
4.870	81716.1
4.875	81726.1
4.880	81734.1
4.885	81717.1
4.890	81718.1
4.895	81735.1
4.900	81735.1
4.905	81732.1
4.910	81721.1
4.915	81722.1
4.920	81720.1
4.925	81721.1
4.930	81729.0
4.935	81732.0
4.940	81734.0
4.945	81712.0
4.950	81701.0
4.955	81700.0
4.960	81736.0
4.965	81735.9
4.970	81731.9
4.975	81729.9
4.980	81725.9
4.985	81741.9
4.990	81738.8
4.995	81738.8
5.000	81719.8
5.005	81720.8
5.010	81710.8
5.015	81677.8
5.020	81658.8
5.025	81682.8
5.030	81711.7
5.035	81710.7
5.040	81710.7
5.045	81720.7
5.050	81721.6
5.055	81735.6
5.060	81730.6
5.065	81746.6
5.070	81737.5
5.075	81706.5
5.080	81659.5
5.085	81617.6
5.090	81629.5
5.095	81675.5
5.100	81679.5
5.105	81700.4
5.110	81703.4
5.115	81697.4
5.120	81696.4
5.125	81724.3
5.130	81734.3
5.135	81737.2
5.140	81729.2
5.145	81691.2
5.150	81665.2
5.155	81681.2
5.160	81731.1
5.165	81731.0
5.170	81725.0
5.175	81732.0
5.180	81726.9
5.185	81707.9
5.190	81695.8
5.195	81713.8
5.200	81708.7
5.205	81712.7
5.210	81684.6
5.215	81668.6
5.220	81654.5
5.225	81671.5
5.230	81690.4
5.235	81689.3
5.240	81684.2
5.245	81675.2
5.250	81644.1
5.255	81631.1
5.260	81595.0
5.265	81578.9
5.270	81562.8
5.275	81536.7
5.280	81490.6
5.285	81464.5
5.290	81437.4
5.295	81452.2
5.300	81411.0
5.305	81362.8
5.310	81297.6
5.315	81225.4
5.320	81121.1
5.325	81001.0
5.330	80892.8
5.335	80769.7
5.340	80725.6
5.345	80615.6
5.350	80520.7
5.355	80495.8
5.360	80497.9
5.365	80480.2
5.370	80508.6
5.375	80583.1
5.380	80613.6
5.385	80656.3
5.390	80784.2
5.395	81038.0
5.400	81330.7
5.405	81584.2
5.410	81751.5
5.415	81821.7
5.420	81855.8
5.425	81912.8
5.430	81927.8
5.435	81940.8
5.440	81938.8
5.445	81943.8
5.450	81931.8
5.455	81939.8
5.460	81927.8
5.465	81931.8
5.470	81934.8
5.475	81941.8
5.480	81907.8
5.485	81887.8
5.490	81903.8
5.495	81923.8
5.500	81912.8
5.505	81921.8
5.510	81916.8
5.515	81922.8
5.520	81912.8
5.525	81930.8
5.530	81914.8
5.535	81917.8
5.540	81934.8
5.545	81933.8
5.550	81904.8
5.555	81903.8
5.560	81934.8
5.565	81937.8
5.570	81924.8
5.575	81934.8
5.580	81929.8
5.585	81923.8
5.590	81925.8
5.595	81933.8
5.600	81928.8
5.605	81928.8
5.610	81920.8
5.615	81910.8
5.620	81902.8
5.625	81923.8
5.630	81931.8
5.635	81930.8
5.640	81930.8
5.645	81935.8
5.650	81945.8
5.655	81944.9
5.660	81934.9
5.665	81936.9
5.670	81932.9
5.675	81954.9
5.680	81928.9
5.685	81903.0
5.690	81895.0
5.695	81912.0
5.700	81920.0
5.705	81926.0
5.710	81924.0
5.715	81933.0
5.720	81925.0
5.725	81925.9
5.730	81919.9
5.735	81907.9
5.740	81900.9
5.745	81877.9
5.750	81844.9
5.755	81836.9
5.760	81846.9
5.765	81841.9
5.770	81827.9
5.775	81837.9
5.780	81835.9
5.785	81842.9
5.790	81837.9
5.795	81853.9
5.800	81850.9
5.805	81851.9
5.810	81849.9
5.815	81833.9
5.820	81812.9
5.825	81846.9
5.830	81854.9
5.835	81856.9
5.840	81851.9
5.845	81854.9
5.850	81845.9
5.855	81847.9
5.860	81842.9
5.865	81846.9
5.870	81840.9
5.875	81841.9
5.880	81803.9
5.885	81809.9
5.890	81819.9
5.895	81852.9
5.900	81856.9
5.905	81867.9
5.910	81860.9
5.915	81880.9
5.920	81882.9
5.925	81893.9
5.930	81896.9
5.935	81899.9
5.940	81896.9
5.945	81892.9
5.950	81880.9
5.955	81875.9
5.960	81907.8
5.965	81910.8
5.970	81906.9
5.975	81905.9
5.980	81897.9
5.985	81896.9
5.990	81884.9
5.995	81898.9
6.000	81897.9
6.005	81898.9
6.010	81893.9
6.015	81873.9
6.020	81866.9
6.025	81885.9
6.030	81894.9
6.035	81892.9
6.040	81885.9
6.045	81868.9
6.050	81873.9
6.055	81869.9
6.060	81861.9
6.065	81874.9
6.070	81879.9
6.075	81883.9
6.080	81852.9
6.085	81835.9
6.090	81843.9
6.095	81870.9
6.100	81866.9
6.105	81868.9
6.110	81881.9
6.115	81881.9
6.120	81868.9
6.125	81866.9
6.130	81864.9
6.135	81864.9
6.140	81860.9
6.145	81841.9
6.150	81827.9
6.155	81850.9
6.160	81874.9
6.165	81872.9
6.170	81862.9
6.175	81863.9
6.180	81855.9
6.185	81857.9
6.190	81858.9
6.195	81866.9
6.200	81864.9
6.205	81878.9
6.210	81875.9
6.215	81856.9
6.220	81849.9
6.225	81874.9
6.230	81873.9
6.235	81882.9
6.240	81872.9
6.245	81878.9
6.250	81883.9
6.255	81880.9
6.260	81881.9
6.265	81877.9
6.270	81889.9
6.275	81893.9
6.280	81870.9
6.285	81854.9
6.290	81871.9
6.295	81900.9
6.300	81889.9
6.305	81885.9
6.310	81892.9
6.315	81883.9
6.320	81892.9
6.325	81896.9
6.330	81897.9
6.335	81895.9
6.340	81890.9
6.345	81879.9
6.350	81848.9
6.355	81834.9
6.360	81858.9
6.365	81848.9
6.370	81816.9
6.375	81796.0
6.380	81755.0
6.385	81719.0
6.390	81665.1
6.395	81622.1
6.400	81580.1
6.405	81539.2
6.410	81506.2
6.415	81469.2
6.420	81452.2
6.425	81489.2
6.430	81472.2
6.435	81486.2
6.440	81488.2
6.445	81501.2
6.450	81514.2
6.455	81544.2
6.460	81572.1
6.465	81619.1
6.470	81675.1
6.475	81718.0
6.480	81742.0
6.485	81775.0
6.490	81817.0
6.495	81864.9
6.500	81888.9
6.505	81900.9
6.510	81924.9
6.515	81944.9
6.520	81941.9
6.525	81952.9
6.530	81962.9
6.535	81971.8
6.540	81967.8
6.545	81949.9
6.550	81942.9
6.555	81952.9
6.560	81984.8
6.565	82001.8
6.570	81985.8
6.575	81992.8
6.580	81996.8
6.585	81995.8
6.590	81984.8
6.595	82007.8
6.600	82006.8
6.605	82023.8
6.610	82019.8
6.615	81993.8
6.620	81994.8
6.625	82016.8
6.630	82026.8
6.635	82033.8
6.640	82019.8
6.645	82026.8
6.650	82026.8
6.655	82030.8
6.660	82032.8
6.665	82027.8
6.670	82031.8
6.675	82028.8
6.680	81994.8
6.685	81993.8
6.690	82016.8
6.695	82046.8
6.700	82033.8
6.705	82040.8
6.710	82038.8
6.715	82042.8
6.720	82047.8
6.725	82041.8
6.730	82040.8
6.735	82056.8
6.740	82066.8
6.745	82043.8
6.750	82018.8
6.755	82021.8
6.760	82061.8
6.765	82061.8
6.770	82062.8
6.775	82052.8
6.780	82059.8
6.785	82065.8
6.790	82067.8
6.795	82062.8
6.800	82065.8
6.805	82065.8
6.810	82053.8
6.815	82035.8
6.820	82038.8
6.825	82067.8
6.830	82065.8
6.835	82069.8
6.840	82065.8
6.845	82067.8
6.850	82061.8
6.855	82068.8
6.860	82056.8
6.865	82072.8
6.870	82069.8
6.875	82083.8
6.880	82057.8
6.885	82037.8
6.890	82051.8
6.895	82070.8
6.900	82075.8
6.905	82070.8
6.910	82064.8
6.915	82069.8
6.920	82059.8
6.925	82058.8
6.930	82052.8
6.935	82048.8
6.940	82044.8
6.945	82014.8
6.950	81998.9
6.955	82004.8
6.960	82030.8
6.965	82025.8
6.970	82018.8
6.975	82017.8
6.980	82004.9
6.985	81997.9
6.990	81992.9
6.995	82000.9
7.000	82005.9
7.005	82012.8
7.010	82005.9
7.015	81988.9
7.020	81988.9
7.025	82019.8
7.030	82020.8
7.035	82016.8
7.040	82023.8
7.045	82027.8
7.050	82012.9
7.055	82014.9
7.060	82019.9
7.065	82022.8
7.070	82009.9
7.075	82014.9
7.080	81986.9
7.085	81972.9
7.090	81990.9
7.095	82001.9
7.100	82008.9
7.105	81990.9
7.110	81991.9
7.115	81994.9
7.120	81994.9
7.125	81988.9
7.130	81981.9
7.135	81986.9
7.140	81993.9
7.145	81971.9
7.150	81942.9
7.155	81954.9
7.160	81975.9
7.165	81978.9
7.170	81967.9
7.175	81974.9
7.180	81961.9
7.185	81958.9
7.190	81960.9
7.195	81959.9
7.200	81952.9
7.205	81951.9
7.210	81932.9
7.215	81911.9
7.220	81914.9
7.225	81941.9
7.230	81929.9
7.235	81927.9
7.240	81922.9
7.245	81909.9
7.250	81902.0
7.255	81904.0
7.260	81898.0
7.265	81891.0
7.270	81888.0
7.275	81887.0
7.280	81865.0
7.285	81835.0
7.290	81847.0
7.295	81855.0
7.300	81836.0
7.305	81805.0
7.310	81784.1
7.315	81789.1
7.320	81769.1
7.325	81779.1
7.330	81803.0
7.335	81795.1
7.340	81763.1
7.345	81731.1
7.350	81721.1
7.355	81742.1
7.360	81764.1
7.365	81779.1
7.370	81802.0
7.375	81817.0
7.380	81822.0
7.385	81841.0
7.390	81843.0
7.395	81871.0
7.400	81878.0
7.405	81881.0
7.410	81872.0
7.415	81848.0
7.420	81840.0
7.425	81876.0
7.430	81870.0
7.435	81881.0
7.440	81870.0
7.445	81865.0
7.450	81871.0
7.455	81877.0
7.460	81872.0
7.465	81879.0
7.470	81878.0
7.475	81871.0
7.480	81848.0
7.485	81846.0
7.490	81875.0
7.495	81880.0
7.500	81889.0
7.505	81873.0
7.510	81873.0
7.515	81887.0
7.520	81882.0
7.525	81886.0
7.530	81891.0
7.535	81903.0
7.540	81891.0
7.545	81864.0
7.550	81859.0
7.555	81883.0
7.560	81899.0
7.565	81914.0
7.570	81926.0
7.575	81926.0
7.580	81923.0
7.585	81925.0
7.590	81929.0
7.595	81939.0
7.600	81928.0
7.605	81947.0
7.610	81929.0
7.615	81914.0
7.620	81918.0
7.625	81951.0
7.630	81944.0
7.635	81944.0
7.640	81937.0
7.645	81934.0
7.650	81934.0
7.655	81948.0
7.660	81952.0
7.665	81967.0
7.670	81957.0
7.675	81975.0
7.680	81945.0
7.685	81931.0
7.690	81960.0
7.695	81981.0
7.700	81981.0
7.705	81984.0
7.710	81980.0
7.715	81979.0
7.720	81991.0
7.725	81976.0
7.730	81978.0
7.735	81989.0
7.740	81989.0
7.745	81959.0
7.750	81949.0
7.755	81960.0
7.760	81986.0
7.765	81988.0
7.770	81974.0
7.775	81972.0
7.780	81969.0
7.785	81971.0
7.790	81979.0
7.795	81986.0
7.800	81988.0
7.805	81994.0
7.810	81971.0
7.815	81942.0
7.820	81934.0
7.825	81972.0
7.830	81967.0
7.835	81964.0
7.840	81938.0
7.845	81942.0
7.850	81927.0
7.855	81921.0
7.860	81920.0
7.865	81944.0
7.870	81943.0
7.875	81932.0
7.880	81911.1
7.885	81928.0
7.890	81967.0
7.895	81976.0
7.900	81971.0
7.905	81973.0
7.910	81971.0
7.915	81974.0
7.920	81976.0
7.925	81976.0
7.930	81974.0
7.935	81975.0
7.940	81972.0
7.945	81951.0
7.950	81931.1
7.955	81935.1
7.960	81958.0
7.965	81960.0
7.970	81956.0
7.975	81960.0
7.980	81959.0
7.985	81952.0
7.990	81956.0
7.995	81961.0
8.000	81952.1
8.005	81950.1
8.010	81921.1
8.015	81912.1
8.020	81911.1
8.025	81936.1
8.030	81927.1
8.035	81919.1
8.040	81924.1
8.045	81921.1
8.050	81920.1
8.055	81924.1
8.060	81926.1
8.065	81936.1
8.070	81933.1
8.075	81933.1
8.080	81915.1
8.085	81905.1
8.090	81923.1
8.095	81942.1
8.100	81943.1
8.105	81958.1
8.110	81941.1
8.115	81947.1
8.120	81938.1
8.125	81948.1
8.130	81934.1
8.135	81938.1
8.140	81949.1
8.145	81932.1
8.150	81917.1
8.155	81946.1
8.160	81969.1
8.165	81974.1
8.170	81956.1
8.175	81954.1
8.180	81953.1
8.185	81943.1
8.190	81941.1
8.195	81941.1
8.200	81923.1
8.205	81924.1
8.210	81899.2
8.215	81889.2
8.220	81889.2
8.225	81936.1
8.230	81945.1
8.235	81942.1
8.240	81957.1
8.245	81967.1
8.250	81960.1
8.255	81959.1
8.260	81960.1
8.265	81958.1
8.270	81955.1
8.275	81948.1
8.280	81914.2
8.285	81901.2
8.290	81905.2
8.295	81885.2
8.300	81833.2
8.305	81806.3
8.310	81781.3
8.315	81761.3
8.320	81784.3
8.325	81830.2
8.330	81887.2
8.335	81931.2
8.340	81960.2
8.345	81949.2
8.350	81952.2
8.355	81955.2
8.360	81975.2
8.365	81979.2
8.370	81978.2
8.375	81984.2
8.380	81978.2
8.385	81981.2
8.390	81973.2
8.395	81983.2
8.400	81975.2
8.405	81982.2
8.410	81942.2
8.415	81937.2
8.420	81943.2
8.425	81967.2
8.430	81970.2
8.435	81973.2
8.440	81976.2
8.445	81977.2
8.450	81982.2
8.455	81975.2
8.460	81980.2
8.465	81984.2
8.470	81992.2
8.475	81978.2
8.480	81954.2
8.485	81956.2
8.490	81974.2
8.495	81982.2
8.500	81979.2
8.505	81974.2
8.510	81959.2
8.515	81968.2
8.520	81959.2
8.525	81965.2
8.530	81959.2
8.535	81964.2
8.540	81962.3
8.545	81934.3
8.550	81920.3
8.555	81940.3
8.560	81943.3
8.565	81956.3
8.570	81944.3
8.575	81938.3
8.580	81929.3
8.585	81941.3
8.590	81940.3
8.595	81939.3
8.600	81944.3
8.605	81940.3
8.610	81914.3
8.615	81881.4
8.620	81849.4
8.625	81862.4
8.630	81872.4
8.635	81888.4
8.640	81899.4
8.645	81905.4
8.650	81891.4
8.655	81884.4
8.660	81879.4
8.665	81860.4
8.670	81836.4
8.675	81807.5
8.680	81759.5
8.685	81743.5
8.690	81767.5
8.695	81761.5
8.700	81745.5
8.705	81735.5
8.710	81709.5
8.715	81684.6
8.720	81666.6
8.725	81634.6
8.730	81608.6
8.735	81604.6
8.740	81602.7
8.745	81580.7
8.750	81559.7
8.755	81572.7
8.760	81572.7
8.765	81547.7
8.770	81529.7
8.775	81532.7
8.780	81531.7
8.785	81515.8
8.790	81481.8
8.795	81443.8
8.800	81442.8
8.805	81483.8
8.810	81482.8
8.815	81484.8
8.820	81471.8
8.825	81470.8
8.830	81433.8
8.835	81431.9
8.840	81462.8
8.845	81513.8
8.850	81570.8
8.855	81629.7
8.860	81691.7
8.865	81726.7
8.870	81754.7
8.875	81766.7
8.880	81769.7
8.885	81772.7
8.890	81813.6
8.895	81829.6
8.900	81832.6
8.905	81830.6
8.910	81831.7
8.915	81838.7
8.920	81833.7
8.925	81836.7
8.930	81830.7
8.935	81819.7
8.940	81805.7
8.945	81783.7
8.950	81790.7
8.955	81810.7
8.960	81821.7
8.965	81805.8
8.970	81808.8
8.975	81829.8
8.980	81835.8
8.985	81831.8
8.990	81811.8
8.995	81742.8
9.000	81661.9
9.005	81715.9
9.010	81767.9
9.015	81813.8
9.020	81837.8
9.025	81859.8
9.030	81861.8
9.035	81868.8
9.040	81858.9
9.045	81860.9
9.050	81874.9
9.055	81877.9
9.060	81879.9
9.065	81888.9
9.070	81884.9
9.075	81871.9
9.080	81845.0
9.085	81850.0
9.090	81868.0
9.095	81866.0
9.100	81862.0
9.105	81858.0
9.110	81849.0
9.115	81857.0
9.120	81859.0
9.125	81863.1
9.130	81850.1
9.135	81852.1
9.140	81845.1
9.145	81798.2
9.150	81795.2
9.155	81834.2
9.160	81848.2
9.165	81855.2
9.170	81860.2
9.175	81865.2
9.180	81847.3
9.185	81851.3
9.190	81856.3
9.195	81867.3
9.200	81870.4
9.205	81876.4
9.210	81848.4
9.215	81840.4
9.220	81852.5
9.225	81878.5
9.230	81871.5
9.235	81867.6
9.240	81844.6
9.245	81843.6
9.250	81829.7
9.255	81835.7
9.260	81855.7
9.265	81907.7
9.270	81928.8
9.275	81944.8
9.280	81928.9
9.285	81926.9
9.290	81944.0
9.295	81954.0
9.300	81946.1
9.305	81918.2
9.310	81891.3
9.315	81862.4
9.320	81795.5
9.325	81733.6
9.330	81624.8
9.335	81555.0
9.340	81459.2
9.345	81277.6
9.350	81373.7
9.355	81381.0
9.360	80962.5
9.365	80492.1
9.370	80299.5
9.375	80479.6
9.380	80882.5
9.385	81220.4
9.390	81325.4
9.395	81317.4
9.400	81255.4
9.405	81211.3
9.410	81215.0
9.415	81257.7
9.420	81340.2
9.425	81425.6
9.430	81492.8
9.435	81558.0
9.440	81613.2
9.445	81662.6
9.450	81691.1
9.455	81722.9
9.460	81747.7
9.465	81761.6
9.470	81757.6
9.475	81753.6
9.480	81731.6
9.485	81737.6
9.490	81766.6
9.495	81777.6
9.500	81768.6
9.505	81764.6
9.510	81774.6
9.515	81775.6
9.520	81775.6
9.525	81779.5
9.530	81778.5
9.535	81786.5
9.540	81786.5
9.545	81765.6
9.550	81753.6
9.555	81776.6
9.560	81788.5
9.565	81796.5
9.570	81786.5
9.575	81798.5
9.580	81789.5
9.585	81787.5
9.590	81783.5
9.595	81781.5
9.600	81779.5
9.605	81770.6
9.610	81751.6
9.615	81737.6
9.620	81742.6
9.625	81753.6
9.630	81755.6
9.635	81750.6
9.640	81743.6
9.645	81747.6
9.650	81749.6
9.655	81758.6
9.660	81747.6
9.665	81756.6
9.670	81756.6
9.675	81740.6
9.680	81706.6
9.685	81705.6
9.690	81738.6
9.695	81737.6
9.700	81720.6
9.705	81718.6
9.710	81703.6
9.715	81698.6
9.720	81686.6
9.725	81679.6
9.730	81680.6
9.735	81677.6
9.740	81667.6
9.745	81661.6
9.750	81658.6
9.755	81698.6
9.760	81698.6
9.765	81697.6
9.770	81682.6
9.775	81684.6
9.780	81668.6
9.785	81652.6
9.790	81651.6
9.795	81643.6
9.800	81642.6
9.805	81648.6
9.810	81637.6
9.815	81619.7
9.820	81622.7
9.825	81644.6
9.830	81651.6
9.835	81648.6
9.840	81660.6
9.845	81662.6
9.850	81659.6
9.855	81659.6
9.860	81677.6
9.865	81671.6
9.870	81675.6
9.875	81650.6
9.880	81633.6
9.885	81641.6
9.890	81674.6
9.895	81674.6
9.900	81664.6
9.905	81663.6
9.910	81674.6
9.915	81662.6
9.920	81646.6
9.925	81653.6
9.930	81655.6
9.935	81662.6
9.940	81657.6
9.945	81643.6
9.950	81628.7
9.955	81659.6
9.960	81661.6
9.965	81666.6
9.970	81659.6
9.975	81651.6
9.980	81630.6
9.985	81631.6
9.990	81632.6
9.995	81633.6
10.000	81625.7
10.005	81626.6
10.010	81604.7
10.015	81592.7
10.020	81603.7
10.025	81622.7
10.030	81613.7
10.035	81606.7
10.040	81602.7
10.045	81601.7
10.050	81603.7
10.055	81599.7
10.060	81594.7
10.065	81606.7
10.070	81602.7
10.075	81583.7
10.080	81560.7
10.085	81560.7
10.090	81583.7
10.095	81584.7
10.100	81582.7
10.105	81585.7
10.110	81588.7
10.115	81585.7
10.120	81576.7
10.125	81584.7
10.130	81574.7
10.135	81571.7
10.140	81566.7
10.145	81539.7
10.150	81528.7
10.155	81556.7
10.160	81560.7
10.165	81561.7
10.170	81559.7
10.175	81573.7
10.180	81574.7
10.185	81580.7
10.190	81564.7
10.195	81579.7
10.200	81588.7
10.205	81594.7
10.210	81560.7
10.215	81562.7
10.220	81578.7
10.225	81595.7
10.230	81595.7
10.235	81612.7
10.240	81603.7
10.245	81619.6
10.250	81628.6
10.255	81614.7
10.260	81610.7
10.265	81618.7
10.270	81637.6
10.275	81623.6
10.280	81606.7
10.285	81619.6
10.290	81652.6
10.295	81646.6
10.300	81635.6
10.305	81636.6
10.310	81638.6
10.315	81645.6
10.320	81651.6
10.325	81654.6
10.330	81655.6
10.335	81666.6
10.340	81664.6
10.345	81641.6
10.350	81634.6
10.355	81671.6
10.360	81683.6
10.365	81693.6
10.370	81696.6
10.375	81706.6
10.380	81693.6
10.385	81701.6
10.390	81695.6
10.395	81700.6
10.400	81696.6
10.405	81697.6
10.410	81654.6
10.415	81649.6
10.420	81680.6
10.425	81686.6
10.430	81678.6
10.435	81691.6
10.440	81692.6
10.445	81696.6
10.450	81698.6
10.455	81706.6
10.460	81718.6
10.465	81719.6
10.470	81729.6
10.475	81726.6
10.480	81706.6
10.485	81709.6
10.490	81731.6
10.495	81732.6
10.500	81742.5
10.505	81736.6
10.510	81744.5
10.515	81737.6
10.520	81737.6
10.525	81732.6
10.530	81736.6
10.535	81742.5
10.540	81737.6
10.545	81722.6
10.550	81716.6
10.555	81747.5
10.560	81750.5
10.565	81749.5
10.570	81748.5
10.575	81749.5
10.580	81738.5
10.585	81748.5
10.590	81735.6
10.595	81746.5
10.600	81743.5
10.605	81749.5
10.610	81728.6
10.615	81719.6
10.620	81742.5
10.625	81744.5
10.630	81763.5
10.635	81759.5
10.640	81756.5
10.645	81747.5
10.650	81748.5
10.655	81750.5
10.660	81742.5
10.665	81750.5
10.670	81749.5
10.675	81741.5
10.680	81718.6
10.685	81729.6
10.690	81755.5
10.695	81749.5
10.700	81743.5
10.705	81739.5
10.710	81740.5
10.715	81749.5
10.720	81746.5
10.725	81751.5
10.730	81744.5
10.735	81766.5
10.740	81745.5
10.745	81731.5
10.750	81732.5
10.755	81768.5
10.760	81755.5
10.765	81768.5
10.770	81770.5
10.775	81761.5
10.780	81766.5
10.785	81757.5
10.790	81751.5
10.795	81761.5
10.800	81762.5
10.805	81752.5
10.810	81735.5
10.815	81727.5
10.820	81749.5
10.825	81768.5
10.830	81753.5
10.835	81752.5
10.840	81746.5
10.845	81740.5
10.850	81730.5
10.855	81728.5
10.860	81738.5
10.865	81746.5
10.870	81748.5
10.875	81733.5
10.880	81717.6
10.885	81721.5
10.890	81734.5
10.895	81738.5
10.900	81736.5
10.905	81739.5
10.910	81737.5
10.915	81729.5
10.920	81723.5
10.925	81729.5
10.930	81710.6
10.935	81706.6
10.940	81700.6
10.945	81686.6
10.950	81678.6
10.955	81713.6
10.960	81701.6
10.965	81706.6
10.970	81702.6
10.975	81708.6
10.980	81699.6
10.985	81706.6
10.990	81716.5
10.995	81717.5
11.000	81727.5
11.005	81719.5
11.010	81697.6
11.015	81685.6
11.020	81700.6
11.025	81706.6
11.030	81711.6
11.035	81720.5
11.040	81700.6
11.045	81697.6
11.050	81695.6
11.055	81689.6
11.060	81681.6
11.065	81687.6
11.070	81687.6
11.075	81653.6
11.080	81639.6
11.085	81645.6
11.090	81654.6
11.095	81660.6
11.100	81650.6
11.105	81656.6
11.110	81636.6
11.115	81632.6
11.120	81632.6
11.125	81638.6
11.130	81634.6
11.135	81650.6
11.140	81632.6
11.145	81611.6
11.150	81608.6
11.155	81643.6
11.160	81641.6
11.165	81636.6
11.170	81635.6
11.175	81635.6
11.180	81628.6
11.185	81628.6
11.190	81624.6
11.195	81633.6
11.200	81626.6
11.205	81626.6
11.210	81599.6
11.215	81581.6
11.220	81613.6
11.225	81621.6
11.230	81601.6
11.235	81606.6
11.240	81619.6
11.245	81613.6
11.250	81608.6
11.255	81605.6
11.260	81614.6
11.265	81619.6
11.270	81626.6
11.275	81600.6
11.280	81586.6
11.285	81594.6
11.290	81626.6
11.295	81619.6
11.300	81611.6
11.305	81618.6
11.310	81621.6
11.315	81617.6
11.320	81613.6
11.325	81605.6
11.330	81613.6
11.335	81619.6
11.340	81598.6
11.345	81593.6
11.350	81586.6
11.355	81626.6
11.360	81617.6
11.365	81620.6
11.370	81613.6
11.375	81616.6
11.380	81613.6
11.385	81623.6
11.390	81626.6
11.395	81638.6
11.400	81636.6
11.405	81631.6
11.410	81615.6
11.415	81606.6
11.420	81631.6
11.425	81651.6
11.430	81640.6
11.435	81650.6
11.440	81648.6
11.445	81654.6
11.450	81642.6
11.455	81649.6
11.460	81658.6
11.465	81648.6
11.470	81646.6
11.475	81617.6
11.480	81604.6
11.485	81622.6
11.490	81639.6
11.495	81640.6
11.500	81634.6
11.505	81639.6
11.510	81632.6
11.515	81632.6
11.520	81631.6
11.525	81642.6
11.530	81634.6
11.535	81649.6
11.540	81644.6
11.545	81619.6
11.550	81617.6
11.555	81652.6
11.560	81650.6
11.565	81646.6
11.570	81650.6
11.575	81648.6
11.580	81646.6
11.585	81646.6
11.590	81641.6
11.595	81649.6
11.600	81640.6
11.605	81638.6
11.610	81623.6
11.615	81619.6
11.620	81650.6
11.625	81657.6
11.630	81649.6
11.635	81638.6
11.640	81640.6
11.645	81636.6
11.650	81635.6
11.655	81645.6
11.660	81633.6
11.665	81643.6
11.670	81640.6
11.675	81617.6
11.680	81593.6
11.685	81616.6
11.690	81640.6
11.695	81658.6
11.700	81652.6
11.705	81647.6
11.710	81650.6
11.715	81653.6
11.720	81644.6
11.725	81634.6
11.730	81630.6
11.735	81629.6
11.740	81604.6
11.745	81586.6
11.750	81590.6
11.755	81615.6
11.760	81620.6
11.765	81621.6
11.770	81615.6
11.775	81615.6
11.780	81612.6
11.785	81628.6
11.790	81631.6
11.795	81620.6
11.800	81622.6
11.805	81622.6
11.810	81591.6
11.815	81590.6
11.820	81600.6
11.825	81615.6
11.830	81613.6
11.835	81624.6
11.840	81621.6
11.845	81615.6
11.850	81613.6
11.855	81623.6
11.860	81609.6
11.865	81599.6
11.870	81605.6
11.875	81581.6
11.880	81562.6
11.885	81579.6
11.890	81600.6
11.895	81597.6
11.900	81604.6
11.905	81601.6
11.910	81601.6
11.915	81591.6
11.920	81591.6
11.925	81592.6
11.930	81594.6
11.935	81607.6
11.940	81589.6
11.945	81558.6
11.950	81562.6
11.955	81593.6
11.960	81582.6
11.965	81584.6
11.970	81589.6
11.975	81602.6
11.980	81595.6
11.985	81603.6
11.990	81600.6
11.995	81603.6
12.000	81602.6
12.005	81592.6
12.010	81567.6
12.015	81566.6
12.020	81593.6
12.025	81592.6
12.030	81600.6
12.035	81589.6
12.040	81580.6
12.045	81598.6
12.050	81598.6
12.055	81598.6
12.060	81603.6
12.065	81617.6
12.070	81615.6
12.075	81595.6
12.080	81582.6
12.085	81602.6
12.090	81618.6
12.095	81620.6
12.100	81620.6
12.105	81619.6
12.110	81626.6
12.115	81630.6
12.120	81625.6
12.125	81629.6
12.130	81617.6
12.135	81616.6
12.140	81598.6
12.145	81593.6
12.150	81591.6
12.155	81619.6
12.160	81622.6
12.165	81616.6
12.170	81624.6
12.175	81619.6
12.180	81617.6
12.185	81627.6
12.190	81624.6
12.195	81638.6
12.200	81627.6
12.205	81622.6
12.210	81603.6
12.215	81611.6
12.220	81634.6
12.225	81648.6
12.230	81657.6
12.235	81667.5
12.240	81666.5
12.245	81659.5
12.250	81664.5
12.255	81668.5
12.260	81677.5
12.265	81670.5
12.270	81667.5
12.275	81641.6
12.280	81632.6
12.285	81665.5
12.290	81678.5
12.295	81688.5
12.300	81678.5
12.305	81684.5
12.310	81692.5
12.315	81695.5
12.320	81702.5
12.325	81702.5
12.330	81701.5
12.335	81706.5
12.340	81692.5
12.345	81689.5
12.350	81692.5
12.355	81714.5
12.360	81727.5
12.365	81731.5
12.370	81723.5
12.375	81731.5
12.380	81726.5
12.385	81735.5
12.390	81728.5
12.395	81729.5
12.400	81730.5
12.405	81729.5
12.410	81712.5
12.415	81714.5
12.420	81748.5
12.425	81754.5
12.430	81750.5
12.435	81749.5
12.440	81751.5
12.445	81759.5
12.450	81757.5
12.455	81763.5
12.460	81772.5
12.465	81781.4
12.470	81776.4
12.475	81755.5
12.480	81738.5
12.485	81776.4
12.490	81789.4
12.495	81796.4
12.500	81802.4
12.505	81796.4
12.510	81793.4
12.515	81790.4
12.520	81795.4
12.525	81796.4
12.530	81791.4
12.535	81806.4
12.540	81790.4
12.545	81768.4
12.550	81792.4
12.555	81822.4
12.560	81811.4
12.565	81817.4
12.570	81817.4
12.575	81823.4
12.580	81815.4
12.585	81819.4
12.590	81815.4
12.595	81827.4
12.600	81834.4
12.605	81828.4
12.610	81804.4
12.615	81805.4
12.620	81836.4
12.625	81840.4
12.630	81848.4
12.635	81856.4
12.640	81857.4
12.645	81857.4
12.650	81851.4
12.655	81850.4
12.660	81847.4
12.665	81858.4
12.670	81849.4
12.675	81831.4
12.680	81824.4
12.685	81851.4
12.690	81861.4
12.695	81861.4
12.700	81857.4
12.705	81865.4
12.710	81858.4
12.715	81868.4
12.720	81868.4
12.725	81878.4
12.730	81883.4
12.735	81894.3
12.740	81863.4
12.745	81851.4
12.750	81859.4
12.755	81887.4
12.760	81899.3
12.765	81895.3
12.770	81895.3
12.775	81899.3
12.780	81889.3
12.785	81891.3
12.790	81890.3
12.795	81906.3
12.800	81904.3
12.805	81884.4
12.810	81865.4
12.815	81866.4
12.820	81894.3
12.825	81896.3
12.830	81895.3
12.835	81897.3
12.840	81893.3
12.845	81894.3
12.850	81894.3
12.855	81893.3
12.860	81898.3
12.865	81904.3
12.870	81904.3
12.875	81873.4
12.880	81859.4
12.885	81888.3
12.890	81900.3
12.895	81903.3
12.900	81902.3
12.905	81902.3
12.910	81896.3
12.915	81910.3
12.920	81908.3
12.925	81908.3
12.930	81909.3
12.935	81917.3
12.940	81897.3
12.945	81882.3
12.950	81902.3
12.955	81929.3
12.960	81936.3
12.965	81921.3
12.970	81929.3
12.975	81926.3
12.980	81928.3
12.985	81929.3
12.990	81930.3
12.995	81941.3
13.000	81945.3
13.005	81941.3
13.010	81915.3
13.015	81916.3
13.020	81949.3
13.025	81955.3
13.030	81943.3
13.035	81950.3
13.040	81950.3
13.045	81948.3
13.050	81938.3
13.055	81948.3
13.060	81938.3
13.065	81941.3
13.070	81933.3
13.075	81916.3
13.080	81902.3
13.085	81931.3
13.090	81944.3
13.095	81944.3
13.100	81941.3
13.105	81940.3
13.110	81933.3
13.115	81932.3
13.120	81936.3
13.125	81936.3
13.130	81940.3
13.135	81946.3
13.140	81913.3
13.145	81903.3
13.150	81917.3
13.155	81936.3
13.160	81932.3
13.165	81933.3
13.170	81930.3
13.175	81937.3
13.180	81924.3
13.185	81929.3
13.190	81917.3
13.195	81921.3
13.200	81910.3
13.205	81894.3
13.210	81856.4
13.215	81878.3
13.220	81897.3
13.225	81893.3
13.230	81893.3
13.235	81902.3
13.240	81879.3
13.245	81883.3
13.250	81875.3
13.255	81866.3
13.260	81879.3
13.265	81881.3
13.270	81877.3
13.275	81851.4
13.280	81847.4
13.285	81874.3
13.290	81870.3
13.295	81869.3
13.300	81876.3
13.305	81868.3
13.310	81858.4
13.315	81862.3
13.320	81860.3
13.325	81851.4
13.330	81847.4
13.335	81840.4
13.340	81808.4
13.345	81792.4
13.350	81815.4
13.355	81829.4
13.360	81831.4
13.365	81832.4
13.370	81824.4
13.375	81822.4
13.380	81824.4
13.385	81835.4
13.390	81822.4
13.395	81826.4
13.400	81813.4
13.405	81804.4
13.410	81786.4
13.415	81784.4
13.420	81794.4
13.425	81781.4
13.430	81744.4
13.435	81688.5
13.440	81513.6
13.445	81193.8
13.450	80625.3
13.455	80064.7
13.460	79947.8
13.465	80315.5
13.470	80894.1
13.475	81395.7
13.480	81652.5
13.485	81773.4
13.490	81792.4
13.495	81804.4
13.500	81799.4
13.505	81808.4
13.510	81796.4
13.515	81798.4
13.520	81800.4
13.525	81810.4
13.530	81819.4
13.535	81817.4
13.540	81789.4
13.545	81773.4
13.550	81798.4
13.555	81808.4
13.560	81807.4
13.565	81804.4
13.570	81811.4
13.575	81819.4
13.580	81803.4
13.585	81812.4
13.590	81814.4
13.595	81823.4
13.600	81821.4
13.605	81800.4
13.610	81773.4
13.615	81784.4
13.620	81817.4
13.625	81813.4
13.630	81806.4
13.635	81823.4
13.640	81814.4
13.645	81817.4
13.650	81817.4
13.655	81832.4
13.660	81825.4
13.665	81836.4
13.670	81833.3
13.675	81807.4
13.680	81799.4
13.685	81835.3
13.690	81836.3
13.695	81845.3
13.700	81848.3
13.705	81844.3
13.710	81841.3
13.715	81846.3
13.720	81847.3
13.725	81851.3
13.730	81860.3
13.735	81857.3
13.740	81828.4
13.745	81820.4
13.750	81834.3
13.755	81845.3
13.760	81874.3
13.765	81858.3
13.770	81861.3
13.775	81868.3
13.780	81869.3
13.785	81871.3
13.790	81886.3
13.795	81890.3
13.800	81895.3
13.805	81880.3
13.810	81862.3
13.815	81868.3
13.820	81896.3
13.825	81897.3
13.830	81902.3
13.835	81909.3
13.840	81898.3
13.845	81894.3
13.850	81896.3
13.855	81905.3
13.860	81906.3
13.865	81917.3
13.870	81895.3
13.875	81875.3
13.880	81865.3
13.885	81899.3
13.890	81908.3
13.895	81914.3
13.900	81903.3
13.905	81900.3
13.910	81907.3
13.915	81918.3
13.920	81907.3
13.925	81917.3
13.930	81923.3
13.935	81918.3
13.940	81892.3
13.945	81880.3
13.950	81892.3
13.955	81915.3
13.960	81912.3
13.965	81917.3
13.970	81919.3
13.975	81915.3
13.980	81901.3
13.985	81898.3
13.990	81900.3
13.995	81903.3
14.000	81909.3
14.005	81900.3
14.010	81870.3
14.015	81881.3
14.020	81898.3
14.025	81908.3
14.030	81905.3
14.035	81909.3
14.040	81911.3
14.045	81905.3
14.050	81911.3
14.055	81915.3
14.060	81919.3
14.065	81912.3
14.070	81909.3
14.075	81894.3
14.080	81894.3
14.085	81918.3
14.090	81912.3
14.095	81927.3
14.100	81920.3
14.105	81916.3
14.110	81914.3
14.115	81919.3
14.120	81914.3
14.125	81927.3
14.130	81925.3
14.135	81919.3
14.140	81881.3
14.145	81880.3
14.150	81900.3
14.155	81911.3
14.160	81914.3
14.165	81920.3
14.170	81911.3
14.175	81910.3
14.180	81912.3
14.185	81920.3
14.190	81930.3
14.195	81924.3
14.200	81929.3
14.205	81903.3
14.210	81875.3
14.215	81897.3
14.220	81920.3
14.225	81922.3
14.230	81925.3
14.235	81926.3
14.240	81926.3
14.245	81929.3
14.250	81929.3
14.255	81919.3
14.260	81916.3
14.265	81918.3
14.270	81894.3
14.275	81871.3
14.280	81880.3
14.285	81917.3
14.290	81915.3
14.295	81904.3
14.300	81906.3
14.305	81909.3
14.310	81896.3
14.315	81907.3
14.320	81918.3
14.325	81914.3
14.330	81917.3
14.335	81916.3
14.340	81886.3
14.345	81872.3
14.350	81899.3
14.355	81907.3
14.360	81913.3
14.365	81923.2
14.370	81911.3
14.375	81914.3
14.380	81908.3
14.385	81908.3
14.390	81896.3
14.395	81904.3
14.400	81903.3
14.405	81881.3
14.410	81861.3
14.415	81884.3
14.420	81895.3
14.425	81898.3
14.430	81903.3
14.435	81900.3
14.440	81900.3
14.445	81900.3
14.450	81892.3
14.455	81903.3
14.460	81899.3
14.465	81907.3
14.470	81895.3
14.475	81869.3
14.480	81868.3
14.485	81913.3
14.490	81904.3
14.495	81900.3
14.500	81909.3
14.505	81908.3
14.510	81898.3
14.515	81904.3
14.520	81897.3
14.525	81902.3
14.530	81894.3
14.535	81885.3
14.540	81857.3
14.545	81846.3
14.550	81884.3
14.555	81897.3
14.560	81896.3
14.565	81885.3
14.570	81880.3
14.575	81885.3
14.580	81871.3
14.585	81880.3
14.590	81877.3
14.595	81885.3
14.600	81887.3
14.605	81876.3
14.610	81854.3
14.615	81853.3
14.620	81873.3
14.625	81880.3
14.630	81880.3
14.635	81879.3
14.640	81885.3
14.645	81875.3
14.650	81861.3
14.655	81869.3
14.660	81864.3
14.665	81867.3
14.670	81845.3
14.675	81825.3
14.680	81816.3
14.685	81858.3
14.690	81860.3
14.695	81851.3
14.700	81844.3
14.705	81845.3
14.710	81827.3
14.715	81820.3
14.720	81834.3
14.725	81831.3
14.730	81837.3
14.735	81836.3
14.740	81798.3
14.745	81783.3
14.750	81814.3
14.755	81811.3
14.760	81813.3
14.765	81805.3
14.770	81817.3
14.775	81816.3
14.780	81808.3
14.785	81812.3
14.790	81803.3
14.795	81803.3
14.800	81788.3
14.805	81751.4
14.810	81749.4
14.815	81755.3
14.820	81772.3
14.825	81771.3
14.830	81767.3
14.835	81758.3
14.840	81753.4
14.845	81747.4
14.850	81755.3
14.855	81767.3
14.860	81765.3
14.865	81769.3
14.870	81750.4
14.875	81736.4
14.880	81728.4
14.885	81760.3
14.890	81771.3
14.895	81777.3
14.900	81766.3
14.905	81759.3
14.910	81762.3
14.915	81762.3
14.920	81776.3
14.925	81774.3
14.930	81774.3
14.935	81760.3
14.940	81746.4
14.945	81740.4
14.950	81778.3
14.955	81783.3
14.960	81778.3
14.965	81782.3
14.970	81795.3
14.975	81794.3
14.980	81781.3
14.985	81779.3
14.990	81793.3
14.995	81800.3
15.000	81799.3
15.005	81785.3
15.010	81761.3
15.015	81781.3
15.020	81803.3
15.025	81811.3
15.030	81809.3
15.035	81810.3
15.040	81812.3
15.045	81808.3
15.050	81804.3
15.055	81815.3
15.060	81809.3
15.065	81818.3
15.070	81790.3
15.075	81766.3
15.080	81774.3
15.085	81809.3
15.090	81810.3
15.095	81809.3
15.100	81808.3
15.105	81808.3
15.110	81798.3
15.115	81812.3
15.120	81800.3
15.125	81803.3
15.130	81809.3
15.135	81811.3
15.140	81767.3
15.145	81762.3
15.150	81797.3
15.155	81807.3
15.160	81797.3
15.165	81800.3
15.170	81786.3
15.175	81793.3
15.180	81788.3
15.185	81780.3
15.190	81780.3
15.195	81785.3
15.200	81768.3
15.205	81744.3
15.210	81738.3
15.215	81762.3
15.220	81774.3
15.225	81774.3
15.230	81771.3
15.235	81765.3
15.240	81749.3
15.245	81747.3
15.250	81752.3
15.255	81757.3
15.260	81743.3
15.265	81755.3
15.270	81732.3
15.275	81712.4
15.280	81704.4
15.285	81743.3
15.290	81740.3
15.295	81737.3
15.300	81740.3
15.305	81741.3
15.310	81736.3
15.315	81725.3
15.320	81719.3
15.325	81716.4
15.330	81716.4
15.335	81693.4
15.340	81678.4
15.345	81667.4
15.350	81701.4
15.355	81708.4
15.360	81689.4
15.365	81701.4
15.370	81699.4
15.375	81703.4
15.380	81693.4
15.385	81690.4
15.390	81693.4
15.395	81698.4
15.400	81706.4
15.405	81673.4
15.410	81662.4
15.415	81681.4
15.420	81688.4
15.425	81692.4
15.430	81689.4
15.435	81680.4
15.440	81674.4
15.445	81671.4
15.450	81669.4
15.455	81679.4
15.460	81692.4
15.465	81685.4
15.470	81655.4
15.475	81643.4
15.480	81649.4
15.485	81675.4
15.490	81680.4
15.495	81670.4
15.500	81677.4
15.505	81682.4
15.510	81672.4
15.515	81688.4
15.520	81681.4
15.525	81690.4
15.530	81690.4
15.535	81686.4
15.540	81655.4
15.545	81657.4
15.550	81685.4
15.555	81700.3
15.560	81694.4
15.565	81701.3
15.570	81701.3
15.575	81696.4
15.580	81697.3
15.585	81698.3
15.590	81690.4
15.595	81692.4
15.600	81691.4
15.605	81664.4
15.610	81654.4
15.615	81685.4
15.620	81690.4
15.625	81705.3
15.630	81701.3
15.635	81711.3
15.640	81708.3
15.645	81716.3
15.650	81709.3
15.655	81711.3
15.660	81725.3
15.665	81727.3
15.670	81715.3
15.675	81691.3
15.680	81714.3
15.685	81736.3
15.690	81743.3
15.695	81748.3
15.700	81741.3
15.705	81742.3
15.710	81735.3
15.715	81738.3
15.720	81736.3
15.725	81741.3
15.730	81738.3
15.735	81716.3
15.740	81704.3
15.745	81698.3
15.750	81740.3
15.755	81736.3
15.760	81736.3
15.765	81740.3
15.770	81739.3
15.775	81738.3
15.780	81751.3
15.785	81760.3
15.790	81755.3
15.795	81770.3
15.800	81749.3
15.805	81739.3
15.810	81713.3
15.815	81749.3
15.820	81748.3
15.825	81759.3
15.830	81758.3
15.835	81770.3
15.840	81767.3
15.845	81769.3
15.850	81769.3
15.855	81779.3
15.860	81776.3
15.865	81771.3
15.870	81745.3
15.875	81733.3
15.880	81745.3
15.885	81770.3
15.890	81749.3
15.895	81754.3
15.900	81757.3
15.905	81756.3
15.910	81749.3
15.915	81757.3
15.920	81757.3
15.925	81762.3
15.930	81766.3
15.935	81758.3
15.940	81745.3
15.945	81737.3
15.950	81754.3
15.955	81764.3
15.960	81776.3
15.965	81771.3
15.970	81773.3
15.975	81771.3
15.980	81765.3
15.985	81770.3
15.990	81768.3
15.995	81755.3
16.000	81751.3
16.005	81732.3
16.010	81724.3
16.015	81744.3
16.020	81759.3
16.025	81749.3
16.030	81736.3
16.035	81747.3
16.040	81746.3
16.045	81751.3
16.050	81735.3
16.055	81742.3
16.060	81745.3
16.065	81749.3
16.070	81732.3
16.075	81719.3
16.080	81720.3
16.085	81746.3
16.090	81750.3
16.095	81754.3
16.100	81745.3
16.105	81744.3
16.110	81744.3
16.115	81741.3
16.120	81742.3
16.125	81747.3
16.130	81746.3
16.135	81725.3
16.140	81703.3
16.145	81715.3
16.150	81742.3
16.155	81741.3
16.160	81732.3
16.165	81748.3
16.170	81739.3
16.175	81746.3
16.180	81748.3
16.185	81740.3
16.190	81726.3
16.195	81740.3
16.200	81749.3
16.205	81726.3
16.210	81704.3
16.215	81720.3
16.220	81733.3
16.225	81735.3
16.230	81741.3
16.235	81743.3
16.240	81732.3
16.245	81728.3
16.250	81729.3
16.255	81728.3
16.260	81713.3
16.265	81720.3
16.270	81691.3
16.275	81686.3
16.280	81692.3
16.285	81712.3
16.290	81715.3
16.295	81712.3
16.300	81691.3
16.305	81694.3
16.310	81702.3
16.315	81697.3
16.320	81701.3
16.325	81704.3
16.330	81709.3
16.335	81708.3
16.340	81670.3
16.345	81666.3
16.350	81706.3
16.355	81703.3
16.360	81695.3
16.365	81696.3
16.370	81695.3
16.375	81690.3
16.380	81691.3
16.385	81689.3
16.390	81681.3
16.395	81687.3
16.400	81673.3
16.405	81657.3
16.410	81650.3
16.415	81688.3
16.420	81693.3
16.425	81686.3
16.430	81681.3
16.435	81683.3
16.440	81677.3
16.445	81686.3
16.450	81685.3
16.455	81690.3
16.460	81693.3
16.465	81707.3
16.470	81679.3
16.475	81666.3
16.480	81688.3
16.485	81712.3
16.490	81701.3
16.495	81711.3
16.500	81710.3
16.505	81716.3
16.510	81718.3
16.515	81713.3
16.520	81715.3
16.525	81715.3
16.530	81714.3
16.535	81703.3
16.540	81678.3
16.545	81691.3
16.550	81717.3
16.555	81718.3
16.560	81712.3
16.565	81707.3
16.570	81708.3
16.575	81709.3
16.580	81707.3
16.585	81703.3
16.590	81706.3
16.595	81720.3
16.600	81715.3
16.605	81685.3
16.610	81671.3
16.615	81704.3
16.620	81709.3
16.625	81705.3
16.630	81694.3
16.635	81703.3
16.640	81698.3
16.645	81685.3
16.650	81686.3
16.655	81680.3
16.660	81678.3
16.665	81673.3
16.670	81647.3
16.675	81631.3
16.680	81641.3
16.685	81668.3
16.690	81669.3
16.695	81654.3
16.700	81661.3
16.705	81659.3
16.710	81648.3
16.715	81648.3
16.720	81642.3
16.725	81637.3
16.730	81636.3
16.735	81617.3
16.740	81594.3
16.745	81595.3
16.750	81614.3
16.755	81599.3
16.760	81594.3
16.765	81603.3
16.770	81590.3
16.775	81596.3
16.780	81596.3
16.785	81579.3
16.790	81570.4
16.795	81566.4
16.800	81541.4
16.805	81522.4
16.810	81514.4
16.815	81541.4
16.820	81543.4
16.825	81547.4
16.830	81527.4
16.835	81518.4
16.840	81506.4
16.845	81494.4
16.850	81477.4
16.855	81470.4
16.860	81473.4
16.865	81470.4
16.870	81446.4
16.875	81418.5
16.880	81430.5
16.885	81448.4
16.890	81453.4
16.895	81459.4
16.900	81455.4
16.905	81459.4
16.910	81452.4
16.915	81456.4
16.920	81449.4
16.925	81439.4
16.930	81443.4
16.935	81424.4
16.940	81407.5
16.945	81417.5
16.950	81454.4
16.955	81466.4
16.960	81468.4
16.965	81478.4
16.970	81474.4
16.975	81473.4
16.980	81456.4
16.985	81453.4
16.990	81469.4
16.995	81486.4
17.000	81485.4
17.005	81467.4
17.010	81448.4
17.015	81487.4
17.020	81508.4
17.025	81518.4
17.030	81518.4
17.035	81523.4
17.040	81540.3
17.045	81544.3
17.050	81536.4
17.055	81532.4
17.060	81531.4
17.065	81537.4
17.070	81503.4
17.075	81491.4
17.080	81519.4
17.085	81528.4
17.090	81532.4
17.095	81522.4
17.100	81521.4
17.105	81529.4
17.110	81540.3
17.115	81542.3
17.120	81544.3
17.125	81548.3
17.130	81550.3
17.135	81537.3
17.140	81515.4
17.145	81516.4
17.150	81557.3
17.155	81572.3
17.160	81557.3
17.165	81568.3
17.170	81563.3
17.175	81574.3
17.180	81573.3
17.185	81577.3
17.190	81556.3
17.195	81552.3
17.200	81546.3
17.205	81540.3
17.210	81523.4
17.215	81550.3
17.220	81543.3
17.225	81536.3
17.230	81546.3
17.235	81554.3
17.240	81534.3
17.245	81538.3
17.250	81541.3
17.255	81550.3
17.260	81558.3
17.265	81561.3
17.270	81525.3
17.275	81513.4
17.280	81536.3
17.285	81560.3
17.290	81549.3
17.295	81550.3
17.300	81556.3
17.305	81546.3
17.310	81537.3
17.315	81528.3
17.320	81525.3
17.325	81537.3
17.330	81529.3
17.335	81506.3
17.340	81482.4
17.345	81497.4
17.350	81529.3
17.355	81534.3
17.360	81520.3
17.365	81527.3
17.370	81520.3
17.375	81530.3
17.380	81521.3
17.385	81529.3
17.390	81537.3
17.395	81547.3
17.400	81524.3
17.405	81512.3
17.410	81516.3
17.415	81557.3
17.420	81546.3
17.425	81557.3
17.430	81551.3
17.435	81552.3
17.440	81547.3
17.445	81562.3
17.450	81560.3
17.455	81559.3
17.460	81562.3
17.465	81562.3
17.470	81532.3
17.475	81521.3
17.480	81552.3
17.485	81567.3
17.490	81572.3
17.495	81565.3
17.500	81554.3
17.505	81564.3
17.510	81556.3
17.515	81562.3
17.520	81565.3
17.525	81575.3
17.530	81562.3
17.535	81534.3
17.540	81512.3
17.545	81517.3
17.550	81545.3
17.555	81534.3
17.560	81520.3
17.565	81459.4
17.570	81426.4
17.575	81490.3
17.580	81534.3
17.585	81560.3
17.590	81553.3
17.595	81560.3
17.600	81556.3
17.605	81535.3
17.610	81520.3
17.615	81561.3
17.620	81552.3
17.625	81557.3
17.630	81559.3
17.635	81574.3
17.640	81563.3
17.645	81563.3
17.650	81556.3
17.655	81570.3
17.660	81586.3
17.665	81597.2
17.670	81568.3
17.675	81572.3
17.680	81580.3
17.685	81600.2
17.690	81594.2
17.695	81603.2
17.700	81596.2
17.705	81608.2
17.710	81608.2
17.715	81606.2
17.720	81623.2
17.725	81621.2
17.730	81620.2
17.735	81601.2
17.740	81584.2
17.745	81609.2
17.750	81643.2
17.755	81643.2
17.760	81642.2
17.765	81645.2
17.770	81649.2
17.775	81655.2
17.780	81652.2
17.785	81662.2
17.790	81673.2
17.795	81693.2
17.800	81688.2
17.805	81667.2
17.810	81670.2
17.815	81712.1
17.820	81723.1
17.825	81731.1
17.830	81714.1
17.835	81719.1
17.840	81725.1
17.845	81735.1
17.850	81735.1
17.855	81742.1
17.860	81741.1
17.865	81752.1
17.870	81735.1
17.875	81721.1
17.880	81748.1
17.885	81761.1
17.890	81760.1
17.895	81769.1
17.900	81768.1
17.905	81761.1
17.910	81758.1
17.915	81765.1
17.920	81761.1
17.925	81773.1
17.930	81778.1
17.935	81757.1
17.940	81725.1
17.945	81733.1
17.950	81759.1
17.955	81769.1
17.960	81744.1
17.965	81743.1
17.970	81740.1
17.975	81746.1
17.980	81750.1
17.985	81753.1
17.990	81756.1
17.995	81746.1
18.000	81715.1
18.005	81698.1
18.010	81710.1
18.015	81727.1
18.020	81702.1
18.025	81706.1
18.030	81714.1
18.035	81711.1
18.040	81711.1
18.045	81708.1
18.050	81693.1
18.055	81694.1
18.060	81703.1
18.065	81720.1
18.070	81681.1
18.075	81672.1
18.080	81689.1
18.085	81699.1
18.090	81699.1
18.095	81707.1
18.100	81715.1
18.105	81713.1
18.110	81708.1
18.115	81713.1
18.120	81706.1
18.125	81711.1
18.130	81706.1
18.135	81682.1
18.140	81663.1
18.145	81686.1
18.150	81699.1
18.155	81701.1
18.160	81691.1
18.165	81688.1
18.170	81688.1
18.175	81686.1
18.180	81674.1
18.185	81677.1
18.190	81670.1
18.195	81684.1
18.200	81684.1
18.205	81650.1
18.210	81650.1
18.215	81664.1
18.220	81667.1
18.225	81674.1
18.230	81672.1
18.235	81664.1
18.240	81655.1
18.245	81652.1
18.250	81649.1
18.255	81653.1
18.260	81658.1
18.265	81649.1
18.270	81619.1
18.275	81622.1
18.280	81639.1
18.285	81650.1
18.290	81650.1
18.295	81653.1
18.300	81659.1
18.305	81655.1
18.310	81647.1
18.315	81643.1
18.320	81640.1
18.325	81653.1
18.330	81660.1
18.335	81649.1
18.340	81629.1
18.345	81639.1
18.350	81653.1
18.355	81666.1
18.360	81644.1
18.365	81654.1
18.370	81644.1
18.375	81642.1
18.380	81635.1
18.385	81639.1
18.390	81636.1
18.395	81638.1
18.400	81624.1
18.405	81594.1
18.410	81586.1
18.415	81612.1
18.420	81600.1
18.425	81603.1
18.430	81615.1
18.435	81618.1
18.440	81600.1
18.445	81603.1
18.450	81586.1
18.455	81579.1
18.460	81587.1
18.465	81585.1
18.470	81556.2
18.475	81532.2
18.480	81553.2
18.485	81557.2
18.490	81549.2
18.495	81548.2
18.500	81544.2
18.505	81548.2
18.510	81528.2
18.515	81523.2
18.520	81518.2
18.525	81518.2
18.530	81525.2
18.535	81496.2
18.540	81457.2
18.545	81479.2
18.550	81495.2
18.555	81495.2
18.560	81496.2
18.565	81504.2
18.570	81481.2
18.575	81481.2
18.580	81487.2
18.585	81493.2
18.590	81512.2
18.595	81512.2
18.600	81480.2
18.605	81467.2
18.610	81459.2
18.615	81491.2
18.620	81493.2
18.625	81500.2
18.630	81485.2
18.635	81480.2
18.640	81466.2
18.645	81477.2
18.650	81466.2
18.655	81456.2
18.660	81457.2
18.665	81446.2
18.670	81418.2
18.675	81419.2
18.680	81453.2
18.685	81456.2
18.690	81445.2
18.695	81436.2
18.700	81430.2
18.705	81438.2
18.710	81438.2
18.715	81435.2
18.720	81435.2
18.725	81449.2
18.730	81462.2
18.735	81435.2
18.740	81412.2
18.745	81422.2
18.750	81437.2
18.755	81439.2
18.760	81456.2
18.765	81454.2
18.770	81458.2
18.775	81445.2
18.780	81433.2
18.785	81418.2
18.790	81426.2
18.795	81423.2
18.800	81390.2
18.805	81385.2
18.810	81385.2
18.815	81404.2
18.820	81390.2
18.825	81402.2
18.830	81398.2
18.835	81408.2
18.840	81388.2
18.845	81360.2
18.850	81342.3
18.855	81342.3
18.860	81325.3
18.865	81336.3
18.870	81300.3
18.875	81271.3
18.880	81279.3
18.885	81279.3
18.890	81278.3
18.895	81284.3
18.900	81263.3
18.905	81244.3
18.910	81256.3
18.915	81281.3
18.920	81301.3
18.925	81300.3
18.930	81305.3
18.935	81280.3
18.940	81250.3
18.945	81260.3
18.950	81252.3
18.955	81253.3
18.960	81286.3
18.965	81318.3
18.970	81331.2
18.975	81350.2
18.980	81361.2
18.985	81381.2
18.990	81390.2
18.995	81408.2
19.000	81379.2
19.005	81357.2
19.010	81370.2
19.015	81417.2
19.020	81426.2
19.025	81424.2
19.030	81419.2
19.035	81426.2
19.040	81417.2
19.045	81417.2
19.050	81425.2
19.055	81426.1
19.060	81432.1
19.065	81426.2
19.070	81416.2
19.075	81411.2
19.080	81430.1
19.085	81441.1
19.090	81431.1
19.095	81434.1
19.100	81425.1
19.105	81425.1
19.110	81426.1
19.115	81414.1
19.120	81418.1
19.125	81419.1
19.130	81412.1
19.135	81400.1
19.140	81383.2
19.145	81416.1
19.150	81437.1
19.155	81430.1
19.160	81404.1
19.165	81401.1
19.170	81394.1
19.175	81390.1
19.180	81372.2
19.185	81363.2
19.190	81343.2
19.195	81331.2
19.200	81295.2
19.205	81269.2
19.210	81251.2
19.215	81266.2
19.220	81240.2
19.225	81229.3
19.230	81205.3
19.235	81194.3
19.240	81203.3
19.245	81215.3
19.250	81217.3
19.255	81220.3
19.260	81220.3
19.265	81219.2
19.270	81190.3
19.275	81200.3
19.280	81234.2
19.285	81234.2
19.290	81242.2
19.295	81252.2
19.300	81245.2
19.305	81267.2
19.310	81273.2
19.315	81275.2
19.320	81283.2
19.325	81298.2
19.330	81298.2
19.335	81289.2
19.340	81295.2
19.345	81333.1
19.350	81349.1
19.355	81366.1
19.360	81367.1
19.365	81381.1
19.370	81383.1
19.375	81383.1
19.380	81375.1
19.385	81376.1
19.390	81380.1
19.395	81376.1
19.400	81369.1
19.405	81358.1
19.410	81353.1
19.415	81400.1
19.420	81395.1
19.425	81404.1
19.430	81400.1
19.435	81389.1
19.440	81386.1
19.445	81390.1
19.450	81382.1
19.455	81402.1
19.460	81396.1
19.465	81378.1
19.470	81346.1
19.475	81348.1
19.480	81365.1
19.485	81368.1
19.490	81354.1
19.495	81334.1
19.500	81329.1
19.505	81323.1
19.510	81316.1
19.515	81304.1
19.520	81290.1
19.525	81296.1
19.530	81294.1
19.535	81271.1
19.540	81258.1
19.545	81279.1
19.550	81286.1
19.555	81299.1
19.560	81276.1
19.565	81262.1
19.570	81250.1
19.575	81230.2
19.580	81227.2
19.585	81243.1
19.590	81235.1
19.595	81238.1
19.600	81211.2
19.605	81188.2
19.610	81179.2
19.615	81221.2
19.620	81230.1
19.625	81232.1
19.630	81227.1
19.635	81234.1
19.640	81216.1
19.645	81181.2
19.650	81171.2
19.655	81181.2
19.660	81156.2
19.665	81135.2
19.670	81127.2
19.675	81132.2
19.680	81131.2
19.685	81114.2
19.690	81107.2
19.695	81119.2
19.700	81096.2
19.705	81086.2
19.710	81068.2
19.715	81075.2
19.720	81071.2
19.725	81089.2
19.730	81081.2
19.735	81055.2
19.740	81019.3
19.745	81047.2
19.750	81065.2
19.755	81080.2
19.760	81070.2
19.765	81059.2
19.770	81028.2
19.775	80997.3
19.780	80983.3
19.785	80997.3
19.790	80999.3
19.795	81007.2
19.800	80978.3
19.805	80953.3
19.810	80948.3
19.815	80966.3
19.820	80975.3
19.825	80967.3
19.830	80972.3
19.835	80962.3
19.840	80950.3
19.845	80943.3
19.850	80966.3
19.855	80983.2
19.860	80991.2
19.865	80993.2
19.870	80988.2
19.875	81008.2
19.880	81061.2
19.885	81082.2
19.890	81086.1
19.895	81103.1
19.900	81123.1
19.905	81146.1
19.910	81164.1
19.915	81179.1
19.920	81187.1
19.925	81195.0
19.930	81182.1
19.935	81169.1
19.940	81160.1
19.945	81195.0
19.950	81205.0
19.955	81212.0
19.960	81218.0
19.965	81239.0
19.970	81235.0
19.975	81237.0
19.980	81231.0
19.985	81239.0
19.990	81241.0
19.995	81242.0
20.000	81206.0
20.005	81191.0
20.010	81210.0
20.015	81219.0
20.020	81206.0
20.025	81211.0
20.030	81205.0
20.035	81203.0
20.040	81183.0
20.045	81182.0
20.050	81188.0
20.055	81185.0
20.060	81171.0
20.065	81141.0
20.070	81125.0
20.075	81122.0
20.080	81131.0
20.085	81145.0
20.090	81151.0
20.095	81145.0
20.100	81147.0
20.105	81141.0
20.110	81120.0
20.115	81114.0
20.120	81116.0
20.125	81117.0
20.130	81101.0
20.135	81067.0
20.140	81054.0
20.145	81074.0
20.150	81055.0
20.155	81058.0
20.160	81041.0
20.165	81023.0
20.170	81007.1
20.175	81011.1
20.180	80980.1
20.185	80961.1
20.190	80971.1
20.195	80970.1
20.200	80915.1
20.205	80865.1
20.210	80848.2
20.215	80856.1
20.220	80859.1
20.225	80852.1
20.230	80834.2
20.235	80808.2
20.240	80804.2
20.245	80823.2
20.250	80829.2
20.255	80848.1
20.260	80847.1
20.265	80841.1
20.270	80825.1
20.275	80829.1
20.280	80848.1
20.285	80864.1
20.290	80851.1
20.295	80822.1
20.300	80818.1
20.305	80808.1
20.310	80795.1
20.315	80772.1
20.320	80761.2
20.325	80777.1
20.330	80765.1
20.335	80713.2
20.340	80657.2
20.345	80641.2
20.350	80591.3
20.355	80572.3
20.360	80540.3
20.365	80525.3
20.370	80488.3
20.375	80459.3
20.380	80435.4
20.385	80423.4
20.390	80432.3
20.395	80452.3
20.400	80427.3
20.405	80426.3
20.410	80440.3
20.415	80467.3
20.420	80479.3
20.425	80489.3
20.430	80491.3
20.435	80529.2
20.440	80551.2
20.445	80567.2
20.450	80567.2
20.455	80569.2
20.460	80545.2
20.465	80525.2
20.470	80505.2
20.475	80494.2
20.480	80479.2
20.485	80476.2
20.490	80480.2
20.495	80506.2
20.500	80479.2
20.505	80446.2
20.510	80415.3
20.515	80401.3
20.520	80326.3
20.525	80258.4
20.530	80195.4
20.535	80134.4
20.540	80075.5
20.545	80101.5
20.550	80098.5
20.555	80071.5
20.560	80055.5
20.565	80053.5
20.570	80018.5
20.575	79991.5
20.580	79952.5
20.585	79945.5
20.590	79970.5
20.595	80018.5
20.600	80022.5
20.605	80043.4
20.610	80077.4
20.615	80115.4
20.620	80126.4
20.625	80140.3
20.630	80142.3
20.635	80142.3
20.640	80093.4
20.645	80035.4
20.650	79992.4
20.655	79931.5
20.660	79876.5
20.665	79806.5
20.670	79746.6
20.675	79694.6
20.680	79680.6
20.685	79584.7
20.690	79529.7
20.695	79540.7
20.700	79538.7
20.705	79535.7
20.710	79550.7
20.715	79507.7
20.720	79465.7
20.725	79392.8
20.730	79279.9
20.735	79213.9
20.740	79237.9
20.745	79293.8
20.750	79323.8
20.755	79370.7
20.760	79405.7
20.765	79415.7
20.770	79429.7
20.775	79466.6
20.780	79486.6
20.785	79516.6
20.790	79518.6
20.795	79529.5
20.800	79485.6
20.805	79482.6
20.810	79516.5
20.815	79568.5
20.820	79568.5
20.825	79549.5
20.830	79526.5
20.835	79509.5
20.840	79480.5
20.845	79460.5
20.850	79444.5
20.855	79376.5
20.860	79270.6
20.865	79137.7
20.870	78982.8
20.875	78890.9
20.880	78817.9
20.885	78737.0
20.890	78631.0
20.895	78607.0
20.900	78637.0
20.905	78700.0
20.910	78736.9
20.915	78821.8
20.920	78971.7
20.925	79139.6
20.930	79202.5
20.935	79127.5
20.940	79060.6
20.945	79019.6
20.950	78898.7
20.955	78667.8
20.960	78466.0
20.965	78365.1
20.970	78342.1
20.975	78420.0
20.980	78647.8
20.985	78834.6
20.990	78920.5
20.995	79018.5
21.000	79192.3
21.005	79451.1
21.010	79609.9
21.015	79668.9
21.020	79663.8
21.025	79560.9
21.030	79383.0
21.035	79257.1
21.040	79271.1
21.045	79371.0
21.050	79477.8
21.055	79584.7
21.060	79613.7
21.065	79439.8
21.070	79210.0
21.075	79137.0
21.080	79155.9
21.085	79156.9
21.090	79095.9
21.095	78867.1
21.100	78479.3
21.105	78133.6
21.110	77569.0
21.115	76605.7
21.120	76061.1
21.125	76292.9
21.130	76448.8
21.135	76468.7
21.140	77044.2
21.145	78311.2
21.150	78740.8
21.155	78340.0
21.160	78178.1
21.165	78238.0
21.170	78132.0
21.175	77978.1
21.180	78085.9
21.185	78224.8
21.190	77623.2
21.195	75792.6
21.200	74033.9
21.205	73926.9
21.210	74443.4
21.215	74024.7
21.220	73126.4
21.225	73883.6
21.230	76427.4
21.235	77499.5
21.240	77019.8
21.245	76406.2
21.250	76064.3
21.255	75741.5
21.260	75333.7
21.265	74826.2
21.270	74448.5
21.275	74504.5
21.280	74826.3
21.285	75048.3
21.290	75121.5
21.295	75253.6
21.300	75589.7
21.305	76211.6
21.310	77023.4
21.315	77856.1
21.320	78642.0
21.325	79472.8
21.330	80300.7
21.335	81105.5
21.340	81769.3
21.345	82284.1
21.350	82594.0
21.355	82777.9
21.360	82864.9
21.365	82900.9
21.370	82927.9
21.375	82935.9
21.380	82947.9
21.385	82955.9
21.390	82969.9
21.395	82962.9
21.400	82930.9
21.405	82928.9
21.410	82955.9
21.415	82973.9
21.420	82975.9
21.425	82988.9
21.430	82970.9
21.435	82969.9
21.440	82967.9
21.445	82974.9
21.450	82969.9
21.455	82974.9
21.460	82976.9
21.465	82947.9
21.470	82947.9
21.475	82960.9
21.480	82973.9
21.485	82969.9
21.490	82964.9
21.495	82964.9
21.500	82964.9
21.505	82974.9
21.510	82970.9
21.515	82973.9
21.520	82975.9
21.525	82990.9
21.530	82972.9
21.535	82950.9
21.540	82946.9
21.545	82986.9
21.550	82986.9
21.555	82987.9
21.560	82984.9
21.565	82983.9
21.570	82992.9
21.575	82983.9
21.580	82978.9
21.585	82980.9
21.590	82977.9
21.595	82974.9
21.600	82952.9
21.605	82951.9
21.610	82978.9
21.615	82982.9
21.620	82971.9
21.625	82977.9
21.630	82979.9
21.635	82967.9
21.640	82982.9
21.645	82974.9
21.650	82976.9
21.655	82986.9
21.660	82994.9
21.665	82966.9
21.670	82952.9
21.675	82966.9
21.680	82981.9
21.685	82995.9
21.690	82988.9
21.695	82992.9
21.700	82993.9
21.705	82996.9
21.710	82979.9
21.715	82993.9
21.720	82987.9
21.725	82983.9
21.730	82970.9
21.735	82956.9
21.740	82954.9
21.745	82985.9
21.750	82989.9
21.755	82974.9
21.760	82985.9
21.765	82978.9
21.770	82973.9
21.775	82985.9
21.780	82975.9
21.785	82981.9
21.790	82998.9
21.795	82989.9
21.800	82957.9
21.805	82960.9
21.810	82982.9
21.815	82981.9
21.820	82994.9
21.825	82994.9
21.830	82994.9
21.835	82987.9
21.840	82991.9
21.845	82993.9
21.850	82993.9
21.855	82985.9
21.860	82999.9
21.865	82965.9
21.870	82951.9
21.875	82967.9
21.880	82989.9
21.885	82991.9
21.890	82981.9
21.895	82977.9
21.900	82989.9
21.905	82981.9
21.910	82982.9
21.915	82991.9
21.920	82997.9
21.925	82996.9
21.930	82981.9
21.935	82961.9
21.940	82961.9
21.945	82990.9
21.950	82984.9
21.955	83007.8
21.960	82988.9
21.965	82995.9
21.970	82996.9
21.975	83004.8
21.980	82988.9
21.985	82981.9
21.990	82998.9
21.995	82984.9
22.000	82963.9
22.005	82961.9
22.010	82980.9
22.015	82991.9
22.020	82994.9
22.025	82988.9
22.030	82984.9
22.035	82981.9
22.040	82983.9
22.045	82991.9
22.050	82994.9
22.055	83005.8
22.060	83000.9
22.065	82978.9
22.070	82962.9
22.075	82972.9
22.080	83000.9
22.085	82999.9
22.090	83001.9
22.095	83000.9
22.100	82997.9
22.105	82995.9
22.110	82997.9
22.115	82998.9
22.120	82993.9
22.125	82999.9
22.130	82965.9
22.135	82954.9
22.140	82960.9
22.145	82992.9
22.150	82994.9
22.155	83003.9
22.160	82987.9
22.165	82985.9
22.170	82981.9
22.175	82984.9
22.180	82981.9
22.185	83000.9
22.190	82997.9
22.195	82992.9
22.200	82977.9
22.205	82968.9
22.210	82987.9
22.215	83011.8
22.220	82997.9
22.225	82995.9
22.230	82998.9
22.235	83000.9
22.240	82992.9
22.245	82996.9
22.250	83003.9
22.255	83001.9
22.260	82984.9
22.265	82959.9
22.270	82954.9
22.275	82977.9
22.280	82994.9
22.285	83003.8
22.290	82998.9
22.295	82993.9
22.300	82977.9
22.305	82983.9
22.310	82986.9
22.315	82994.9
22.320	82996.9
22.325	83006.9
22.330	82980.9
22.335	82968.9
22.340	82964.9
22.345	83002.9
22.350	82995.9
22.355	82988.9
22.360	82996.9
22.365	82995.9
22.370	82999.9
22.375	83008.8
22.380	83003.9
22.385	82999.9
22.390	82998.9
22.395	82985.9
22.400	82947.9
22.405	82975.9
22.410	82989.9
22.415	83003.9
22.420	82994.9
22.425	82992.9
22.430	82992.9
22.435	82998.9
22.440	82989.9
22.445	82993.9
22.450	82996.9
22.455	82998.9
22.460	82996.9
22.465	82985.9
22.470	82971.9
22.475	82993.9
22.480	82996.9
22.485	83007.8
22.490	82999.9
22.495	83000.9
22.500	83005.9
22.505	83001.9
22.510	82999.9
22.515	83007.8
22.520	83009.8
22.525	83007.9
22.530	82974.9
22.535	82959.9
22.540	82973.9
22.545	82995.9
22.550	83000.8
22.555	83004.9
22.560	83001.9
22.565	83003.8
22.570	82990.9
22.575	82994.9
22.580	83003.9
22.585	83006.8
22.590	82994.9
22.595	83001.9
22.600	82979.9
22.605	82981.9
22.610	82998.9
22.615	83006.8
22.620	83005.8
22.625	83004.9
22.630	83007.8
22.635	82999.9
22.640	82996.9
22.645	83010.8
22.650	83014.8
22.655	83012.8
22.660	83002.8
22.665	82971.9
22.670	82958.9
22.675	82990.9
22.680	82996.9
22.685	83002.9
22.690	83000.9
22.695	83004.9
22.700	82993.9
22.705	82996.9
22.710	83003.8
22.715	82997.9
22.720	82997.9
22.725	83008.8
22.730	82988.9
22.735	82967.9
22.740	82980.9
22.745	83007.8
22.750	83002.9
22.755	83005.8
22.760	83003.9
22.765	82993.9
22.770	82999.9
22.775	83003.8
22.780	83001.9
22.785	83006.8
22.790	83000.9
22.795	82991.9
22.800	82972.9
22.805	82962.9
22.810	82997.9
22.815	83001.8
22.820	82998.9
22.825	83005.8
22.830	82995.9
22.835	82999.9
22.840	82999.9
22.845	82997.9
22.850	82998.9
22.855	83004.8
22.860	83001.9
22.865	82987.9
22.870	82969.9
22.875	82993.9
22.880	83008.8
22.885	83006.8
22.890	83000.9
22.895	82997.8
22.900	83006.8
22.905	82995.9
22.910	83004.8
22.915	83001.9
22.920	83007.8
22.925	83013.8
22.930	82977.9
22.935	82963.9
22.940	82972.9
22.945	83000.9
22.950	82998.9
22.955	83006.8
22.960	82991.9
22.965	82990.9
22.970	82999.9
22.975	82989.9
22.980	82988.9
22.985	82999.9
22.990	83003.9
22.995	82990.9
23.000	82960.9
23.005	82963.9
23.010	83002.8
23.015	83004.8
23.020	83002.8
23.025	83004.8
23.030	83004.9
23.035	82998.9
23.040	82990.9
23.045	83001.9
23.050	82995.9
23.055	83000.9
23.060	82992.9
23.065	82974.9
23.070	82957.9
23.075	82982.9
23.080	82990.9
23.085	82995.9
23.090	82977.9
23.095	82992.9
23.100	82991.9
23.105	82981.9
23.110	82991.9
23.115	82998.9
23.120	82999.9
23.125	83003.8
23.130	82974.9
23.135	82962.9
23.140	82965.9
23.145	82999.9
23.150	83003.9
23.155	83008.8
23.160	83002.8
23.165	83003.9
23.170	82993.9
23.175	82990.9
23.180	82980.9
23.185	82991.9
23.190	82994.9
23.195	82979.9
23.200	82960.9
23.205	82968.9
23.210	82991.9
23.215	82987.9
23.220	82990.9
23.225	82987.9
23.230	82984.9
23.235	82983.9
23.240	82988.9
23.245	82988.9
23.250	82993.9
23.255	82997.9
23.260	82993.9
23.265	82969.9
23.270	82949.9
23.275	82986.9
23.280	82987.9
23.285	83000.8
23.290	83001.9
23.295	83007.8
23.300	82999.9
23.305	82999.9
23.310	82987.9
23.315	82994.9
23.320	82988.9
23.325	82994.9
23.330	82968.9
23.335	82959.9
23.340	82968.9
23.345	82998.9
23.350	82987.9
23.355	82992.9
23.360	82988.9
23.365	82990.9
23.370	82978.9
23.375	82993.9
23.380	82993.9
23.385	82998.9
23.390	82999.9
23.395	82986.9
23.400	82962.9
23.405	82962.9
23.410	82992.9
23.415	82993.9
23.420	83000.8
23.425	83005.8
23.430	83007.8
23.435	83002.9
23.440	82995.9
23.445	82992.9
23.450	82996.9
23.455	82992.9
23.460	82986.9
23.465	82957.9
23.470	82962.9
23.475	82993.9
23.480	82999.9
23.485	82991.9
23.490	82991.9
23.495	82978.9
23.500	82968.9
23.505	82990.9
23.510	82983.9
23.515	83002.9
23.520	83001.9
23.525	83007.8
23.530	82975.9
23.535	82959.9
23.540	82969.9
23.545	82998.9
23.550	82997.9
23.555	83005.8
23.560	82999.9
23.565	83008.9
23.570	82998.9
23.575	82999.9
23.580	82996.9
23.585	82995.9
23.590	82995.9
23.595	82977.9
23.600	82952.9
23.605	82965.9
23.610	82988.9
23.615	82991.9
23.620	82996.9
23.625	82987.9
23.630	82986.9
23.635	82986.9
23.640	82985.9
23.645	82997.9
23.650	82985.9
23.655	83006.8
23.660	83000.9
23.665	82968.9
23.670	82960.9
23.675	82977.9
23.680	82998.9
23.685	83000.9
23.690	82998.9
23.695	82999.9
23.700	82997.9
23.705	83006.8
23.710	82994.9
23.715	82994.9
23.720	82990.9
23.725	82992.9
23.730	82959.9
23.735	82951.9
23.740	82967.9
23.745	82987.9
23.750	82983.9
23.755	82994.9
23.760	82988.9
23.765	82986.9
23.770	82979.9
23.775	82990.9
23.780	82983.9
23.785	83002.8
23.790	82996.9
23.795	82976.9
23.800	82961.9
23.805	82967.9
23.810	82985.9
23.815	82983.9
23.820	82986.9
23.825	82999.9
23.830	82993.9
23.835	82992.9
23.840	82990.9
23.845	82993.9
23.850	82993.9
23.855	82995.9
23.860	82977.9
23.865	82952.9
23.870	82951.9
23.875	82980.9
23.880	82988.9
23.885	82982.9
23.890	82985.9
23.895	82983.9
23.900	82975.9
23.905	82976.9
23.910	82968.9
23.915	82983.9
23.920	82987.9
23.925	83003.8
23.930	82974.9
23.935	82963.9
23.940	82973.9
23.945	82991.9
23.950	82991.9
23.955	82986.9
23.960	82988.9
23.965	82986.9
23.970	82986.9
23.975	82990.9
23.980	82992.9
23.985	82995.9
23.990	82984.9
23.995	82961.9
24.000	82934.9
24.005	82957.9
24.010	82980.9
24.015	82987.9
24.020	82982.9
24.025	82989.9
24.030	82981.9
24.035	82975.9
24.040	82978.9
24.045	82978.9
24.050	82978.9
24.055	82989.9
24.060	82989.9
24.065	82964.9
24.070	82955.9
24.075	82981.9
24.080	82987.9
24.085	82985.9
24.090	82990.9
24.095	82986.9
24.100	82983.9
24.105	82985.9
24.110	82987.9
24.115	82991.9
24.120	82991.9
24.125	82982.9
24.130	82950.9
24.135	82933.9
24.140	82958.9
24.145	82983.9
24.150	82981.9
24.155	82986.9
24.160	82983.9
24.165	82974.9
24.170	82972.9
24.175	82974.9
24.180	82967.9
24.185	82982.9
24.190	82987.9
24.195	82972.9
24.200	82949.9
24.205	82962.9
24.210	82988.9
24.215	82989.9
24.220	82985.9
24.225	82981.9
24.230	82971.9
24.235	82976.9
24.240	82974.9
24.245	82981.9
24.250	82983.9
24.255	82981.9
24.260	82964.9
24.265	82949.9
24.270	82936.9
24.275	82964.9
24.280	82967.9
24.285	82976.9
24.290	82969.9
24.295	82977.9
24.300	82973.9
24.305	82973.9
24.310	82967.9
24.315	82972.9
24.320	82976.9
24.325	82977.9
24.330	82958.9
24.335	82949.9
24.340	82967.9
24.345	82982.9
24.350	82983.9
24.355	82991.9
24.360	82972.9
24.365	82981.9
24.370	82971.9
24.375	82978.9
24.380	82974.9
24.385	82987.9
24.390	82987.9
24.395	82956.9
24.400	82944.9
24.405	82952.9
24.410	82976.9
24.415	82981.9
24.420	82972.9
24.425	82969.9
24.430	82969.9
24.435	82977.9
24.440	82967.9
24.445	82978.9
24.450	82977.9
24.455	82984.9
24.460	82961.9
24.465	82950.9
24.470	82943.9
24.475	82981.9
24.480	82982.9
24.485	82986.9
24.490	82984.9
24.495	82982.9
24.500	82977.9
24.505	82976.9
24.510	82976.9
24.515	82982.9
24.520	82983.9
24.525	82978.9
24.530	82944.9
24.535	82935.9
24.540	82969.9
24.545	82972.9
24.550	82981.9
24.555	82977.9
24.560	82972.9
24.565	82970.9
24.570	82971.9
24.575	82978.9
24.580	82970.9
24.585	82982.9
24.590	82982.9
24.595	82965.9
24.600	82942.9
24.605	82957.9
24.610	82981.9
24.615	82992.9
24.620	82986.9
24.625	82989.9
24.630	82977.9
24.635	82984.9
24.640	82970.9
24.645	82981.9
24.650	82974.9
24.655	82992.9
24.660	82955.9
24.665	82948.9
24.670	82949.9
24.675	82976.9
24.680	82975.9
24.685	82971.9
24.690	82965.9
24.695	82975.9
24.700	82977.9
24.705	82975.9
24.710	82979.9
24.715	82984.9
24.720	82979.9
24.725	82985.9
24.730	82957.9
24.735	82944.9
24.740	82967.9
24.745	82985.9
24.750	82987.9
24.755	82987.9
24.760	82988.9
24.765	82989.9
24.770	82979.9
24.775	82983.9
24.780	82980.9
24.785	82983.9
24.790	82982.9
24.795	82959.9
24.800	82946.9
24.805	82963.9
24.810	82985.9
24.815	82973.9
24.820	82969.9
24.825	82978.9
24.830	82984.9
24.835	82971.9
24.840	82977.9
24.845	82980.9
24.850	82987.9
24.855	82989.9
24.860	82971.9
24.865	82947.9
24.870	82944.9
24.875	82981.9
24.880	82988.9
24.885	82994.9
24.890	82986.9
24.895	82985.9
24.900	82978.9
24.905	82986.9
24.910	82976.9
24.915	82979.9
24.920	82983.9
24.925	82985.9
24.930	82944.9
24.935	82954.9
24.940	82973.9
24.945	82988.9
24.950	82976.9
24.955	82973.9
24.960	82971.9
24.965	82971.9
24.970	82978.9
24.975	82982.9
24.980	82987.9
24.985	82992.9
24.990	82990.9
24.995	82966.9
25.000	82941.9
25.005	82959.9
25.010	82975.9
25.015	82977.9
25.020	82979.9
25.025	82989.9
25.030	82986.9
25.035	82984.9
25.040	82979.9
25.045	82973.9
25.050	82979.9
25.055	82977.9
25.060	82959.9
25.065	82947.9
25.070	82952.9
25.075	82983.9
25.080	82968.9
25.085	82974.9
25.090	82969.9
25.095	82976.9
25.100	82968.9
25.105	82974.9
25.110	82973.9
25.115	82982.9
25.120	82989.9
25.125	82994.9
25.130	82960.9
25.135	82947.9
25.140	82968.9
25.145	82986.9
25.150	82989.9
25.155	82999.9
25.160	82988.9
25.165	82986.9
25.170	82975.9
25.175	82978.9
25.180	82979.9
25.185	82972.9
25.190	82975.9
25.195	82949.9
25.200	82942.9
25.205	82968.9
25.210	82978.9
25.215	82982.9
25.220	82972.9
25.225	82972.9
25.230	82967.9
25.235	82972.9
25.240	82964.9
25.245	82970.9
25.250	82983.9
25.255	82991.9
25.260	82982.9
25.265	82954.9
25.270	82949.9
25.275	82978.9
25.280	82978.9
25.285	82981.9
25.290	82975.9
25.295	82983.9
25.300	82980.9
25.305	82990.9
25.310	82991.9
25.315	82985.9
25.320	82982.9
25.325	82976.9
25.330	82950.9
25.335	82950.9
25.340	82974.9
25.345	82983.9
25.350	82970.9
25.355	82979.9
25.360	82970.9
25.365	82966.9
25.370	82964.9
25.375	82974.9
25.380	82973.9
25.385	82982.9
25.390	82988.9
25.395	82969.9
25.400	82946.9
25.405	82968.9
25.410	82979.9
25.415	82980.9
25.420	82975.9
25.425	82978.9
25.430	82974.9
25.435	82982.9
25.440	82986.9
25.445	82976.9
25.450	82976.9
25.455	82982.9
25.460	82960.9
25.465	82936.9
25.470	82943.9
25.475	82984.9
25.480	82978.9
25.485	82984.9
25.490	82975.9
25.495	82987.9
25.500	82972.9
25.505	82971.9
25.510	82971.9
25.515	82983.9
25.520	82984.9
25.525	82984.9
25.530	82965.9
25.535	82946.9
25.540	82976.9
25.545	82984.9
25.550	82975.9
25.555	82984.9
25.560	82978.9
25.565	82993.9
25.570	82979.9
25.575	82988.9
25.580	82990.9
25.585	82984.9
25.590	82975.9
25.595	82955.9
25.600	82943.9
25.605	82970.9
25.610	82984.9
25.615	82978.9
25.620	82977.9
25.625	82980.9
25.630	82975.9
25.635	82976.9
25.640	82982.9
25.645	82969.9
25.650	82983.9
25.655	82988.9
25.660	82978.9
25.665	82954.9
25.670	82960.9
25.675	82989.9
25.680	82988.9
25.685	82985.9
25.690	82989.9
25.695	82990.9
25.700	82987.9
25.705	82992.9
25.710	82998.9
25.715	82992.9
25.720	82990.9
25.725	82975.9
25.730	82951.9
25.735	82950.9
25.740	82981.9
25.745	82983.9
25.750	82974.9
25.755	82982.9
25.760	82977.9
25.765	82986.9
25.770	82987.9
25.775	82986.9
25.780	82977.9
25.785	82987.9
25.790	82995.9
25.795	82968.9
25.800	82952.9
25.805	82985.9
25.810	82993.9
25.815	82992.9
25.820	82990.9
25.825	82988.9
25.830	82991.9
25.835	82993.9
25.840	82990.9
25.845	82996.9
25.850	82991.9
25.855	82992.9
25.860	82965.9
25.865	82948.9
25.870	82955.9
25.875	82979.9
25.880	82981.9
25.885	82992.9
25.890	82985.9
25.895	82987.9
25.900	82990.9
25.905	82991.9
25.910	82983.9
25.915	82978.9
25.920	82983.9
25.925	82977.9
25.930	82965.9
25.935	82961.9
25.940	82982.9
25.945	82995.9
25.950	82996.9
25.955	82993.9
25.960	82994.9
25.965	82983.9
25.970	82986.9
25.975	82991.9
25.980	82986.9
25.985	82993.9
25.990	82990.9
25.995	82964.9
26.000	82948.9
26.005	82965.9
26.010	82980.9
26.015	82974.9
26.020	82986.9
26.025	82987.9
26.030	82984.9
26.035	82987.9
26.040	82976.9
26.045	82980.9
26.050	82988.9
26.055	83003.9
26.060	82975.9
26.065	82958.9
26.070	82961.9
26.075	82986.9
26.080	82993.9
26.085	82985.9
26.090	82990.9
26.095	82987.9
26.100	82984.9
26.105	82988.9
26.110	82984.9
26.115	82990.9
26.120	82986.9
26.125	82981.9
26.130	82949.9
26.135	82946.9
26.140	82978.9
26.145	82984.9
26.150	82986.9
26.155	82987.9
26.160	82988.9
26.165	82994.9
26.170	82984.9
26.175	82985.9
26.180	82981.9
26.185	82983.9
26.190	82987.9
26.195	82965.9
26.200	82952.9
26.205	82974.9
26.210	82983.9
26.215	83000.9
26.220	82993.9
26.225	83000.8
26.230	82991.9
26.235	82988.9
26.240	82981.9
26.245	82976.9
26.250	82977.9
26.255	82992.9
26.260	82963.9
26.265	82954.9
26.270	82956.9
26.275	82976.9
26.280	82983.9
26.285	82976.9
26.290	82975.9
26.295	82976.9
26.300	82979.9
26.305	82987.9
26.310	82987.9
