PK2650 Power Data
Z Position (mm)	105.000	W Position (deg)	288.00
Preform ID	Diameter (mm)	Time Stamp	Start Time	Operator	Serial Number
Test 1	25	03-Nov-22 18:05:01	03-Nov-22 18:07:20	[no user]	266007708
Radius (mm)	Power
-26.250	82821.0
-26.245	82831.0
-26.240	82834.0
-26.235	82815.0
-26.230	82796.1
-26.225	82810.0
-26.220	82836.0
-26.215	82837.0
-26.210	82835.0
-26.205	82831.0
-26.200	82835.0
-26.195	82839.0
-26.190	82847.0
-26.185	82838.0
-26.180	82856.0
-26.175	82852.0
-26.170	82854.0
-26.165	82815.0
-26.160	82830.0
-26.155	82843.0
-26.150	82852.0
-26.145	82846.0
-26.140	82838.0
-26.135	82838.0
-26.130	82845.0
-26.125	82844.0
-26.120	82852.0
-26.115	82856.0
-26.110	82863.0
-26.105	82854.0
-26.100	82838.0
-26.095	82831.0
-26.090	82848.0
-26.085	82867.0
-26.080	82872.0
-26.075	82872.0
-26.070	82870.0
-26.065	82873.0
-26.060	82873.0
-26.055	82877.0
-26.050	82891.0
-26.045	82875.0
-26.040	82883.0
-26.035	82854.0
-26.030	82843.0
-26.025	82852.0
-26.020	82878.0
-26.015	82874.0
-26.010	82867.0
-26.005	82872.0
-26.000	82868.0
-25.995	82870.0
-25.990	82876.0
-25.985	82882.0
-25.980	82883.0
-25.975	82889.0
-25.970	82882.0
-25.965	82853.0
-25.960	82860.0
-25.955	82879.0
-25.950	82900.0
-25.945	82882.0
-25.940	82886.0
-25.935	82885.0
-25.930	82894.0
-25.925	82897.0
-25.920	82913.0
-25.915	82907.0
-25.910	82903.0
-25.905	82895.0
-25.900	82865.0
-25.895	82872.0
-25.890	82895.0
-25.885	82898.0
-25.880	82892.0
-25.875	82886.0
-25.870	82880.0
-25.865	82887.0
-25.860	82891.0
-25.855	82888.0
-25.850	82896.0
-25.845	82889.0
-25.840	82901.0
-25.835	82868.0
-25.830	82865.0
-25.825	82877.0
-25.820	82899.0
-25.815	82893.0
-25.810	82896.0
-25.805	82890.0
-25.800	82895.0
-25.795	82902.0
-25.790	82903.0
-25.785	82906.0
-25.780	82907.0
-25.775	82907.0
-25.770	82892.0
-25.765	82871.0
-25.760	82884.0
-25.755	82908.0
-25.750	82903.0
-25.745	82892.0
-25.740	82892.0
-25.735	82889.0
-25.730	82899.0
-25.725	82892.0
-25.720	82900.0
-25.715	82899.0
-25.710	82908.0
-25.705	82897.0
-25.700	82865.0
-25.695	82870.0
-25.690	82892.0
-25.685	82901.0
-25.680	82896.0
-25.675	82900.0
-25.670	82898.0
-25.665	82894.0
-25.660	82901.0
-25.655	82905.0
-25.650	82907.0
-25.645	82906.0
-25.640	82907.0
-25.635	82879.0
-25.630	82875.0
-25.625	82889.0
-25.620	82906.0
-25.615	82894.0
-25.610	82895.0
-25.605	82888.0
-25.600	82890.0
-25.595	82895.0
-25.590	82894.0
-25.585	82900.0
-25.580	82901.0
-25.575	82906.0
-25.570	82888.0
-25.565	82858.0
-25.560	82871.0
-25.555	82894.0
-25.550	82898.0
-25.545	82891.0
-25.540	82898.0
-25.535	82892.0
-25.530	82903.0
-25.525	82904.0
-25.520	82901.0
-25.515	82904.0
-25.510	82911.0
-25.505	82904.0
-25.500	82876.0
-25.495	82868.0
-25.490	82889.0
-25.485	82889.0
-25.480	82891.0
-25.475	82890.0
-25.470	82893.0
-25.465	82887.0
-25.460	82900.0
-25.455	82886.0
-25.450	82895.0
-25.445	82901.0
-25.440	82904.0
-25.435	82867.0
-25.430	82863.0
-25.425	82871.0
-25.420	82901.0
-25.415	82887.0
-25.410	82900.0
-25.405	82898.0
-25.400	82895.0
-25.395	82894.0
-25.390	82903.0
-25.385	82901.0
-25.380	82908.0
-25.375	82897.0
-25.370	82881.0
-25.365	82858.0
-25.360	82863.0
-25.355	82891.0
-25.350	82893.0
-25.345	82892.0
-25.340	82881.0
-25.335	82886.0
-25.330	82880.0
-25.325	82880.0
-25.320	82891.0
-25.315	82893.0
-25.310	82895.0
-25.305	82878.0
-25.300	82865.0
-25.295	82866.0
-25.290	82879.0
-25.285	82885.0
-25.280	82888.0
-25.275	82887.0
-25.270	82889.0
-25.265	82884.0
-25.260	82901.0
-25.255	82901.0
-25.250	82907.0
-25.245	82900.0
-25.240	82905.0
-25.235	82869.0
-25.230	82861.0
-25.225	82866.0
-25.220	82894.0
-25.215	82887.0
-25.210	82884.0
-25.205	82876.0
-25.200	82888.0
-25.195	82877.0
-25.190	82880.0
-25.185	82880.0
-25.180	82889.0
-25.175	82888.0
-25.170	82876.0
-25.165	82852.0
-25.160	82857.0
-25.155	82883.0
-25.150	82892.0
-25.145	82889.0
-25.140	82891.0
-25.135	82886.0
-25.130	82891.0
-25.125	82890.0
-25.120	82887.0
-25.115	82887.0
-25.110	82892.0
-25.105	82883.0
-25.100	82855.0
-25.095	82855.0
-25.090	82875.0
-25.085	82886.0
-25.080	82875.0
-25.075	82869.0
-25.070	82875.0
-25.065	82869.0
-25.060	82875.0
-25.055	82876.0
-25.050	82886.0
-25.045	82877.0
-25.040	82885.0
-25.035	82853.0
-25.030	82849.0
-25.025	82857.0
-25.020	82885.0
-25.015	82874.0
-25.010	82876.0
-25.005	82869.0
-25.000	82871.0
-24.995	82877.0
-24.990	82885.0
-24.985	82880.0
-24.980	82883.0
-24.975	82884.0
-24.970	82858.0
-24.965	82838.0
-24.960	82857.0
-24.955	82875.0
-24.950	82871.0
-24.945	82862.0
-24.940	82861.0
-24.935	82861.0
-24.930	82859.0
-24.925	82862.0
-24.920	82861.0
-24.915	82867.0
-24.910	82867.0
-24.905	82870.0
-24.900	82838.0
-24.895	82834.0
-24.890	82853.0
-24.885	82855.0
-24.880	82860.0
-24.875	82854.0
-24.870	82856.0
-24.865	82861.0
-24.860	82863.0
-24.855	82855.0
-24.850	82867.0
-24.845	82860.0
-24.840	82869.0
-24.835	82828.0
-24.830	82829.0
-24.825	82841.0
-24.820	82860.0
-24.815	82846.0
-24.810	82847.0
-24.805	82840.0
-24.800	82843.0
-24.795	82841.0
-24.790	82848.0
-24.785	82850.0
-24.780	82853.0
-24.775	82845.0
-24.770	82832.0
-24.765	82803.1
-24.760	82819.0
-24.755	82844.0
-24.750	82847.0
-24.745	82835.0
-24.740	82838.0
-24.735	82837.0
-24.730	82844.0
-24.725	82850.0
-24.720	82850.0
-24.715	82842.0
-24.710	82841.0
-24.705	82831.0
-24.700	82802.1
-24.695	82813.0
-24.690	82837.0
-24.685	82835.0
-24.680	82828.0
-24.675	82815.0
-24.670	82821.0
-24.665	82825.0
-24.660	82823.0
-24.655	82820.0
-24.650	82832.0
-24.645	82823.0
-24.640	82828.0
-24.635	82796.1
-24.630	82796.1
-24.625	82799.1
-24.620	82815.0
-24.615	82822.0
-24.610	82812.1
-24.605	82819.0
-24.600	82822.0
-24.595	82817.0
-24.590	82823.0
-24.585	82820.0
-24.580	82835.0
-24.575	82823.0
-24.570	82805.1
-24.565	82780.1
-24.560	82806.1
-24.555	82816.0
-24.550	82828.0
-24.545	82801.1
-24.540	82806.1
-24.535	82800.1
-24.530	82799.1
-24.525	82800.1
-24.520	82802.1
-24.515	82806.1
-24.510	82812.1
-24.505	82798.1
-24.500	82778.1
-24.495	82779.1
-24.490	82809.1
-24.485	82804.1
-24.480	82814.0
-24.475	82802.1
-24.470	82804.1
-24.465	82801.1
-24.460	82809.1
-24.455	82810.0
-24.450	82820.0
-24.445	82802.1
-24.440	82806.1
-24.435	82773.1
-24.430	82776.1
-24.425	82790.1
-24.420	82799.1
-24.415	82793.1
-24.410	82793.1
-24.405	82784.1
-24.400	82791.1
-24.395	82791.1
-24.390	82797.1
-24.385	82788.1
-24.380	82798.1
-24.375	82793.1
-24.370	82776.1
-24.365	82749.1
-24.360	82775.1
-24.355	82791.1
-24.350	82792.1
-24.345	82779.1
-24.340	82789.1
-24.335	82787.1
-24.330	82790.1
-24.325	82787.1
-24.320	82787.1
-24.315	82791.1
-24.310	82794.1
-24.305	82787.1
-24.300	82760.1
-24.295	82765.1
-24.290	82787.1
-24.285	82788.1
-24.280	82784.1
-24.275	82781.1
-24.270	82784.1
-24.265	82772.1
-24.260	82785.1
-24.255	82780.1
-24.250	82788.1
-24.245	82778.1
-24.240	82786.1
-24.235	82752.1
-24.230	82753.1
-24.225	82753.1
-24.220	82788.1
-24.215	82774.1
-24.210	82797.1
-24.205	82782.1
-24.200	82787.1
-24.195	82787.1
-24.190	82790.1
-24.185	82783.1
-24.180	82798.1
-24.175	82790.1
-24.170	82767.1
-24.165	82745.1
-24.160	82770.1
-24.155	82786.1
-24.150	82782.1
-24.145	82767.1
-24.140	82773.1
-24.135	82764.1
-24.130	82774.1
-24.125	82771.1
-24.120	82784.1
-24.115	82775.1
-24.110	82792.1
-24.105	82778.1
-24.100	82749.1
-24.095	82754.1
-24.090	82771.1
-24.085	82772.1
-24.080	82768.1
-24.075	82776.1
-24.070	82782.1
-24.065	82785.1
-24.060	82792.1
-24.055	82796.1
-24.050	82801.1
-24.045	82798.1
-24.040	82786.1
-24.035	82751.1
-24.030	82756.1
-24.025	82769.1
-24.020	82784.1
-24.015	82779.1
-24.010	82774.1
-24.005	82763.1
-24.000	82767.1
-23.995	82771.1
-23.990	82774.1
-23.985	82771.1
-23.980	82777.1
-23.975	82776.1
-23.970	82754.1
-23.965	82743.1
-23.960	82755.1
-23.955	82776.1
-23.950	82780.1
-23.945	82768.1
-23.940	82782.1
-23.935	82772.1
-23.930	82777.1
-23.925	82776.1
-23.920	82781.1
-23.915	82780.1
-23.910	82786.1
-23.905	82776.1
-23.900	82754.1
-23.895	82764.1
-23.890	82788.1
-23.885	82783.1
-23.880	82775.1
-23.875	82769.1
-23.870	82775.1
-23.865	82774.1
-23.860	82782.1
-23.855	82782.1
-23.850	82789.1
-23.845	82779.1
-23.840	82805.1
-23.835	82753.1
-23.830	82752.1
-23.825	82767.1
-23.820	82793.1
-23.815	82792.1
-23.810	82792.1
-23.805	82793.1
-23.800	82794.1
-23.795	82799.1
-23.790	82804.1
-23.785	82804.1
-23.780	82809.1
-23.775	82801.1
-23.770	82784.1
-23.765	82769.1
-23.760	82791.1
-23.755	82799.1
-23.750	82797.1
-23.745	82787.1
-23.740	82785.1
-23.735	82788.1
-23.730	82787.1
-23.725	82789.1
-23.720	82791.1
-23.715	82797.1
-23.710	82801.1
-23.705	82792.1
-23.700	82760.1
-23.695	82772.1
-23.690	82795.1
-23.685	82790.1
-23.680	82797.1
-23.675	82792.1
-23.670	82798.1
-23.665	82804.1
-23.660	82809.1
-23.655	82802.1
-23.650	82811.1
-23.645	82809.1
-23.640	82801.1
-23.635	82767.1
-23.630	82780.1
-23.625	82789.1
-23.620	82803.1
-23.615	82804.1
-23.610	82785.1
-23.605	82793.1
-23.600	82797.1
-23.595	82802.1
-23.590	82802.1
-23.585	82798.1
-23.580	82810.1
-23.575	82806.1
-23.570	82774.1
-23.565	82765.1
-23.560	82783.1
-23.555	82797.1
-23.550	82801.1
-23.545	82795.1
-23.540	82797.1
-23.535	82791.1
-23.530	82802.1
-23.525	82808.1
-23.520	82809.1
-23.515	82810.1
-23.510	82815.0
-23.505	82791.1
-23.500	82772.1
-23.495	82786.1
-23.490	82819.0
-23.485	82805.1
-23.480	82808.1
-23.475	82799.1
-23.470	82797.1
-23.465	82795.1
-23.460	82806.1
-23.455	82804.1
-23.450	82814.0
-23.445	82809.1
-23.440	82807.1
-23.435	82776.1
-23.430	82782.1
-23.425	82804.1
-23.420	82814.0
-23.415	82813.1
-23.410	82810.1
-23.405	82810.1
-23.400	82820.0
-23.395	82826.0
-23.390	82824.0
-23.385	82825.0
-23.380	82819.0
-23.375	82822.0
-23.370	82798.1
-23.365	82785.1
-23.360	82814.0
-23.355	82822.0
-23.350	82821.0
-23.345	82808.1
-23.340	82815.0
-23.335	82808.1
-23.330	82817.0
-23.325	82819.0
-23.320	82818.0
-23.315	82831.0
-23.310	82828.0
-23.305	82813.0
-23.300	82797.1
-23.295	82798.1
-23.290	82831.0
-23.285	82825.0
-23.280	82834.0
-23.275	82821.0
-23.270	82835.0
-23.265	82830.0
-23.260	82839.0
-23.255	82837.0
-23.250	82840.0
-23.245	82839.0
-23.240	82841.0
-23.235	82806.1
-23.230	82814.1
-23.225	82830.0
-23.220	82840.0
-23.215	82834.0
-23.210	82830.0
-23.205	82820.0
-23.200	82826.0
-23.195	82828.0
-23.190	82835.0
-23.185	82829.0
-23.180	82840.0
-23.175	82828.0
-23.170	82812.0
-23.165	82800.1
-23.160	82818.0
-23.155	82840.0
-23.150	82836.0
-23.145	82833.0
-23.140	82844.0
-23.135	82843.0
-23.130	82848.0
-23.125	82850.0
-23.120	82845.0
-23.115	82846.0
-23.110	82839.0
-23.105	82828.0
-23.100	82814.0
-23.095	82820.0
-23.090	82855.0
-23.085	82841.0
-23.080	82834.0
-23.075	82824.0
-23.070	82830.0
-23.065	82832.0
-23.060	82842.0
-23.055	82834.0
-23.050	82846.0
-23.045	82849.0
-23.040	82839.0
-23.035	82822.0
-23.030	82820.0
-23.025	82825.0
-23.020	82844.0
-23.015	82847.0
-23.010	82840.0
-23.005	82843.0
-23.000	82846.0
-22.995	82848.0
-22.990	82851.0
-22.985	82854.0
-22.980	82849.0
-22.975	82853.0
-22.970	82821.0
-22.965	82818.0
-22.960	82840.0
-22.955	82853.0
-22.950	82849.0
-22.945	82832.0
-22.940	82834.0
-22.935	82828.0
-22.930	82833.0
-22.925	82835.0
-22.920	82844.0
-22.915	82836.0
-22.910	82842.0
-22.905	82833.0
-22.900	82810.1
-22.895	82819.0
-22.890	82845.0
-22.885	82838.0
-22.880	82844.0
-22.875	82840.0
-22.870	82839.0
-22.865	82847.0
-22.860	82849.0
-22.855	82848.0
-22.850	82854.0
-22.845	82845.0
-22.840	82848.0
-22.835	82809.1
-22.830	82831.0
-22.825	82848.0
-22.820	82849.0
-22.815	82829.0
-22.810	82832.0
-22.805	82829.0
-22.800	82838.0
-22.795	82835.0
-22.790	82846.0
-22.785	82838.0
-22.780	82844.0
-22.775	82843.0
-22.770	82812.0
-22.765	82806.1
-22.760	82827.0
-22.755	82849.0
-22.750	82844.0
-22.745	82843.0
-22.740	82837.0
-22.735	82840.0
-22.730	82847.0
-22.725	82854.0
-22.720	82864.0
-22.715	82852.0
-22.710	82847.0
-22.705	82827.0
-22.700	82813.0
-22.695	82831.0
-22.690	82851.0
-22.685	82846.0
-22.680	82843.0
-22.675	82834.0
-22.670	82838.0
-22.665	82835.0
-22.660	82838.0
-22.655	82830.0
-22.650	82842.0
-22.645	82846.0
-22.640	82843.0
-22.635	82809.1
-22.630	82816.0
-22.625	82837.0
-22.620	82846.0
-22.615	82847.0
-22.610	82843.0
-22.605	82839.0
-22.600	82846.0
-22.595	82845.0
-22.590	82865.0
-22.585	82859.0
-22.580	82869.0
-22.575	82854.0
-22.570	82813.0
-22.565	82814.0
-22.560	82843.0
-22.555	82850.0
-22.550	82845.0
-22.545	82847.0
-22.540	82838.0
-22.535	82837.0
-22.530	82838.0
-22.525	82834.0
-22.520	82840.0
-22.515	82849.0
-22.510	82849.0
-22.505	82831.0
-22.500	82816.0
-22.495	82826.0
-22.490	82850.0
-22.485	82841.0
-22.480	82836.0
-22.475	82843.0
-22.470	82846.0
-22.465	82849.0
-22.460	82851.0
-22.455	82861.0
-22.450	82865.0
-22.445	82856.0
-22.440	82853.0
-22.435	82820.0
-22.430	82837.0
-22.425	82855.0
-22.420	82848.0
-22.415	82838.0
-22.410	82839.0
-22.405	82839.0
-22.400	82843.0
-22.395	82845.0
-22.390	82850.0
-22.385	82838.0
-22.380	82850.0
-22.375	82844.0
-22.370	82827.0
-22.365	82812.0
-22.360	82835.0
-22.355	82853.0
-22.350	82864.0
-22.345	82847.0
-22.340	82851.0
-22.335	82854.0
-22.330	82848.0
-22.325	82854.0
-22.320	82859.0
-22.315	82865.0
-22.310	82853.0
-22.305	82832.0
-22.300	82820.0
-22.295	82836.0
-22.290	82856.0
-22.285	82848.0
-22.280	82843.0
-22.275	82839.0
-22.270	82844.0
-22.265	82844.0
-22.260	82843.0
-22.255	82848.0
-22.250	82847.0
-22.245	82851.0
-22.240	82846.0
-22.235	82809.0
-22.230	82819.0
-22.225	82846.0
-22.220	82851.0
-22.215	82854.0
-22.210	82853.0
-22.205	82846.0
-22.200	82849.0
-22.195	82849.0
-22.190	82855.0
-22.185	82850.0
-22.180	82858.0
-22.175	82851.0
-22.170	82820.0
-22.165	82813.0
-22.160	82837.0
-22.155	82853.0
-22.150	82848.0
-22.145	82836.0
-22.140	82839.0
-22.135	82841.0
-22.130	82832.0
-22.125	82841.0
-22.120	82844.0
-22.115	82845.0
-22.110	82847.0
-22.105	82822.0
-22.100	82810.0
-22.095	82816.0
-22.090	82846.0
-22.085	82838.0
-22.080	82850.0
-22.075	82836.0
-22.070	82847.0
-22.065	82844.0
-22.060	82841.0
-22.055	82848.0
-22.050	82846.0
-22.045	82844.0
-22.040	82830.0
-22.035	82811.0
-22.030	82821.0
-22.025	82843.0
-22.020	82844.0
-22.015	82835.0
-22.010	82830.0
-22.005	82830.0
-22.000	82829.0
-21.995	82834.0
-21.990	82830.0
-21.985	82839.0
-21.980	82848.0
-21.975	82841.0
-21.970	82811.0
-21.965	82807.1
-21.960	82820.0
-21.955	82836.0
-21.950	82842.0
-21.945	82832.0
-21.940	82837.0
-21.935	82834.0
-21.930	82836.0
-21.925	82838.0
-21.920	82844.0
-21.915	82839.0
-21.910	82847.0
-21.905	82815.0
-21.900	82805.0
-21.895	82818.0
-21.890	82842.0
-21.885	82835.0
-21.880	82836.0
-21.875	82822.0
-21.870	82826.0
-21.865	82827.0
-21.860	82834.0
-21.855	82832.0
-21.850	82827.0
-21.845	82837.0
-21.840	82822.0
-21.835	82799.1
-21.830	82800.1
-21.825	82818.0
-21.820	82832.0
-21.815	82828.0
-21.810	82834.0
-21.805	82817.0
-21.800	82830.0
-21.795	82835.0
-21.790	82837.0
-21.785	82828.0
-21.780	82834.0
-21.775	82837.0
-21.770	82798.1
-21.765	82801.1
-21.760	82825.0
-21.755	82837.0
-21.750	82836.0
-21.745	82822.0
-21.740	82831.0
-21.735	82819.0
-21.730	82818.0
-21.725	82824.0
-21.720	82826.0
-21.715	82818.0
-21.710	82834.0
-21.705	82802.1
-21.700	82790.1
-21.695	82798.1
-21.690	82833.0
-21.685	82826.0
-21.680	82832.0
-21.675	82827.0
-21.670	82824.0
-21.665	82821.0
-21.660	82828.0
-21.655	82837.0
-21.650	82831.0
-21.645	82832.0
-21.640	82816.0
-21.635	82786.1
-21.630	82798.1
-21.625	82814.0
-21.620	82817.0
-21.615	82813.0
-21.610	82810.0
-21.605	82813.0
-21.600	82807.1
-21.595	82812.0
-21.590	82812.0
-21.585	82813.0
-21.580	82818.0
-21.575	82824.0
-21.570	82788.1
-21.565	82783.1
-21.560	82808.1
-21.555	82811.0
-21.550	82806.1
-21.545	82817.0
-21.540	82823.0
-21.535	82816.0
-21.530	82821.0
-21.525	82818.0
-21.520	82821.0
-21.515	82821.0
-21.510	82820.0
-21.505	82791.1
-21.500	82785.1
-21.495	82812.0
-21.490	82833.0
-21.485	82813.0
-21.480	82810.0
-21.475	82800.1
-21.470	82813.0
-21.465	82805.1
-21.460	82815.0
-21.455	82803.1
-21.450	82811.0
-21.445	82811.0
-21.440	82805.1
-21.435	82780.1
-21.430	82784.1
-21.425	82804.1
-21.420	82812.0
-21.415	82811.1
-21.410	82814.0
-21.405	82801.1
-21.400	82813.0
-21.395	82810.0
-21.390	82812.1
-21.385	82801.1
-21.380	82806.0
-21.375	82803.1
-21.370	82769.1
-21.365	82770.1
-21.360	82780.1
-21.355	82775.1
-21.350	82756.1
-21.345	82724.1
-21.340	82682.2
-21.335	82621.3
-21.330	82542.4
-21.325	82414.5
-21.320	82252.7
-21.315	82025.9
-21.310	81728.3
-21.305	81303.7
-21.300	80820.2
-21.295	80363.8
-21.290	79939.3
-21.285	79490.9
-21.280	79058.5
-21.275	78540.2
-21.270	77925.0
-21.265	77294.8
-21.260	76685.6
-21.255	76060.4
-21.250	75306.3
-21.245	74362.4
-21.240	73417.4
-21.235	72992.1
-21.230	72773.5
-21.225	72298.9
-21.220	72502.7
-21.215	73360.0
-21.210	73414.8
-21.205	73487.6
-21.200	74416.9
-21.195	75535.0
-21.190	76402.3
-21.185	76609.1
-21.180	75718.7
-21.175	74086.7
-21.170	73957.6
-21.165	75156.7
-21.160	75489.4
-21.155	75132.5
-21.150	75941.9
-21.145	75334.3
-21.140	73460.5
-21.135	74865.5
-21.130	76886.0
-21.125	77550.5
-21.120	77874.2
-21.115	77788.2
-21.110	77332.5
-21.105	76422.1
-21.100	75906.4
-21.095	76391.0
-21.090	76907.7
-21.085	77225.4
-21.080	77811.9
-21.075	78310.5
-21.070	78160.6
-21.065	77138.3
-21.060	75718.2
-21.055	75672.2
-21.050	77243.1
-21.045	77606.8
-21.040	75548.3
-21.035	73705.6
-21.030	74744.8
-21.025	77214.0
-21.020	78242.2
-21.015	78114.3
-21.010	77608.6
-21.005	77558.6
-21.000	77732.5
-20.995	77516.6
-20.990	77447.6
-20.985	77980.2
-20.980	78548.8
-20.975	78714.7
-20.970	78529.8
-20.965	78372.8
-20.960	78315.9
-20.955	78280.9
-20.950	78285.9
-20.945	78261.9
-20.940	78401.7
-20.935	78762.5
-20.930	79109.2
-20.925	79202.1
-20.920	79118.2
-20.915	78844.3
-20.910	78382.7
-20.905	78055.9
-20.900	78102.9
-20.895	78332.7
-20.890	78599.5
-20.885	78726.3
-20.880	78693.4
-20.875	78705.3
-20.870	78849.2
-20.865	78985.1
-20.860	79044.0
-20.855	78989.1
-20.850	78918.1
-20.845	78858.1
-20.840	78798.2
-20.835	78836.1
-20.830	78934.1
-20.825	79019.0
-20.820	79096.9
-20.815	79088.9
-20.810	79056.9
-20.805	79002.9
-20.800	78915.0
-20.795	78833.0
-20.790	78785.1
-20.785	78696.1
-20.780	78559.2
-20.775	78516.2
-20.770	78566.2
-20.765	78637.1
-20.760	78730.1
-20.755	78812.0
-20.750	78870.9
-20.745	78930.9
-20.740	78947.9
-20.735	78912.9
-20.730	78886.9
-20.725	78897.9
-20.720	78951.8
-20.715	79019.7
-20.710	79064.7
-20.705	79054.7
-20.700	79100.7
-20.695	79205.6
-20.690	79276.5
-20.685	79344.5
-20.680	79406.4
-20.675	79443.4
-20.670	79503.3
-20.665	79537.3
-20.660	79558.3
-20.655	79584.2
-20.650	79613.2
-20.645	79641.2
-20.640	79645.2
-20.635	79651.2
-20.630	79686.1
-20.625	79713.1
-20.620	79695.1
-20.615	79672.1
-20.610	79639.1
-20.605	79611.2
-20.600	79605.2
-20.595	79591.2
-20.590	79576.2
-20.585	79578.2
-20.580	79590.1
-20.575	79629.1
-20.570	79628.1
-20.565	79660.1
-20.560	79723.0
-20.555	79715.0
-20.550	79700.0
-20.545	79696.0
-20.540	79719.0
-20.535	79721.0
-20.530	79691.0
-20.525	79654.0
-20.520	79653.0
-20.515	79660.0
-20.510	79692.0
-20.505	79702.0
-20.500	79774.9
-20.495	79854.9
-20.490	79934.8
-20.485	79979.7
-20.480	80007.7
-20.475	80034.7
-20.470	80080.7
-20.465	80102.6
-20.460	80140.6
-20.455	80152.6
-20.450	80164.6
-20.445	80161.6
-20.440	80144.6
-20.435	80156.6
-20.430	80153.6
-20.425	80185.5
-20.420	80197.5
-20.415	80177.5
-20.410	80167.5
-20.405	80163.5
-20.400	80176.5
-20.395	80183.5
-20.390	80190.5
-20.385	80180.5
-20.380	80170.5
-20.375	80144.5
-20.370	80098.6
-20.365	80103.5
-20.360	80147.5
-20.355	80166.5
-20.350	80148.5
-20.345	80112.5
-20.340	80091.5
-20.335	80073.5
-20.330	80095.5
-20.325	80108.5
-20.320	80099.5
-20.315	80068.5
-20.310	80066.5
-20.305	80012.6
-20.300	80020.6
-20.295	80008.6
-20.290	79994.6
-20.285	79975.6
-20.280	79979.6
-20.275	79984.6
-20.270	79993.6
-20.265	80015.5
-20.260	80064.5
-20.255	80087.5
-20.250	80114.4
-20.245	80152.4
-20.240	80169.4
-20.235	80185.4
-20.230	80237.3
-20.225	80276.3
-20.220	80310.3
-20.215	80332.3
-20.210	80350.2
-20.205	80375.2
-20.200	80393.2
-20.195	80407.2
-20.190	80430.2
-20.185	80432.2
-20.180	80437.2
-20.175	80431.2
-20.170	80399.2
-20.165	80406.2
-20.160	80400.2
-20.155	80382.2
-20.150	80375.2
-20.145	80373.2
-20.140	80356.2
-20.135	80339.2
-20.130	80339.2
-20.125	80343.2
-20.120	80374.2
-20.115	80367.2
-20.110	80374.2
-20.105	80337.2
-20.100	80357.2
-20.095	80388.1
-20.090	80424.1
-20.085	80429.1
-20.080	80438.1
-20.075	80442.1
-20.070	80450.1
-20.065	80448.1
-20.060	80461.1
-20.055	80466.1
-20.050	80472.1
-20.045	80482.0
-20.040	80469.1
-20.035	80478.0
-20.030	80511.0
-20.025	80557.0
-20.020	80568.0
-20.015	80581.0
-20.010	80612.9
-20.005	80628.9
-20.000	80650.9
-19.995	80664.9
-19.990	80683.9
-19.985	80693.9
-19.980	80698.9
-19.975	80695.8
-19.970	80668.9
-19.965	80677.9
-19.960	80696.8
-19.955	80694.8
-19.950	80695.8
-19.945	80714.8
-19.940	80709.8
-19.935	80710.8
-19.930	80709.8
-19.925	80712.8
-19.920	80713.8
-19.915	80712.8
-19.910	80706.8
-19.905	80675.8
-19.900	80689.8
-19.895	80707.8
-19.890	80740.8
-19.885	80727.8
-19.880	80731.8
-19.875	80738.8
-19.870	80739.8
-19.865	80735.8
-19.860	80734.8
-19.855	80709.8
-19.850	80710.8
-19.845	80711.8
-19.840	80686.8
-19.835	80676.8
-19.830	80680.8
-19.825	80686.8
-19.820	80690.8
-19.815	80655.8
-19.810	80629.8
-19.805	80610.8
-19.800	80610.8
-19.795	80604.8
-19.790	80605.8
-19.785	80577.9
-19.780	80566.9
-19.775	80544.9
-19.770	80510.9
-19.765	80508.9
-19.760	80531.9
-19.755	80503.9
-19.750	80472.9
-19.745	80455.9
-19.740	80442.9
-19.735	80439.9
-19.730	80457.9
-19.725	80466.9
-19.720	80463.9
-19.715	80452.9
-19.710	80458.9
-19.705	80437.9
-19.700	80451.9
-19.695	80470.9
-19.690	80498.9
-19.685	80491.9
-19.680	80493.9
-19.675	80493.9
-19.670	80502.9
-19.665	80507.9
-19.660	80493.9
-19.655	80497.9
-19.650	80494.9
-19.645	80492.9
-19.640	80469.9
-19.635	80471.9
-19.630	80488.8
-19.625	80500.8
-19.620	80491.8
-19.615	80488.8
-19.610	80493.8
-19.605	80485.8
-19.600	80482.8
-19.595	80478.8
-19.590	80472.8
-19.585	80461.9
-19.580	80466.8
-19.575	80464.8
-19.570	80453.9
-19.565	80465.8
-19.560	80490.8
-19.555	80487.8
-19.550	80480.8
-19.545	80462.8
-19.540	80473.8
-19.535	80476.8
-19.530	80468.8
-19.525	80452.8
-19.520	80448.8
-19.515	80462.8
-19.510	80471.8
-19.505	80469.8
-19.500	80486.8
-19.495	80512.8
-19.490	80539.8
-19.485	80545.8
-19.480	80572.7
-19.475	80612.7
-19.470	80636.7
-19.465	80663.7
-19.460	80659.7
-19.455	80644.7
-19.450	80658.7
-19.445	80681.6
-19.440	80675.7
-19.435	80678.6
-19.430	80714.6
-19.425	80732.6
-19.420	80736.6
-19.415	80755.6
-19.410	80788.6
-19.405	80802.5
-19.400	80828.5
-19.395	80833.5
-19.390	80851.5
-19.385	80854.5
-19.380	80847.5
-19.375	80825.5
-19.370	80801.5
-19.365	80804.5
-19.360	80827.5
-19.355	80810.5
-19.350	80798.5
-19.345	80788.5
-19.340	80781.5
-19.335	80770.6
-19.330	80772.6
-19.325	80750.6
-19.320	80736.6
-19.315	80725.6
-19.310	80714.6
-19.305	80672.6
-19.300	80684.6
-19.295	80702.6
-19.290	80710.6
-19.285	80713.6
-19.280	80697.6
-19.275	80683.6
-19.270	80665.6
-19.265	80659.6
-19.260	80666.6
-19.255	80674.6
-19.250	80697.6
-19.245	80704.6
-19.240	80673.6
-19.235	80660.6
-19.230	80689.6
-19.225	80720.6
-19.220	80751.5
-19.215	80754.5
-19.210	80764.5
-19.205	80773.5
-19.200	80789.5
-19.195	80816.5
-19.190	80852.5
-19.185	80885.4
-19.180	80925.4
-19.175	80938.4
-19.170	80930.4
-19.165	80956.4
-19.160	81006.3
-19.155	81015.3
-19.150	81021.3
-19.145	81034.3
-19.140	81051.3
-19.135	81072.3
-19.130	81089.3
-19.125	81091.3
-19.120	81101.2
-19.115	81091.3
-19.110	81097.2
-19.105	81057.3
-19.100	81061.3
-19.095	81064.3
-19.090	81066.3
-19.085	81062.3
-19.080	81057.3
-19.075	81039.3
-19.070	81033.3
-19.065	81030.3
-19.060	81021.3
-19.055	80998.3
-19.050	81004.3
-19.045	80985.3
-19.040	80947.3
-19.035	80949.3
-19.030	80958.3
-19.025	80943.3
-19.020	80933.4
-19.015	80934.4
-19.010	80909.4
-19.005	80903.4
-19.000	80927.4
-18.995	80935.4
-18.990	80947.3
-18.985	80959.3
-18.980	80967.3
-18.975	80937.3
-18.970	80923.4
-18.965	80924.4
-18.960	80940.3
-18.955	80946.3
-18.950	80953.3
-18.945	80941.3
-18.940	80938.3
-18.935	80942.3
-18.930	80950.3
-18.925	80956.3
-18.920	80963.3
-18.915	80972.3
-18.910	80968.3
-18.905	80920.3
-18.900	80905.4
-18.895	80919.3
-18.890	80925.3
-18.885	80919.3
-18.880	80919.3
-18.875	80916.3
-18.870	80924.3
-18.865	80928.3
-18.860	80929.3
-18.855	80933.3
-18.850	80946.3
-18.845	80939.3
-18.840	80919.3
-18.835	80911.3
-18.830	80929.3
-18.825	80922.3
-18.820	80916.3
-18.815	80899.3
-18.810	80903.3
-18.805	80906.3
-18.800	80909.3
-18.795	80896.3
-18.790	80887.3
-18.785	80883.3
-18.780	80880.3
-18.775	80857.4
-18.770	80850.4
-18.765	80853.4
-18.760	80896.3
-18.755	80914.3
-18.750	80923.3
-18.745	80914.3
-18.740	80907.3
-18.735	80907.3
-18.730	80918.3
-18.725	80923.3
-18.720	80914.3
-18.715	80915.3
-18.710	80914.3
-18.705	80906.3
-18.700	80942.3
-18.695	80971.2
-18.690	80977.2
-18.685	80996.2
-18.680	81021.2
-18.675	81047.2
-18.670	81071.2
-18.665	81086.2
-18.660	81089.2
-18.655	81107.1
-18.650	81127.1
-18.645	81135.1
-18.640	81114.1
-18.635	81120.1
-18.630	81125.1
-18.625	81144.1
-18.620	81142.1
-18.615	81150.1
-18.610	81164.1
-18.605	81178.1
-18.600	81194.1
-18.595	81196.1
-18.590	81209.1
-18.585	81216.0
-18.580	81209.1
-18.575	81187.1
-18.570	81185.1
-18.565	81201.1
-18.560	81233.0
-18.555	81236.0
-18.550	81241.0
-18.545	81234.0
-18.540	81243.0
-18.535	81243.0
-18.530	81267.0
-18.525	81267.0
-18.520	81279.0
-18.515	81275.0
-18.510	81278.0
-18.505	81243.0
-18.500	81273.0
-18.495	81296.0
-18.490	81297.0
-18.485	81291.0
-18.480	81290.0
-18.475	81285.0
-18.470	81283.0
-18.465	81296.0
-18.460	81313.0
-18.455	81317.0
-18.450	81307.0
-18.445	81306.0
-18.440	81273.0
-18.435	81282.0
-18.430	81296.0
-18.425	81304.0
-18.420	81297.0
-18.415	81285.0
-18.410	81285.0
-18.405	81290.0
-18.400	81292.0
-18.395	81277.0
-18.390	81279.0
-18.385	81287.0
-18.380	81288.0
-18.375	81269.0
-18.370	81253.0
-18.365	81265.0
-18.360	81289.0
-18.355	81288.0
-18.350	81303.9
-18.345	81309.9
-18.340	81301.0
-18.335	81303.9
-18.330	81324.9
-18.325	81325.9
-18.320	81324.9
-18.315	81320.9
-18.310	81310.9
-18.305	81269.0
-18.300	81292.9
-18.295	81313.9
-18.290	81324.9
-18.285	81305.9
-18.280	81305.9
-18.275	81290.9
-18.270	81302.9
-18.265	81309.9
-18.260	81312.9
-18.255	81311.9
-18.250	81322.9
-18.245	81315.9
-18.240	81287.9
-18.235	81284.9
-18.230	81301.9
-18.225	81325.9
-18.220	81339.9
-18.215	81337.9
-18.210	81339.9
-18.205	81339.9
-18.200	81335.9
-18.195	81342.9
-18.190	81350.9
-18.185	81337.9
-18.180	81343.9
-18.175	81315.9
-18.170	81314.9
-18.165	81331.9
-18.160	81352.9
-18.155	81342.9
-18.150	81338.9
-18.145	81321.9
-18.140	81309.9
-18.135	81310.9
-18.130	81310.9
-18.125	81303.9
-18.120	81300.9
-18.115	81289.9
-18.110	81274.9
-18.105	81219.0
-18.100	81223.0
-18.095	81240.0
-18.090	81250.9
-18.085	81240.0
-18.080	81228.0
-18.075	81209.0
-18.070	81213.0
-18.065	81210.0
-18.060	81201.0
-18.055	81194.0
-18.050	81192.0
-18.045	81184.0
-18.040	81157.0
-18.035	81151.0
-18.030	81177.0
-18.025	81172.0
-18.020	81143.0
-18.015	81126.0
-18.010	81108.0
-18.005	81098.1
-18.000	81094.1
-17.995	81089.1
-17.990	81100.0
-17.985	81106.0
-17.980	81099.0
-17.975	81073.1
-17.970	81050.1
-17.965	81068.1
-17.960	81088.1
-17.955	81107.0
-17.950	81111.0
-17.945	81120.0
-17.940	81131.0
-17.935	81143.0
-17.930	81158.0
-17.925	81150.0
-17.920	81167.0
-17.915	81167.0
-17.910	81168.0
-17.905	81144.0
-17.900	81170.0
-17.895	81202.0
-17.890	81215.0
-17.885	81207.0
-17.880	81214.9
-17.875	81210.0
-17.870	81233.9
-17.865	81222.9
-17.860	81227.9
-17.855	81241.9
-17.850	81253.9
-17.845	81251.9
-17.840	81231.9
-17.835	81234.9
-17.830	81255.9
-17.825	81261.9
-17.820	81256.9
-17.815	81263.9
-17.810	81266.9
-17.805	81267.9
-17.800	81277.9
-17.795	81273.9
-17.790	81276.9
-17.785	81283.9
-17.780	81276.9
-17.775	81247.9
-17.770	81239.9
-17.765	81257.9
-17.760	81279.9
-17.755	81291.9
-17.750	81274.9
-17.745	81280.9
-17.740	81283.9
-17.735	81284.9
-17.730	81268.9
-17.725	81273.9
-17.720	81289.9
-17.715	81289.9
-17.710	81273.9
-17.705	81254.9
-17.700	81267.9
-17.695	81306.9
-17.690	81318.8
-17.685	81324.8
-17.680	81321.8
-17.675	81324.8
-17.670	81337.8
-17.665	81330.8
-17.660	81350.8
-17.655	81353.8
-17.650	81362.8
-17.645	81353.8
-17.640	81341.8
-17.635	81340.8
-17.630	81365.8
-17.625	81368.8
-17.620	81368.8
-17.615	81359.8
-17.610	81362.8
-17.605	81362.8
-17.600	81380.8
-17.595	81380.8
-17.590	81384.8
-17.585	81385.8
-17.580	81393.8
-17.575	81371.8
-17.570	81357.8
-17.565	81380.8
-17.560	81388.8
-17.555	81380.8
-17.550	81381.8
-17.545	81377.8
-17.540	81385.8
-17.535	81374.8
-17.530	81380.8
-17.525	81364.8
-17.520	81363.8
-17.515	81367.8
-17.510	81349.8
-17.505	81326.8
-17.500	81340.8
-17.495	81344.8
-17.490	81344.8
-17.485	81334.8
-17.480	81342.8
-17.475	81343.8
-17.470	81336.8
-17.465	81343.8
-17.460	81356.8
-17.455	81351.8
-17.450	81355.8
-17.445	81356.8
-17.440	81338.8
-17.435	81332.8
-17.430	81357.8
-17.425	81372.8
-17.420	81368.8
-17.415	81358.8
-17.410	81353.8
-17.405	81373.8
-17.400	81383.8
-17.395	81393.8
-17.390	81389.8
-17.385	81384.8
-17.380	81401.7
-17.375	81379.8
-17.370	81389.8
-17.365	81413.7
-17.360	81421.7
-17.355	81418.7
-17.350	81416.7
-17.345	81416.7
-17.340	81417.7
-17.335	81423.7
-17.330	81427.7
-17.325	81421.7
-17.320	81423.7
-17.315	81411.7
-17.310	81406.7
-17.305	81386.7
-17.300	81404.7
-17.295	81434.7
-17.290	81439.7
-17.285	81433.7
-17.280	81437.7
-17.275	81441.7
-17.270	81451.7
-17.265	81469.7
-17.260	81469.7
-17.255	81481.7
-17.250	81477.7
-17.245	81466.7
-17.240	81459.7
-17.235	81459.7
-17.230	81488.7
-17.225	81494.7
-17.220	81495.7
-17.215	81487.7
-17.210	81492.7
-17.205	81485.7
-17.200	81491.7
-17.195	81490.7
-17.190	81505.6
-17.185	81512.6
-17.180	81527.6
-17.175	81491.7
-17.170	81473.7
-17.165	81479.7
-17.160	81511.6
-17.155	81506.6
-17.150	81503.6
-17.145	81510.6
-17.140	81513.6
-17.135	81513.6
-17.130	81519.6
-17.125	81520.6
-17.120	81525.6
-17.115	81510.6
-17.110	81500.6
-17.105	81478.7
-17.100	81482.7
-17.095	81495.6
-17.090	81493.6
-17.085	81478.7
-17.080	81473.7
-17.075	81468.7
-17.070	81467.7
-17.065	81480.7
-17.060	81475.7
-17.055	81476.7
-17.050	81493.6
-17.045	81476.7
-17.040	81455.7
-17.035	81456.7
-17.030	81471.7
-17.025	81486.6
-17.020	81496.6
-17.015	81491.6
-17.010	81499.6
-17.005	81507.6
-17.000	81518.6
-16.995	81514.6
-16.990	81519.6
-16.985	81518.6
-16.980	81519.6
-16.975	81480.6
-16.970	81491.6
-16.965	81502.6
-16.960	81519.6
-16.955	81526.6
-16.950	81525.6
-16.945	81517.6
-16.940	81520.6
-16.935	81534.6
-16.930	81546.6
-16.925	81529.6
-16.920	81542.6
-16.915	81527.6
-16.910	81510.6
-16.905	81499.6
-16.900	81508.6
-16.895	81528.6
-16.890	81527.6
-16.885	81530.6
-16.880	81515.6
-16.875	81524.6
-16.870	81526.6
-16.865	81521.6
-16.860	81526.6
-16.855	81528.6
-16.850	81524.6
-16.845	81515.6
-16.840	81480.6
-16.835	81493.6
-16.830	81521.6
-16.825	81519.6
-16.820	81521.6
-16.815	81510.6
-16.810	81510.6
-16.805	81503.6
-16.800	81505.6
-16.795	81512.6
-16.790	81502.6
-16.785	81505.6
-16.780	81513.6
-16.775	81475.6
-16.770	81453.6
-16.765	81462.6
-16.760	81481.6
-16.755	81468.6
-16.750	81462.6
-16.745	81458.6
-16.740	81442.7
-16.735	81433.7
-16.730	81435.7
-16.725	81435.7
-16.720	81430.7
-16.715	81424.7
-16.710	81410.7
-16.705	81402.7
-16.700	81421.7
-16.695	81440.7
-16.690	81424.7
-16.685	81411.7
-16.680	81415.7
-16.675	81413.7
-16.670	81405.7
-16.665	81421.7
-16.660	81422.7
-16.655	81424.7
-16.650	81435.7
-16.645	81423.7
-16.640	81397.7
-16.635	81392.7
-16.630	81411.7
-16.625	81421.7
-16.620	81417.7
-16.615	81404.7
-16.610	81408.7
-16.605	81411.7
-16.600	81414.7
-16.595	81435.6
-16.590	81437.6
-16.585	81429.7
-16.580	81438.6
-16.575	81397.7
-16.570	81400.7
-16.565	81410.7
-16.560	81423.7
-16.555	81414.7
-16.550	81402.7
-16.545	81392.7
-16.540	81397.7
-16.535	81391.7
-16.530	81394.7
-16.525	81387.7
-16.520	81390.7
-16.515	81393.7
-16.510	81370.7
-16.505	81353.7
-16.500	81364.7
-16.495	81377.7
-16.490	81376.7
-16.485	81378.7
-16.480	81379.7
-16.475	81381.7
-16.470	81385.7
-16.465	81386.7
-16.460	81396.7
-16.455	81387.7
-16.450	81386.7
-16.445	81371.7
-16.440	81349.7
-16.435	81363.7
-16.430	81386.7
-16.425	81375.7
-16.420	81371.7
-16.415	81362.7
-16.410	81364.7
-16.405	81365.7
-16.400	81368.7
-16.395	81367.7
-16.390	81385.7
-16.385	81383.7
-16.380	81403.7
-16.375	81371.7
-16.370	81383.7
-16.365	81402.7
-16.360	81413.6
-16.355	81418.6
-16.350	81426.6
-16.345	81407.6
-16.340	81418.6
-16.335	81423.6
-16.330	81435.6
-16.325	81436.6
-16.320	81445.6
-16.315	81446.6
-16.310	81432.6
-16.305	81418.6
-16.300	81441.6
-16.295	81446.6
-16.290	81454.6
-16.285	81448.6
-16.280	81440.6
-16.275	81432.6
-16.270	81445.6
-16.265	81444.6
-16.260	81457.6
-16.255	81461.6
-16.250	81472.6
-16.245	81469.6
-16.240	81438.6
-16.235	81456.6
-16.230	81481.6
-16.225	81475.6
-16.220	81481.6
-16.215	81474.6
-16.210	81473.6
-16.205	81478.6
-16.200	81476.6
-16.195	81468.6
-16.190	81487.6
-16.185	81482.6
-16.180	81484.6
-16.175	81454.6
-16.170	81463.6
-16.165	81476.6
-16.160	81474.6
-16.155	81473.6
-16.150	81469.6
-16.145	81458.6
-16.140	81458.6
-16.135	81443.6
-16.130	81436.6
-16.125	81430.6
-16.120	81442.6
-16.115	81442.6
-16.110	81424.6
-16.105	81393.6
-16.100	81419.6
-16.095	81437.6
-16.090	81434.6
-16.085	81422.6
-16.080	81424.6
-16.075	81411.6
-16.070	81400.6
-16.065	81391.6
-16.060	81399.6
-16.055	81387.6
-16.050	81373.6
-16.045	81366.7
-16.040	81341.7
-16.035	81327.7
-16.030	81353.7
-16.025	81332.7
-16.020	81322.7
-16.015	81313.7
-16.010	81306.7
-16.005	81295.7
-16.000	81284.7
-15.995	81286.7
-15.990	81300.7
-15.985	81303.7
-15.980	81295.7
-15.975	81273.7
-15.970	81276.7
-15.965	81280.7
-15.960	81304.7
-15.955	81315.7
-15.950	81315.7
-15.945	81320.7
-15.940	81336.7
-15.935	81322.7
-15.930	81316.7
-15.925	81321.7
-15.920	81326.7
-15.915	81314.7
-15.910	81297.7
-15.905	81286.7
-15.900	81313.7
-15.895	81329.7
-15.890	81332.7
-15.885	81328.7
-15.880	81343.7
-15.875	81340.7
-15.870	81349.7
-15.865	81342.7
-15.860	81354.7
-15.855	81356.7
-15.850	81385.6
-15.845	81361.6
-15.840	81351.6
-15.835	81367.6
-15.830	81401.6
-15.825	81409.6
-15.820	81423.6
-15.815	81421.6
-15.810	81422.6
-15.805	81429.6
-15.800	81444.6
-15.795	81444.6
-15.790	81449.6
-15.785	81456.6
-15.780	81446.6
-15.775	81430.6
-15.770	81448.6
-15.765	81473.6
-15.760	81482.5
-15.755	81472.6
-15.750	81484.5
-15.745	81487.5
-15.740	81492.5
-15.735	81496.5
-15.730	81504.5
-15.725	81507.5
-15.720	81519.5
-15.715	81520.5
-15.710	81497.5
-15.705	81497.5
-15.700	81515.5
-15.695	81532.5
-15.690	81529.5
-15.685	81521.5
-15.680	81529.5
-15.675	81529.5
-15.670	81539.5
-15.665	81536.5
-15.660	81546.5
-15.655	81544.5
-15.650	81540.5
-15.645	81524.5
-15.640	81516.5
-15.635	81524.5
-15.630	81545.5
-15.625	81535.5
-15.620	81538.5
-15.615	81516.5
-15.610	81516.5
-15.605	81519.5
-15.600	81520.5
-15.595	81512.5
-15.590	81525.5
-15.585	81517.5
-15.580	81511.5
-15.575	81486.5
-15.570	81486.5
-15.565	81501.5
-15.560	81516.5
-15.555	81513.5
-15.550	81517.5
-15.545	81501.5
-15.540	81504.5
-15.535	81502.5
-15.530	81505.5
-15.525	81499.5
-15.520	81505.5
-15.515	81492.5
-15.510	81462.5
-15.505	81445.6
-15.500	81465.5
-15.495	81475.5
-15.490	81464.5
-15.485	81464.5
-15.480	81473.5
-15.475	81474.5
-15.470	81470.5
-15.465	81473.5
-15.460	81478.5
-15.455	81477.5
-15.450	81479.5
-15.445	81456.5
-15.440	81444.6
-15.435	81446.6
-15.430	81478.5
-15.425	81475.5
-15.420	81488.5
-15.415	81477.5
-15.410	81479.5
-15.405	81476.5
-15.400	81479.5
-15.395	81468.5
-15.390	81471.5
-15.385	81467.5
-15.380	81462.5
-15.375	81433.6
-15.370	81445.5
-15.365	81455.5
-15.360	81474.5
-15.355	81466.5
-15.350	81474.5
-15.345	81463.5
-15.340	81469.5
-15.335	81480.5
-15.330	81477.5
-15.325	81465.5
-15.320	81474.5
-15.315	81475.5
-15.310	81459.5
-15.305	81441.5
-15.300	81462.5
-15.295	81482.5
-15.290	81481.5
-15.285	81486.5
-15.280	81495.5
-15.275	81493.5
-15.270	81512.5
-15.265	81504.5
-15.260	81509.5
-15.255	81515.5
-15.250	81505.5
-15.245	81482.5
-15.240	81472.5
-15.235	81483.5
-15.230	81498.5
-15.225	81492.5
-15.220	81500.5
-15.215	81481.5
-15.210	81487.5
-15.205	81473.5
-15.200	81491.5
-15.195	81488.5
-15.190	81497.5
-15.185	81485.5
-15.180	81484.5
-15.175	81439.5
-15.170	81442.5
-15.165	81456.5
-15.160	81455.5
-15.155	81450.5
-15.150	81446.5
-15.145	81427.5
-15.140	81435.5
-15.135	81440.5
-15.130	81443.5
-15.125	81437.5
-15.120	81426.5
-15.115	81426.5
-15.110	81372.6
-15.105	81354.6
-15.100	81375.6
-15.095	81369.6
-15.090	81342.6
-15.085	81330.6
-15.080	81302.6
-15.075	81295.6
-15.070	81284.6
-15.065	81269.7
-15.060	81264.7
-15.055	81242.7
-15.050	81226.7
-15.045	81188.7
-15.040	81160.7
-15.035	81157.7
-15.030	81188.7
-15.025	81174.7
-15.020	81173.7
-15.015	81164.7
-15.010	81165.7
-15.005	81166.7
-15.000	81179.7
-14.995	81162.7
-14.990	81164.7
-14.985	81165.7
-14.980	81167.7
-14.975	81138.7
-14.970	81159.7
-14.965	81173.7
-14.960	81174.7
-14.955	81151.7
-14.950	81152.7
-14.945	81153.7
-14.940	81151.7
-14.935	81155.7
-14.930	81165.7
-14.925	81156.7
-14.920	81168.7
-14.915	81169.7
-14.910	81148.7
-14.905	81157.7
-14.900	81179.7
-14.895	81208.7
-14.890	81223.7
-14.885	81230.7
-14.880	81246.7
-14.875	81252.7
-14.870	81267.7
-14.865	81293.6
-14.860	81296.6
-14.855	81313.6
-14.850	81332.6
-14.845	81306.6
-14.840	81307.6
-14.835	81314.6
-14.830	81359.6
-14.825	81361.6
-14.820	81354.6
-14.815	81357.6
-14.810	81384.6
-14.805	81380.6
-14.800	81386.6
-14.795	81395.6
-14.790	81415.5
-14.785	81414.5
-14.780	81422.5
-14.775	81386.6
-14.770	81417.5
-14.765	81437.5
-14.760	81453.5
-14.755	81458.5
-14.750	81454.5
-14.745	81456.5
-14.740	81469.5
-14.735	81471.5
-14.730	81483.5
-14.725	81491.5
-14.720	81494.5
-14.715	81484.5
-14.710	81460.5
-14.705	81450.5
-14.700	81478.5
-14.695	81490.5
-14.690	81482.5
-14.685	81469.5
-14.680	81462.5
-14.675	81473.5
-14.670	81477.5
-14.665	81476.5
-14.660	81473.5
-14.655	81478.5
-14.650	81479.5
-14.645	81451.5
-14.640	81434.5
-14.635	81435.5
-14.630	81459.5
-14.625	81461.5
-14.620	81456.5
-14.615	81449.5
-14.610	81452.5
-14.605	81454.5
-14.600	81464.5
-14.595	81480.5
-14.590	81471.5
-14.585	81458.5
-14.580	81438.5
-14.575	81409.5
-14.570	81430.5
-14.565	81449.5
-14.560	81457.5
-14.555	81447.5
-14.550	81441.5
-14.545	81439.5
-14.540	81429.5
-14.535	81438.5
-14.530	81439.5
-14.525	81441.5
-14.520	81451.5
-14.515	81457.5
-14.510	81421.5
-14.505	81428.5
-14.500	81441.5
-14.495	81454.5
-14.490	81467.5
-14.485	81463.5
-14.480	81473.5
-14.475	81471.5
-14.470	81486.5
-14.465	81481.5
-14.460	81500.5
-14.455	81490.5
-14.450	81496.5
-14.445	81471.5
-14.440	81470.5
-14.435	81495.5
-14.430	81506.4
-14.425	81506.4
-14.420	81493.5
-14.415	81496.5
-14.410	81494.5
-14.405	81500.5
-14.400	81507.4
-14.395	81509.4
-14.390	81521.4
-14.385	81528.4
-14.380	81517.4
-14.375	81490.5
-14.370	81504.4
-14.365	81526.4
-14.360	81531.4
-14.355	81537.4
-14.350	81542.4
-14.345	81538.4
-14.340	81544.4
-14.335	81559.4
-14.330	81567.4
-14.325	81561.4
-14.320	81581.4
-14.315	81580.4
-14.310	81541.4
-14.305	81538.4
-14.300	81572.4
-14.295	81582.4
-14.290	81576.4
-14.285	81571.4
-14.280	81572.4
-14.275	81574.4
-14.270	81581.4
-14.265	81571.4
-14.260	81591.4
-14.255	81580.4
-14.250	81582.4
-14.245	81562.4
-14.240	81548.4
-14.235	81568.4
-14.230	81595.4
-14.225	81591.4
-14.220	81587.4
-14.215	81582.4
-14.210	81597.4
-14.205	81596.4
-14.200	81597.4
-14.195	81611.4
-14.190	81608.4
-14.185	81596.4
-14.180	81586.4
-14.175	81563.4
-14.170	81567.4
-14.165	81605.4
-14.160	81604.4
-14.155	81592.4
-14.150	81588.4
-14.145	81584.4
-14.140	81578.4
-14.135	81586.4
-14.130	81588.4
-14.125	81579.4
-14.120	81596.4
-14.115	81582.4
-14.110	81554.4
-14.105	81548.4
-14.100	81577.4
-14.095	81595.4
-14.090	81588.4
-14.085	81584.4
-14.080	81592.4
-14.075	81585.4
-14.070	81600.4
-14.065	81595.4
-14.060	81602.4
-14.055	81608.3
-14.050	81602.4
-14.045	81570.4
-14.040	81564.4
-14.035	81587.4
-14.030	81605.4
-14.025	81596.4
-14.020	81593.4
-14.015	81589.4
-14.010	81593.4
-14.005	81594.4
-14.000	81598.4
-13.995	81603.4
-13.990	81606.3
-13.985	81604.4
-13.980	81593.4
-13.975	81576.4
-13.970	81578.4
-13.965	81606.3
-13.960	81601.4
-13.955	81602.4
-13.950	81601.4
-13.945	81598.4
-13.940	81615.3
-13.935	81614.3
-13.930	81622.3
-13.925	81625.3
-13.920	81634.3
-13.915	81628.3
-13.910	81601.4
-13.905	81596.4
-13.900	81619.3
-13.895	81617.3
-13.890	81615.3
-13.885	81607.3
-13.880	81609.3
-13.875	81612.3
-13.870	81616.3
-13.865	81608.3
-13.860	81618.3
-13.855	81616.3
-13.850	81627.3
-13.845	81593.4
-13.840	81588.4
-13.835	81590.4
-13.830	81624.3
-13.825	81613.3
-13.820	81618.3
-13.815	81613.3
-13.810	81611.3
-13.805	81616.3
-13.800	81622.3
-13.795	81624.3
-13.790	81617.3
-13.785	81616.3
-13.780	81602.3
-13.775	81572.4
-13.770	81596.3
-13.765	81610.3
-13.760	81605.3
-13.755	81617.3
-13.750	81612.3
-13.745	81605.3
-13.740	81615.3
-13.735	81626.3
-13.730	81620.3
-13.725	81624.3
-13.720	81627.3
-13.715	81630.3
-13.710	81594.3
-13.705	81594.3
-13.700	81627.3
-13.695	81636.3
-13.690	81638.3
-13.685	81639.3
-13.680	81644.3
-13.675	81644.3
-13.670	81651.3
-13.665	81661.3
-13.660	81658.3
-13.655	81658.3
-13.650	81656.3
-13.645	81628.3
-13.640	81627.3
-13.635	81640.3
-13.630	81669.3
-13.625	81655.3
-13.620	81652.3
-13.615	81652.3
-13.610	81659.3
-13.605	81655.3
-13.600	81659.3
-13.595	81650.3
-13.590	81662.3
-13.585	81672.3
-13.580	81667.3
-13.575	81647.3
-13.570	81660.3
-13.565	81669.3
-13.560	81677.3
-13.555	81681.3
-13.550	81679.3
-13.545	81678.3
-13.540	81676.3
-13.535	81676.3
-13.530	81677.3
-13.525	81678.3
-13.520	81679.3
-13.515	81668.3
-13.510	81634.3
-13.505	81636.3
-13.500	81654.3
-13.495	81654.3
-13.490	81647.3
-13.485	81633.3
-13.480	81642.3
-13.475	81641.3
-13.470	81637.3
-13.465	81623.3
-13.460	81625.3
-13.455	81632.3
-13.450	81634.3
-13.445	81596.3
-13.440	81598.3
-13.435	81596.3
-13.430	81612.3
-13.425	81604.3
-13.420	81602.3
-13.415	81593.3
-13.410	81593.3
-13.405	81589.3
-13.400	81583.3
-13.395	81587.3
-13.390	81584.3
-13.385	81567.4
-13.380	81554.4
-13.375	81520.4
-13.370	81534.4
-13.365	81552.4
-13.360	81540.4
-13.355	81525.4
-13.350	81513.4
-13.345	81508.4
-13.340	81498.4
-13.335	81486.4
-13.330	81494.4
-13.325	81492.4
-13.320	81484.4
-13.315	81480.4
-13.310	81443.4
-13.305	81436.4
-13.300	81466.4
-13.295	81476.4
-13.290	81477.4
-13.285	81484.4
-13.280	81482.4
-13.275	81477.4
-13.270	81482.4
-13.265	81491.4
-13.260	81491.4
-13.255	81473.4
-13.250	81483.4
-13.245	81459.4
-13.240	81455.4
-13.235	81469.4
-13.230	81484.4
-13.225	81470.4
-13.220	81488.4
-13.215	81489.4
-13.210	81487.4
-13.205	81490.4
-13.200	81503.4
-13.195	81508.4
-13.190	81506.4
-13.185	81502.4
-13.180	81486.4
-13.175	81472.4
-13.170	81495.4
-13.165	81511.4
-13.160	81523.4
-13.155	81521.4
-13.150	81512.4
-13.145	81514.4
-13.140	81528.4
-13.135	81526.4
-13.130	81538.4
-13.125	81542.4
-13.120	81538.4
-13.115	81541.4
-13.110	81518.4
-13.105	81525.4
-13.100	81542.4
-13.095	81558.3
-13.090	81551.4
-13.085	81546.4
-13.080	81549.4
-13.075	81557.4
-13.070	81549.4
-13.065	81558.3
-13.060	81570.3
-13.055	81563.3
-13.050	81561.3
-13.045	81543.4
-13.040	81550.3
-13.035	81556.3
-13.030	81574.3
-13.025	81568.3
-13.020	81582.3
-13.015	81577.3
-13.010	81575.3
-13.005	81582.3
-13.000	81590.3
-12.995	81585.3
-12.990	81577.3
-12.985	81577.3
-12.980	81556.3
-12.975	81534.4
-12.970	81554.3
-12.965	81575.3
-12.960	81575.3
-12.955	81567.3
-12.950	81559.3
-12.945	81561.3
-12.940	81564.3
-12.935	81555.3
-12.930	81564.3
-12.925	81556.3
-12.920	81559.3
-12.915	81549.3
-12.910	81526.4
-12.905	81531.4
-12.900	81552.3
-12.895	81553.3
-12.890	81551.3
-12.885	81540.4
-12.880	81547.3
-12.875	81550.3
-12.870	81547.3
-12.865	81548.3
-12.860	81546.3
-12.855	81545.3
-12.850	81548.3
-12.845	81517.4
-12.840	81515.4
-12.835	81530.4
-12.830	81542.3
-12.825	81541.3
-12.820	81534.4
-12.815	81535.4
-12.810	81534.4
-12.805	81539.3
-12.800	81535.3
-12.795	81533.3
-12.790	81534.3
-12.785	81531.3
-12.780	81525.4
-12.775	81506.4
-12.770	81515.4
-12.765	81537.3
-12.760	81546.3
-12.755	81540.3
-12.750	81550.3
-12.745	81553.3
-12.740	81569.3
-12.735	81561.3
-12.730	81566.3
-12.725	81569.3
-12.720	81571.3
-12.715	81567.3
-12.710	81538.3
-12.705	81550.3
-12.700	81587.3
-12.695	81581.3
-12.690	81571.3
-12.685	81568.3
-12.680	81579.3
-12.675	81565.3
-12.670	81576.3
-12.665	81577.3
-12.660	81583.3
-12.655	81590.3
-12.650	81594.3
-12.645	81557.3
-12.640	81557.3
-12.635	81572.3
-12.630	81590.3
-12.625	81586.3
-12.620	81578.3
-12.615	81590.3
-12.610	81582.3
-12.605	81592.3
-12.600	81595.3
-12.595	81594.3
-12.590	81597.3
-12.585	81592.3
-12.580	81571.3
-12.575	81574.3
-12.570	81599.3
-12.565	81610.3
-12.560	81605.3
-12.555	81600.3
-12.550	81601.3
-12.545	81609.3
-12.540	81616.3
-12.535	81611.3
-12.530	81617.3
-12.525	81620.3
-12.520	81615.3
-12.515	81607.3
-12.510	81585.3
-12.505	81581.3
-12.500	81603.3
-12.495	81600.3
-12.490	81614.3
-12.485	81614.3
-12.480	81619.3
-12.475	81622.3
-12.470	81629.3
-12.465	81626.3
-12.460	81626.3
-12.455	81619.3
-12.450	81625.3
-12.445	81580.3
-12.440	81596.3
-12.435	81618.3
-12.430	81631.3
-12.425	81627.3
-12.420	81617.3
-12.415	81620.3
-12.410	81617.3
-12.405	81623.3
-12.400	81623.3
-12.395	81614.3
-12.390	81621.3
-12.385	81628.3
-12.380	81610.3
-12.375	81587.3
-12.370	81597.3
-12.365	81624.3
-12.360	81625.3
-12.355	81622.3
-12.350	81619.3
-12.345	81627.3
-12.340	81633.3
-12.335	81634.3
-12.330	81638.3
-12.325	81637.3
-12.320	81641.2
-12.315	81622.3
-12.310	81602.3
-12.305	81610.3
-12.300	81647.2
-12.295	81629.3
-12.290	81632.3
-12.285	81632.3
-12.280	81640.3
-12.275	81628.3
-12.270	81634.3
-12.265	81634.3
-12.260	81630.3
-12.255	81634.3
-12.250	81647.2
-12.245	81609.3
-12.240	81615.3
-12.235	81638.3
-12.230	81654.2
-12.225	81648.2
-12.220	81651.2
-12.215	81652.2
-12.210	81662.2
-12.205	81657.2
-12.200	81681.2
-12.195	81679.2
-12.190	81677.2
-12.185	81665.2
-12.180	81653.2
-12.175	81636.2
-12.170	81657.2
-12.165	81678.2
-12.160	81675.2
-12.155	81672.2
-12.150	81674.2
-12.145	81665.2
-12.140	81676.2
-12.135	81677.2
-12.130	81670.2
-12.125	81679.2
-12.120	81682.2
-12.115	81669.2
-12.110	81645.2
-12.105	81657.2
-12.100	81695.2
-12.095	81690.2
-12.090	81686.2
-12.085	81697.2
-12.080	81706.2
-12.075	81703.2
-12.070	81706.2
-12.065	81707.2
-12.060	81726.2
-12.055	81718.2
-12.050	81721.2
-12.045	81680.2
-12.040	81690.2
-12.035	81712.2
-12.030	81725.2
-12.025	81710.2
-12.020	81716.2
-12.015	81717.2
-12.010	81726.2
-12.005	81722.2
-12.000	81734.2
-11.995	81726.2
-11.990	81732.2
-11.985	81735.2
-11.980	81718.2
-11.975	81715.2
-11.970	81730.2
-11.965	81747.2
-11.960	81747.2
-11.955	81750.2
-11.950	81747.2
-11.945	81754.2
-11.940	81765.1
-11.935	81756.2
-11.930	81770.1
-11.925	81761.1
-11.920	81760.1
-11.915	81747.2
-11.910	81735.2
-11.905	81746.2
-11.900	81772.1
-11.895	81768.1
-11.890	81760.1
-11.885	81746.2
-11.880	81752.1
-11.875	81758.1
-11.870	81760.1
-11.865	81763.1
-11.860	81762.1
-11.855	81754.1
-11.850	81760.1
-11.845	81724.2
-11.840	81727.2
-11.835	81749.2
-11.830	81778.1
-11.825	81762.1
-11.820	81760.1
-11.815	81764.1
-11.810	81771.1
-11.805	81774.1
-11.800	81779.1
-11.795	81781.1
-11.790	81780.1
-11.785	81773.1
-11.780	81759.1
-11.775	81755.1
-11.770	81770.1
-11.765	81783.1
-11.760	81783.1
-11.755	81778.1
-11.750	81774.1
-11.745	81771.1
-11.740	81771.1
-11.735	81775.1
-11.730	81772.1
-11.725	81777.1
-11.720	81791.1
-11.715	81760.1
-11.710	81736.2
-11.705	81742.1
-11.700	81769.1
-11.695	81773.1
-11.690	81770.1
-11.685	81772.1
-11.680	81767.1
-11.675	81760.1
-11.670	81769.1
-11.665	81762.1
-11.660	81781.1
-11.655	81774.1
-11.650	81763.1
-11.645	81732.2
-11.640	81734.2
-11.635	81755.1
-11.630	81764.1
-11.625	81755.1
-11.620	81748.1
-11.615	81750.1
-11.610	81737.2
-11.605	81738.2
-11.600	81734.2
-11.595	81741.1
-11.590	81742.1
-11.585	81737.1
-11.580	81722.2
-11.575	81703.2
-11.570	81720.2
-11.565	81734.2
-11.560	81737.2
-11.555	81740.1
-11.550	81745.1
-11.545	81738.1
-11.540	81739.1
-11.535	81733.2
-11.530	81732.2
-11.525	81735.1
-11.520	81738.2
-11.515	81707.2
-11.510	81690.2
-11.505	81707.2
-11.500	81733.2
-11.495	81730.2
-11.490	81729.2
-11.485	81721.2
-11.480	81719.2
-11.475	81715.2
-11.470	81723.2
-11.465	81721.2
-11.460	81726.2
-11.455	81721.2
-11.450	81720.2
-11.445	81670.2
-11.440	81676.2
-11.435	81692.2
-11.430	81709.2
-11.425	81697.2
-11.420	81705.2
-11.415	81695.2
-11.410	81695.2
-11.405	81698.2
-11.400	81697.2
-11.395	81699.2
-11.390	81707.2
-11.385	81703.2
-11.380	81673.2
-11.375	81672.2
-11.370	81692.2
-11.365	81701.2
-11.360	81699.2
-11.355	81690.2
-11.350	81688.2
-11.345	81682.2
-11.340	81689.2
-11.335	81681.2
-11.330	81697.2
-11.325	81697.2
-11.320	81696.2
-11.315	81684.2
-11.310	81667.2
-11.305	81675.2
-11.300	81701.2
-11.295	81693.2
-11.290	81710.2
-11.285	81702.2
-11.280	81708.2
-11.275	81711.2
-11.270	81710.2
-11.265	81706.2
-11.260	81712.2
-11.255	81708.2
-11.250	81710.2
-11.245	81662.2
-11.240	81673.2
-11.235	81692.2
-11.230	81701.2
-11.225	81695.2
-11.220	81691.2
-11.215	81690.2
-11.210	81694.2
-11.205	81699.2
-11.200	81703.2
-11.195	81700.2
-11.190	81707.2
-11.185	81703.2
-11.180	81671.2
-11.175	81661.2
-11.170	81683.2
-11.165	81695.2
-11.160	81690.2
-11.155	81692.2
-11.150	81692.2
-11.145	81678.2
-11.140	81695.2
-11.135	81699.2
-11.130	81709.2
-11.125	81698.2
-11.120	81708.2
-11.115	81681.2
-11.110	81665.2
-11.105	81684.2
-11.100	81704.2
-11.095	81694.2
-11.090	81699.2
-11.085	81693.2
-11.080	81703.2
-11.075	81684.2
-11.070	81691.2
-11.065	81691.2
-11.060	81699.2
-11.055	81684.2
-11.050	81691.2
-11.045	81656.2
-11.040	81661.2
-11.035	81688.2
-11.030	81698.2
-11.025	81691.2
-11.020	81688.2
-11.015	81694.2
-11.010	81702.2
-11.005	81691.2
-11.000	81690.2
-10.995	81702.2
-10.990	81707.1
-10.985	81701.2
-10.980	81661.2
-10.975	81666.2
-10.970	81690.2
-10.965	81695.2
-10.960	81686.2
-10.955	81684.2
-10.950	81695.2
-10.945	81693.2
-10.940	81687.2
-10.935	81692.2
-10.930	81702.2
-10.925	81683.2
-10.920	81698.2
-10.915	81677.2
-10.910	81661.2
-10.905	81668.2
-10.900	81702.2
-10.895	81691.2
-10.890	81701.2
-10.885	81703.2
-10.880	81704.2
-10.875	81699.2
-10.870	81702.2
-10.865	81705.2
-10.860	81714.1
-10.855	81706.1
-10.850	81706.1
-10.845	81674.2
-10.840	81688.2
-10.835	81705.1
-10.830	81716.1
-10.825	81719.1
-10.820	81718.1
-10.815	81719.1
-10.810	81715.1
-10.805	81715.1
-10.800	81721.1
-10.795	81720.1
-10.790	81739.1
-10.785	81735.1
-10.780	81708.1
-10.775	81701.1
-10.770	81720.1
-10.765	81743.1
-10.760	81740.1
-10.755	81738.1
-10.750	81740.1
-10.745	81740.1
-10.740	81742.1
-10.735	81751.1
-10.730	81752.1
-10.725	81757.1
-10.720	81757.1
-10.715	81729.1
-10.710	81729.1
-10.705	81733.1
-10.700	81760.1
-10.695	81753.1
-10.690	81757.1
-10.685	81750.1
-10.680	81759.1
-10.675	81756.1
-10.670	81761.1
-10.665	81751.1
-10.660	81750.1
-10.655	81761.1
-10.650	81758.1
-10.645	81727.1
-10.640	81733.1
-10.635	81755.1
-10.630	81760.1
-10.625	81759.1
-10.620	81767.1
-10.615	81753.1
-10.610	81764.1
-10.605	81775.1
-10.600	81779.1
-10.595	81772.1
-10.590	81774.1
-10.585	81760.1
-10.580	81730.1
-10.575	81732.1
-10.570	81754.1
-10.565	81754.1
-10.560	81751.1
-10.555	81738.1
-10.550	81735.1
-10.545	81739.1
-10.540	81741.1
-10.535	81742.1
-10.530	81746.1
-10.525	81750.1
-10.520	81748.1
-10.515	81728.1
-10.510	81706.1
-10.505	81712.1
-10.500	81742.1
-10.495	81730.1
-10.490	81744.1
-10.485	81730.1
-10.480	81728.1
-10.475	81732.1
-10.470	81732.1
-10.465	81717.1
-10.460	81714.1
-10.455	81712.1
-10.450	81704.1
-10.445	81670.2
-10.440	81685.2
-10.435	81711.1
-10.430	81716.1
-10.425	81705.1
-10.420	81702.1
-10.415	81686.2
-10.410	81687.2
-10.405	81679.2
-10.400	81696.1
-10.395	81692.1
-10.390	81700.1
-10.385	81698.1
-10.380	81673.2
-10.375	81664.2
-10.370	81686.2
-10.365	81703.1
-10.360	81704.1
-10.355	81705.1
-10.350	81710.1
-10.345	81701.1
-10.340	81709.1
-10.335	81710.1
-10.330	81709.1
-10.325	81711.1
-10.320	81712.1
-10.315	81683.2
-10.310	81680.2
-10.305	81704.1
-10.300	81719.1
-10.295	81713.1
-10.290	81703.1
-10.285	81705.1
-10.280	81701.1
-10.275	81699.1
-10.270	81704.1
-10.265	81692.1
-10.260	81702.1
-10.255	81702.1
-10.250	81686.1
-10.245	81663.2
-10.240	81675.2
-10.235	81700.1
-10.230	81707.1
-10.225	81706.1
-10.220	81693.1
-10.215	81697.1
-10.210	81712.1
-10.205	81717.1
-10.200	81725.1
-10.195	81729.1
-10.190	81734.1
-10.185	81720.1
-10.180	81699.1
-10.175	81695.1
-10.170	81712.1
-10.165	81723.1
-10.160	81723.1
-10.155	81716.1
-10.150	81713.1
-10.145	81710.1
-10.140	81719.1
-10.135	81707.1
-10.130	81716.1
-10.125	81711.1
-10.120	81710.1
-10.115	81698.1
-10.110	81682.1
-10.105	81692.1
-10.100	81719.1
-10.095	81711.1
-10.090	81707.1
-10.085	81712.1
-10.080	81720.1
-10.075	81735.1
-10.070	81736.1
-10.065	81727.1
-10.060	81734.1
-10.055	81728.1
-10.050	81711.1
-10.045	81689.1
-10.040	81705.1
-10.035	81729.1
-10.030	81726.1
-10.025	81724.1
-10.020	81719.1
-10.015	81719.1
-10.010	81719.1
-10.005	81721.1
-10.000	81713.1
-9.995	81716.1
-9.990	81729.1
-9.985	81720.1
-9.980	81694.1
-9.975	81684.1
-9.970	81707.1
-9.965	81719.1
-9.960	81724.1
-9.955	81717.1
-9.950	81721.1
-9.945	81717.1
-9.940	81731.1
-9.935	81740.1
-9.930	81739.1
-9.925	81739.1
-9.920	81745.1
-9.915	81708.1
-9.910	81699.1
-9.905	81722.1
-9.900	81731.1
-9.895	81727.1
-9.890	81719.1
-9.885	81721.1
-9.880	81716.1
-9.875	81716.1
-9.870	81714.1
-9.865	81720.1
-9.860	81724.1
-9.855	81721.1
-9.850	81707.1
-9.845	81682.1
-9.840	81693.1
-9.835	81721.1
-9.830	81712.1
-9.825	81718.1
-9.820	81720.1
-9.815	81706.1
-9.810	81714.1
-9.805	81724.1
-9.800	81715.1
-9.795	81720.1
-9.790	81727.1
-9.785	81713.1
-9.780	81686.1
-9.775	81691.1
-9.770	81706.1
-9.765	81703.1
-9.760	81697.1
-9.755	81694.1
-9.750	81703.1
-9.745	81693.1
-9.740	81708.1
-9.735	81699.1
-9.730	81712.1
-9.725	81709.1
-9.720	81710.1
-9.715	81682.1
-9.710	81669.1
-9.705	81683.1
-9.700	81710.1
-9.695	81699.1
-9.690	81710.1
-9.685	81710.1
-9.680	81713.1
-9.675	81707.1
-9.670	81723.1
-9.665	81714.1
-9.660	81721.1
-9.655	81713.1
-9.650	81699.1
-9.645	81676.1
-9.640	81696.1
-9.635	81715.1
-9.630	81714.1
-9.625	81705.1
-9.620	81710.1
-9.615	81703.1
-9.610	81710.1
-9.605	81695.1
-9.600	81709.1
-9.595	81716.1
-9.590	81707.1
-9.585	81706.1
-9.580	81679.1
-9.575	81680.1
-9.570	81700.1
-9.565	81711.1
-9.560	81719.1
-9.555	81722.1
-9.550	81715.1
-9.545	81717.1
-9.540	81713.1
-9.535	81716.1
-9.530	81721.1
-9.525	81715.1
-9.520	81716.1
-9.515	81686.1
-9.510	81686.1
-9.505	81708.0
-9.500	81715.0
-9.495	81700.9
-9.490	81688.8
-9.485	81640.7
-9.480	81618.6
-9.475	81575.4
-9.470	81527.1
-9.465	81468.9
-9.460	81416.5
-9.455	81334.2
-9.450	81232.9
-9.445	81100.5
-9.440	80999.1
-9.435	80942.7
-9.430	80905.3
-9.425	80884.8
-9.420	80912.4
-9.415	80964.0
-9.410	81012.7
-9.405	81059.6
-9.400	81113.7
-9.395	81172.0
-9.390	81225.4
-9.385	81236.9
-9.380	81303.2
-9.375	81444.4
-9.370	81551.5
-9.365	81576.7
-9.360	81559.9
-9.355	81562.0
-9.350	81595.1
-9.345	81562.2
-9.340	81568.3
-9.335	81581.4
-9.330	81557.5
-9.325	81507.6
-9.320	81488.7
-9.315	81452.7
-9.310	81440.8
-9.305	81461.8
-9.300	81511.9
-9.295	81488.9
-9.290	81488.0
-9.285	81489.0
-9.280	81500.0
-9.275	81497.1
-9.270	81505.1
-9.265	81508.1
-9.260	81522.2
-9.255	81541.2
-9.250	81525.2
-9.245	81536.3
-9.240	81553.3
-9.235	81560.3
-9.230	81563.3
-9.225	81548.4
-9.220	81548.4
-9.215	81528.4
-9.210	81478.5
-9.205	81480.5
-9.200	81507.5
-9.195	81498.5
-9.190	81467.6
-9.185	81468.6
-9.180	81466.6
-9.175	81485.6
-9.170	81519.6
-9.165	81509.6
-9.160	81489.7
-9.155	81489.7
-9.150	81485.7
-9.145	81488.7
-9.140	81473.7
-9.135	81460.8
-9.130	81463.8
-9.125	81449.8
-9.120	81451.8
-9.115	81409.9
-9.110	81408.9
-9.105	81421.9
-9.100	81436.9
-9.095	81436.9
-9.090	81443.9
-9.085	81445.9
-9.080	81444.9
-9.075	81440.9
-9.070	81442.9
-9.065	81443.0
-9.060	81448.0
-9.055	81419.0
-9.050	81379.0
-9.045	81358.1
-9.040	81392.0
-9.035	81444.0
-9.030	81449.0
-9.025	81444.0
-9.020	81445.0
-9.015	81464.0
-9.010	81481.0
-9.005	81500.0
-9.000	81487.0
-8.995	81455.1
-8.990	81459.1
-8.985	81482.1
-8.980	81477.1
-8.975	81499.1
-8.970	81516.1
-8.965	81452.1
-8.960	81484.1
-8.955	81566.0
-8.950	81602.0
-8.945	81621.0
-8.940	81627.0
-8.935	81610.0
-8.930	81604.1
-8.925	81608.1
-8.920	81589.1
-8.915	81423.2
-8.910	81308.3
-8.905	81462.2
-8.900	81617.1
-8.895	81634.1
-8.890	81641.1
-8.885	81639.1
-8.880	81660.1
-8.875	81644.1
-8.870	81651.1
-8.865	81641.1
-8.860	81666.1
-8.855	81669.1
-8.850	81654.1
-8.845	81633.1
-8.840	81647.1
-8.835	81654.1
-8.830	81649.1
-8.825	81649.1
-8.820	81651.1
-8.815	81655.1
-8.810	81666.1
-8.805	81649.1
-8.800	81644.2
-8.795	81649.2
-8.790	81666.1
-8.785	81659.2
-8.780	81628.2
-8.775	81643.2
-8.770	81662.2
-8.765	81658.2
-8.760	81661.2
-8.755	81667.2
-8.750	81680.2
-8.745	81690.2
-8.740	81692.2
-8.735	81698.2
-8.730	81693.2
-8.725	81684.2
-8.720	81686.2
-8.715	81661.2
-8.710	81657.2
-8.705	81666.2
-8.700	81671.2
-8.695	81643.2
-8.690	81636.3
-8.685	81657.2
-8.680	81682.2
-8.675	81702.2
-8.670	81716.2
-8.665	81710.2
-8.660	81705.2
-8.655	81704.2
-8.650	81681.2
-8.645	81673.3
-8.640	81689.2
-8.635	81707.2
-8.630	81702.2
-8.625	81701.2
-8.620	81713.2
-8.615	81726.2
-8.610	81741.2
-8.605	81738.2
-8.600	81757.2
-8.595	81746.2
-8.590	81752.2
-8.585	81739.2
-8.580	81726.3
-8.575	81752.2
-8.570	81767.2
-8.565	81757.2
-8.560	81753.2
-8.555	81754.2
-8.550	81744.3
-8.545	81745.3
-8.540	81749.3
-8.535	81749.3
-8.530	81767.3
-8.525	81756.3
-8.520	81758.3
-8.515	81734.3
-8.510	81734.3
-8.505	81739.3
-8.500	81752.3
-8.495	81756.3
-8.490	81744.3
-8.485	81760.3
-8.480	81772.3
-8.475	81788.3
-8.470	81785.3
-8.465	81784.3
-8.460	81779.3
-8.455	81769.3
-8.450	81752.3
-8.445	81751.3
-8.440	81780.3
-8.435	81792.3
-8.430	81790.3
-8.425	81791.3
-8.420	81776.3
-8.415	81782.3
-8.410	81788.3
-8.405	81786.3
-8.400	81789.3
-8.395	81792.3
-8.390	81809.3
-8.385	81797.3
-8.380	81772.3
-8.375	81774.3
-8.370	81811.3
-8.365	81812.3
-8.360	81816.3
-8.355	81816.3
-8.350	81819.3
-8.345	81812.3
-8.340	81819.3
-8.335	81820.3
-8.330	81825.3
-8.325	81805.3
-8.320	81810.3
-8.315	81780.3
-8.310	81790.3
-8.305	81796.3
-8.300	81805.3
-8.295	81802.3
-8.290	81797.3
-8.285	81799.3
-8.280	81803.3
-8.275	81800.3
-8.270	81802.3
-8.265	81801.3
-8.260	81805.3
-8.255	81810.3
-8.250	81781.4
-8.245	81761.4
-8.240	81775.4
-8.235	81796.4
-8.230	81788.4
-8.225	81790.4
-8.220	81793.4
-8.215	81794.4
-8.210	81802.4
-8.205	81798.4
-8.200	81806.4
-8.195	81801.4
-8.190	81797.4
-8.185	81771.4
-8.180	81759.4
-8.175	81762.4
-8.170	81792.4
-8.165	81791.4
-8.160	81778.4
-8.155	81766.4
-8.150	81762.4
-8.145	81751.4
-8.140	81747.4
-8.135	81732.4
-8.130	81742.4
-8.125	81737.4
-8.120	81725.4
-8.115	81697.5
-8.110	81704.5
-8.105	81723.4
-8.100	81747.4
-8.095	81754.4
-8.090	81763.4
-8.085	81774.4
-8.080	81781.4
-8.075	81787.4
-8.070	81791.4
-8.065	81791.4
-8.060	81789.4
-8.055	81785.4
-8.050	81757.4
-8.045	81734.5
-8.040	81749.4
-8.035	81769.4
-8.030	81759.4
-8.025	81746.5
-8.020	81756.4
-8.015	81753.5
-8.010	81742.5
-8.005	81747.5
-8.000	81765.4
-7.995	81772.4
-7.990	81789.4
-7.985	81773.4
-7.980	81748.5
-7.975	81762.5
-7.970	81779.4
-7.965	81775.4
-7.960	81789.4
-7.955	81784.4
-7.950	81781.4
-7.945	81780.4
-7.940	81789.4
-7.935	81787.4
-7.930	81786.4
-7.925	81781.5
-7.920	81776.5
-7.915	81732.5
-7.910	81746.5
-7.905	81764.5
-7.900	81774.5
-7.895	81764.5
-7.890	81774.5
-7.885	81749.5
-7.880	81762.5
-7.875	81767.5
-7.870	81769.5
-7.865	81768.5
-7.860	81776.5
-7.855	81786.5
-7.850	81757.5
-7.845	81746.5
-7.840	81759.5
-7.835	81778.5
-7.830	81770.5
-7.825	81768.5
-7.820	81767.5
-7.815	81759.5
-7.810	81760.5
-7.805	81754.5
-7.800	81746.5
-7.795	81726.5
-7.790	81729.5
-7.785	81687.5
-7.780	81663.6
-7.775	81665.6
-7.770	81678.6
-7.765	81681.6
-7.760	81687.6
-7.755	81680.6
-7.750	81694.6
-7.745	81709.5
-7.740	81717.5
-7.735	81731.5
-7.730	81740.5
-7.725	81756.5
-7.720	81764.5
-7.715	81730.5
-7.710	81742.5
-7.705	81761.5
-7.700	81776.5
-7.695	81770.5
-7.690	81774.5
-7.685	81760.5
-7.680	81768.5
-7.675	81786.5
-7.670	81776.5
-7.665	81781.5
-7.660	81792.5
-7.655	81782.5
-7.650	81748.5
-7.645	81749.5
-7.640	81758.5
-7.635	81768.5
-7.630	81766.5
-7.625	81764.5
-7.620	81769.5
-7.615	81761.5
-7.610	81764.5
-7.605	81759.5
-7.600	81761.5
-7.595	81760.5
-7.590	81760.5
-7.585	81738.5
-7.580	81720.6
-7.575	81741.5
-7.570	81747.5
-7.565	81742.5
-7.560	81730.6
-7.555	81736.6
-7.550	81725.6
-7.545	81718.6
-7.540	81719.6
-7.535	81715.6
-7.530	81724.6
-7.525	81738.6
-7.520	81743.5
-7.515	81710.6
-7.510	81732.6
-7.505	81753.5
-7.500	81757.5
-7.495	81754.5
-7.490	81753.5
-7.485	81754.5
-7.480	81757.5
-7.475	81763.5
-7.470	81766.5
-7.465	81752.5
-7.460	81768.5
-7.455	81760.5
-7.450	81735.6
-7.445	81728.6
-7.440	81752.6
-7.435	81773.5
-7.430	81761.6
-7.425	81751.6
-7.420	81758.6
-7.415	81748.6
-7.410	81749.6
-7.405	81732.6
-7.400	81735.6
-7.395	81731.6
-7.390	81729.6
-7.385	81708.6
-7.380	81705.6
-7.375	81711.6
-7.370	81740.6
-7.365	81727.6
-7.360	81735.6
-7.355	81736.6
-7.350	81752.6
-7.345	81753.6
-7.340	81759.6
-7.335	81769.6
-7.330	81761.6
-7.325	81764.6
-7.320	81765.6
-7.315	81740.6
-7.310	81738.6
-7.305	81766.6
-7.300	81774.6
-7.295	81772.6
-7.290	81782.6
-7.285	81763.6
-7.280	81771.6
-7.275	81783.6
-7.270	81777.6
-7.265	81776.6
-7.260	81785.6
-7.255	81778.6
-7.250	81757.6
-7.245	81750.6
-7.240	81785.6
-7.235	81792.6
-7.230	81787.6
-7.225	81770.6
-7.220	81785.6
-7.215	81789.6
-7.210	81801.6
-7.205	81796.6
-7.200	81805.6
-7.195	81806.6
-7.190	81807.5
-7.185	81781.6
-7.180	81774.6
-7.175	81784.6
-7.170	81811.5
-7.165	81807.5
-7.160	81821.5
-7.155	81827.5
-7.150	81830.5
-7.145	81833.5
-7.140	81836.5
-7.135	81842.5
-7.130	81842.5
-7.125	81848.5
-7.120	81839.5
-7.115	81811.6
-7.110	81823.5
-7.105	81851.5
-7.100	81861.5
-7.095	81844.5
-7.090	81841.5
-7.085	81847.5
-7.080	81849.5
-7.075	81856.5
-7.070	81859.5
-7.065	81850.5
-7.060	81867.5
-7.055	81867.5
-7.050	81835.5
-7.045	81830.5
-7.040	81853.5
-7.035	81860.5
-7.030	81862.5
-7.025	81862.5
-7.020	81881.5
-7.015	81864.5
-7.010	81869.5
-7.005	81876.5
-7.000	81878.5
-6.995	81868.5
-6.990	81877.5
-6.985	81842.5
-6.980	81826.6
-6.975	81852.5
-6.970	81871.5
-6.965	81858.5
-6.960	81856.5
-6.955	81848.5
-6.950	81849.5
-6.945	81856.5
-6.940	81862.5
-6.935	81863.5
-6.930	81867.5
-6.925	81868.5
-6.920	81859.5
-6.915	81832.6
-6.910	81840.6
-6.905	81854.5
-6.900	81869.5
-6.895	81864.5
-6.890	81865.5
-6.885	81870.5
-6.880	81876.5
-6.875	81867.5
-6.870	81873.5
-6.865	81874.5
-6.860	81857.5
-6.855	81850.5
-6.850	81831.6
-6.845	81826.6
-6.840	81850.5
-6.835	81855.5
-6.830	81852.5
-6.825	81829.6
-6.820	81833.6
-6.815	81830.6
-6.810	81830.6
-6.805	81821.6
-6.800	81838.6
-6.795	81834.6
-6.790	81840.5
-6.785	81807.6
-6.780	81805.6
-6.775	81808.6
-6.770	81829.6
-6.765	81822.6
-6.760	81836.6
-6.755	81827.6
-6.750	81823.6
-6.745	81823.6
-6.740	81830.6
-6.735	81825.6
-6.730	81829.6
-6.725	81822.6
-6.720	81809.6
-6.715	81771.6
-6.710	81794.6
-6.705	81800.6
-6.700	81811.6
-6.695	81803.6
-6.690	81796.6
-6.685	81802.6
-6.680	81808.6
-6.675	81803.6
-6.670	81795.6
-6.665	81802.6
-6.660	81796.6
-6.655	81801.6
-6.650	81767.6
-6.645	81747.6
-6.640	81771.6
-6.635	81794.6
-6.630	81784.6
-6.625	81782.6
-6.620	81790.6
-6.615	81792.6
-6.610	81792.6
-6.605	81785.6
-6.600	81789.6
-6.595	81784.6
-6.590	81789.6
-6.585	81757.6
-6.580	81742.7
-6.575	81767.6
-6.570	81786.6
-6.565	81767.6
-6.560	81760.6
-6.555	81774.6
-6.550	81761.6
-6.545	81762.6
-6.540	81768.6
-6.535	81766.6
-6.530	81764.6
-6.525	81757.6
-6.520	81750.7
-6.515	81718.7
-6.510	81731.7
-6.505	81749.7
-6.500	81751.7
-6.495	81745.7
-6.490	81749.7
-6.485	81750.7
-6.480	81757.7
-6.475	81748.7
-6.470	81760.6
-6.465	81754.6
-6.460	81748.7
-6.455	81755.7
-6.450	81720.7
-6.445	81713.7
-6.440	81724.7
-6.435	81734.7
-6.430	81739.7
-6.425	81721.7
-6.420	81715.7
-6.415	81716.7
-6.410	81719.7
-6.405	81707.7
-6.400	81718.7
-6.395	81719.7
-6.390	81720.7
-6.385	81685.7
-6.380	81677.7
-6.375	81693.7
-6.370	81714.7
-6.365	81722.7
-6.360	81725.7
-6.355	81722.7
-6.350	81717.7
-6.345	81718.7
-6.340	81727.7
-6.335	81723.7
-6.330	81737.7
-6.325	81717.7
-6.320	81724.7
-6.315	81696.7
-6.310	81726.7
-6.305	81730.7
-6.300	81728.7
-6.295	81716.7
-6.290	81714.7
-6.285	81722.7
-6.280	81727.7
-6.275	81740.7
-6.270	81740.7
-6.265	81735.7
-6.260	81749.7
-6.255	81748.7
-6.250	81714.7
-6.245	81712.7
-6.240	81727.7
-6.235	81745.7
-6.230	81744.7
-6.225	81750.7
-6.220	81758.7
-6.215	81766.7
-6.210	81760.7
-6.205	81759.7
-6.200	81761.7
-6.195	81756.7
-6.190	81766.7
-6.185	81729.7
-6.180	81729.7
-6.175	81734.7
-6.170	81758.7
-6.165	81743.7
-6.160	81734.7
-6.155	81730.7
-6.150	81749.7
-6.145	81731.7
-6.140	81733.7
-6.135	81739.7
-6.130	81744.7
-6.125	81740.7
-6.120	81724.7
-6.115	81706.7
-6.110	81710.7
-6.105	81731.7
-6.100	81745.7
-6.095	81745.7
-6.090	81734.7
-6.085	81736.7
-6.080	81741.7
-6.075	81749.7
-6.070	81756.7
-6.065	81748.7
-6.060	81743.7
-6.055	81736.7
-6.050	81698.7
-6.045	81720.7
-6.040	81739.7
-6.035	81741.7
-6.030	81734.7
-6.025	81722.7
-6.020	81735.7
-6.015	81721.7
-6.010	81731.7
-6.005	81738.7
-6.000	81738.7
-5.995	81745.7
-5.990	81743.7
-5.985	81713.7
-5.980	81713.7
-5.975	81722.7
-5.970	81743.7
-5.965	81739.7
-5.960	81743.7
-5.955	81733.7
-5.950	81731.7
-5.945	81728.7
-5.940	81735.7
-5.935	81730.7
-5.930	81728.7
-5.925	81717.7
-5.920	81695.7
-5.915	81664.8
-5.910	81671.8
-5.905	81677.8
-5.900	81677.8
-5.895	81646.8
-5.890	81645.8
-5.885	81631.8
-5.880	81626.8
-5.875	81604.8
-5.870	81604.8
-5.865	81599.8
-5.860	81597.8
-5.855	81582.8
-5.850	81537.9
-5.845	81542.9
-5.840	81581.8
-5.835	81610.8
-5.830	81628.8
-5.825	81628.8
-5.820	81639.8
-5.815	81656.8
-5.810	81682.8
-5.805	81703.7
-5.800	81719.7
-5.795	81730.7
-5.790	81735.7
-5.785	81706.7
-5.780	81706.7
-5.775	81737.7
-5.770	81751.7
-5.765	81756.7
-5.760	81747.7
-5.755	81745.7
-5.750	81742.7
-5.745	81733.6
-5.740	81744.6
-5.735	81745.6
-5.730	81756.6
-5.725	81755.6
-5.720	81740.6
-5.715	81721.6
-5.710	81733.6
-5.705	81758.6
-5.700	81769.5
-5.695	81775.5
-5.690	81781.5
-5.685	81781.5
-5.680	81789.6
-5.675	81785.6
-5.670	81795.6
-5.665	81790.6
-5.660	81786.6
-5.655	81766.6
-5.650	81727.7
-5.645	81739.7
-5.640	81774.7
-5.635	81782.7
-5.630	81781.7
-5.625	81762.7
-5.620	81769.7
-5.615	81767.7
-5.610	81766.7
-5.605	81754.7
-5.600	81754.7
-5.595	81746.7
-5.590	81756.7
-5.585	81729.7
-5.580	81712.8
-5.575	81731.7
-5.570	81743.7
-5.565	81750.7
-5.560	81749.7
-5.555	81740.7
-5.550	81733.7
-5.545	81728.7
-5.540	81746.7
-5.535	81750.7
-5.530	81749.7
-5.525	81734.7
-5.520	81721.7
-5.515	81692.8
-5.510	81705.8
-5.505	81729.7
-5.500	81724.7
-5.495	81722.7
-5.490	81707.8
-5.485	81705.8
-5.480	81700.8
-5.475	81701.8
-5.470	81699.8
-5.465	81698.8
-5.460	81695.8
-5.455	81691.8
-5.450	81653.8
-5.445	81631.8
-5.440	81657.9
-5.435	81633.0
-5.430	81600.1
-5.425	81559.2
-5.420	81511.5
-5.415	81437.8
-5.410	81328.2
-5.405	81218.7
-5.400	81138.1
-5.395	81022.7
-5.390	80915.3
-5.385	80796.9
-5.380	80659.6
-5.375	80505.4
-5.370	80417.1
-5.365	80369.7
-5.360	80297.3
-5.355	80169.0
-5.350	80122.6
-5.345	80186.8
-5.340	80378.6
-5.335	80620.2
-5.330	80807.6
-5.325	80929.1
-5.320	81045.6
-5.315	81151.2
-5.310	81245.8
-5.305	81308.5
-5.300	81335.2
-5.295	81349.0
-5.290	81389.8
-5.285	81424.6
-5.280	81438.5
-5.275	81449.3
-5.270	81448.2
-5.265	81442.1
-5.260	81433.0
-5.255	81422.9
-5.250	81413.9
-5.245	81436.8
-5.240	81470.7
-5.235	81471.6
-5.230	81477.5
-5.225	81477.5
-5.220	81495.4
-5.215	81514.3
-5.210	81533.2
-5.205	81544.2
-5.200	81548.1
-5.195	81546.1
-5.190	81568.0
-5.185	81570.0
-5.180	81582.9
-5.175	81599.8
-5.170	81625.8
-5.165	81623.7
-5.160	81619.7
-5.155	81601.7
-5.150	81615.6
-5.145	81628.6
-5.140	81650.5
-5.135	81665.5
-5.130	81675.5
-5.125	81668.4
-5.120	81637.4
-5.115	81615.4
-5.110	81635.4
-5.105	81664.3
-5.100	81650.3
-5.095	81625.3
-5.090	81601.3
-5.085	81586.3
-5.080	81611.3
-5.075	81629.2
-5.070	81632.2
-5.065	81650.2
-5.060	81658.2
-5.055	81655.2
-5.050	81634.1
-5.045	81630.1
-5.040	81649.1
-5.035	81649.1
-5.030	81646.0
-5.025	81642.0
-5.020	81663.0
-5.015	81666.0
-5.010	81696.9
-5.005	81722.9
-5.000	81737.9
-4.995	81737.9
-4.990	81746.8
-4.985	81720.8
-4.980	81734.8
-4.975	81757.8
-4.970	81764.8
-4.965	81753.8
-4.960	81761.7
-4.955	81750.7
-4.950	81747.7
-4.945	81739.7
-4.940	81745.7
-4.935	81755.7
-4.930	81796.6
-4.925	81799.6
-4.920	81784.6
-4.915	81775.6
-4.910	81797.6
-4.905	81824.5
-4.900	81834.5
-4.895	81822.5
-4.890	81828.5
-4.885	81819.5
-4.880	81822.5
-4.875	81824.5
-4.870	81826.5
-4.865	81828.5
-4.860	81842.5
-4.855	81835.5
-4.850	81811.5
-4.845	81814.5
-4.840	81846.4
-4.835	81836.4
-4.830	81828.4
-4.825	81821.4
-4.820	81843.4
-4.815	81851.4
-4.810	81856.4
-4.805	81846.4
-4.800	81854.4
-4.795	81853.3
-4.790	81860.3
-4.785	81834.3
-4.780	81834.3
-4.775	81850.3
-4.770	81879.3
-4.765	81876.3
-4.760	81867.3
-4.755	81853.3
-4.750	81877.2
-4.745	81886.2
-4.740	81908.2
-4.735	81902.2
-4.730	81890.2
-4.725	81892.2
-4.720	81868.2
-4.715	81857.2
-4.710	81887.2
-4.705	81902.2
-4.700	81901.2
-4.695	81909.2
-4.690	81916.1
-4.685	81926.1
-4.680	81921.1
-4.675	81919.1
-4.670	81937.1
-4.665	81923.1
-4.660	81930.1
-4.655	81912.1
-4.650	81878.1
-4.645	81899.1
-4.640	81923.0
-4.635	81931.0
-4.630	81934.0
-4.625	81954.0
-4.620	81944.0
-4.615	81927.0
-4.610	81918.0
-4.605	81914.0
-4.600	81913.0
-4.595	81917.0
-4.590	81922.0
-4.585	81876.0
-4.580	81861.0
-4.575	81867.0
-4.570	81884.0
-4.565	81877.0
-4.560	81884.0
-4.555	81871.0
-4.550	81876.0
-4.545	81872.0
-4.540	81869.0
-4.535	81882.0
-4.530	81900.0
-4.525	81900.0
-4.520	81864.0
-4.515	81845.0
-4.510	81856.0
-4.505	81884.9
-4.500	81892.9
-4.495	81895.9
-4.490	81895.9
-4.485	81891.9
-4.480	81904.9
-4.475	81904.9
-4.470	81896.9
-4.465	81893.9
-4.460	81884.9
-4.455	81876.9
-4.450	81873.9
-4.445	81888.9
-4.440	81912.9
-4.435	81898.9
-4.430	81888.9
-4.425	81879.9
-4.420	81879.9
-4.415	81873.9
-4.410	81881.9
-4.405	81890.9
-4.400	81901.8
-4.395	81891.8
-4.390	81888.8
-4.385	81841.9
-4.380	81832.9
-4.375	81843.9
-4.370	81862.8
-4.365	81852.9
-4.360	81864.8
-4.355	81857.8
-4.350	81872.8
-4.345	81858.8
-4.340	81851.8
-4.335	81853.8
-4.330	81863.8
-4.325	81863.8
-4.320	81842.8
-4.315	81830.8
-4.310	81860.8
-4.305	81884.8
-4.300	81886.8
-4.295	81872.8
-4.290	81872.8
-4.285	81868.8
-4.280	81871.8
-4.275	81881.8
-4.270	81882.7
-4.265	81889.7
-4.260	81901.7
-4.255	81882.7
-4.250	81858.8
-4.245	81864.8
-4.240	81894.7
-4.235	81901.7
-4.230	81904.7
-4.225	81890.7
-4.220	81889.7
-4.215	81891.7
-4.210	81894.7
-4.205	81880.7
-4.200	81863.7
-4.195	81869.7
-4.190	81869.7
-4.185	81833.7
-4.180	81842.7
-4.175	81851.7
-4.170	81862.7
-4.165	81845.7
-4.160	81842.7
-4.155	81834.7
-4.150	81846.6
-4.145	81830.6
-4.140	81811.5
-4.135	81808.4
-4.130	81802.2
-4.125	81788.0
-4.120	81751.8
-4.115	81730.5
-4.110	81713.1
-4.105	81690.6
-4.100	81656.2
-4.095	81595.7
-4.090	81558.1
-4.085	81507.5
-4.080	81456.9
-4.075	81426.3
-4.070	81395.7
-4.065	81344.1
-4.060	81272.5
-4.055	81220.1
-4.050	81251.7
-4.045	81312.5
-4.040	81385.5
-4.035	81407.7
-4.030	81465.1
-4.025	81512.5
-4.020	81579.9
-4.015	81667.2
-4.010	81775.5
-4.005	81821.8
-4.000	81808.0
-3.995	81849.2
-3.990	81856.4
-3.985	81806.6
-3.980	81765.8
-3.975	81768.0
-3.970	81814.0
-3.965	81840.1
-3.960	81855.2
-3.955	81867.3
-3.950	81854.4
-3.945	81832.5
-3.940	81842.6
-3.935	81866.6
-3.930	81864.7
-3.925	81822.8
-3.920	81759.9
-3.915	81747.0
-3.910	81745.0
-3.905	81723.1
-3.900	81734.1
-3.895	81715.2
-3.890	81672.3
-3.885	81667.3
-3.880	81699.3
-3.875	81693.4
-3.870	81663.4
-3.865	81635.5
-3.860	81637.5
-3.855	81621.6
-3.850	81599.6
-3.845	81589.7
-3.840	81622.7
-3.835	81625.7
-3.830	81636.8
-3.825	81625.8
-3.820	81649.8
-3.815	81662.8
-3.810	81673.9
-3.805	81662.9
-3.800	81671.9
-3.795	81680.9
-3.790	81675.0
-3.785	81665.0
-3.780	81688.0
-3.775	81725.0
-3.770	81741.0
-3.765	81750.0
-3.760	81748.1
-3.755	81769.1
-3.750	81762.1
-3.745	81751.1
-3.740	81752.1
-3.735	81759.2
-3.730	81759.2
-3.725	81749.2
-3.720	81728.2
-3.715	81721.3
-3.710	81720.3
-3.705	81732.3
-3.700	81742.3
-3.695	81735.3
-3.690	81738.3
-3.685	81740.3
-3.680	81751.3
-3.675	81761.4
-3.670	81772.4
-3.665	81764.4
-3.660	81774.4
-3.655	81747.4
-3.650	81745.4
-3.645	81758.4
-3.640	81773.4
-3.635	81761.4
-3.630	81756.5
-3.625	81756.5
-3.620	81765.5
-3.615	81762.5
-3.610	81785.5
-3.605	81807.5
-3.600	81818.5
-3.595	81782.6
-3.590	81733.6
-3.585	81692.7
-3.580	81719.7
-3.575	81772.7
-3.570	81785.7
-3.565	81765.8
-3.560	81745.8
-3.555	81736.9
-3.550	81730.0
-3.545	81721.0
-3.540	81736.1
-3.535	81788.1
-3.530	81884.1
-3.525	81900.2
-3.520	81842.3
-3.515	81816.4
-3.510	81867.4
-3.505	81890.4
-3.500	81886.5
-3.495	81865.6
-3.490	81835.7
-3.485	81828.7
-3.480	81815.8
-3.475	81800.8
-3.470	81820.8
-3.465	81840.8
-3.460	81864.8
-3.455	81830.9
-3.450	81806.9
-3.445	81792.9
-3.440	81830.9
-3.435	81831.9
-3.430	81843.9
-3.425	81846.9
-3.420	81892.9
-3.415	81895.9
-3.410	81859.9
-3.405	81781.0
-3.400	81759.1
-3.395	81829.1
-3.390	81907.2
-3.385	81906.2
-3.380	81880.4
-3.375	81841.5
-3.370	81838.6
-3.365	81859.7
-3.360	81899.8
-3.355	81901.9
-3.350	81869.0
-3.345	81811.1
-3.340	81790.2
-3.335	81769.2
-3.330	81768.1
-3.325	81779.1
-3.320	81758.0
-3.315	81759.0
-3.310	81776.9
-3.305	81791.9
-3.300	81800.9
-3.295	81814.8
-3.290	81798.8
-3.285	81791.8
-3.280	81783.8
-3.275	81787.8
-3.270	81797.8
-3.265	81788.8
-3.260	81785.8
-3.255	81759.8
-3.250	81758.8
-3.245	81769.8
-3.240	81798.8
-3.235	81795.8
-3.230	81791.8
-3.225	81783.8
-3.220	81780.9
-3.215	81757.9
-3.210	81767.9
-3.205	81773.9
-3.200	81794.9
-3.195	81797.9
-3.190	81794.9
-3.185	81759.9
-3.180	81765.0
-3.175	81782.0
-3.170	81792.0
-3.165	81780.0
-3.160	81794.0
-3.155	81783.0
-3.150	81805.0
-3.145	81811.0
-3.140	81816.0
-3.135	81822.0
-3.130	81815.0
-3.125	81811.0
-3.120	81784.0
-3.115	81774.1
-3.110	81795.1
-3.105	81790.1
-3.100	81783.1
-3.095	81777.1
-3.090	81776.1
-3.085	81773.1
-3.080	81798.1
-3.075	81805.1
-3.070	81805.1
-3.065	81813.1
-3.060	81815.1
-3.055	81774.2
-3.050	81759.2
-3.045	81775.2
-3.040	81812.2
-3.035	81789.2
-3.030	81800.2
-3.025	81791.2
-3.020	81781.2
-3.015	81783.2
-3.010	81791.2
-3.005	81796.2
-3.000	81799.2
-2.995	81806.3
-2.990	81795.3
-2.985	81760.3
-2.980	81771.3
-2.975	81783.3
-2.970	81787.3
-2.965	81783.3
-2.960	81774.3
-2.955	81782.3
-2.950	81803.3
-2.945	81793.3
-2.940	81797.4
-2.935	81790.4
-2.930	81778.4
-2.925	81771.4
-2.920	81745.4
-2.915	81744.4
-2.910	81772.4
-2.905	81818.4
-2.900	81806.4
-2.895	81793.4
-2.890	81783.5
-2.885	81782.5
-2.880	81800.5
-2.875	81813.5
-2.870	81836.5
-2.865	81828.5
-2.860	81816.5
-2.855	81784.6
-2.850	81751.6
-2.845	81743.6
-2.840	81757.6
-2.835	81757.6
-2.830	81757.6
-2.825	81740.6
-2.820	81743.6
-2.815	81729.6
-2.810	81722.6
-2.805	81722.6
-2.800	81737.6
-2.795	81720.6
-2.790	81698.6
-2.785	81664.7
-2.780	81672.7
-2.775	81714.6
-2.770	81720.7
-2.765	81689.7
-2.760	81657.7
-2.755	81613.8
-2.750	81631.8
-2.745	81641.8
-2.740	81663.7
-2.735	81664.8
-2.730	81685.7
-2.725	81676.8
-2.720	81638.8
-2.715	81623.8
-2.710	81637.8
-2.705	81671.8
-2.700	81708.8
-2.695	81749.7
-2.690	81780.7
-2.685	81786.7
-2.680	81795.7
-2.675	81806.8
-2.670	81806.8
-2.665	81794.8
-2.660	81772.8
-2.655	81726.9
-2.650	81725.9
-2.645	81731.9
-2.640	81759.9
-2.635	81763.9
-2.630	81772.9
-2.625	81777.9
-2.620	81765.9
-2.615	81768.9
-2.610	81758.9
-2.605	81754.9
-2.600	81752.9
-2.595	81761.8
-2.590	81745.8
-2.585	81714.9
-2.580	81743.8
-2.575	81787.8
-2.570	81777.8
-2.565	81763.8
-2.560	81761.9
-2.555	81751.9
-2.550	81769.9
-2.545	81773.9
-2.540	81767.9
-2.535	81749.9
-2.530	81742.9
-2.525	81731.9
-2.520	81708.0
-2.515	81704.0
-2.510	81704.0
-2.505	81720.0
-2.500	81723.0
-2.495	81730.0
-2.490	81743.9
-2.485	81745.9
-2.480	81752.9
-2.475	81744.9
-2.470	81731.9
-2.465	81709.0
-2.460	81710.0
-2.455	81695.0
-2.450	81725.9
-2.445	81749.9
-2.440	81762.9
-2.435	81742.9
-2.430	81733.0
-2.425	81718.0
-2.420	81707.0
-2.415	81703.0
-2.410	81727.0
-2.405	81766.0
-2.400	81774.0
-2.395	81776.0
-2.390	81771.0
-2.385	81735.0
-2.380	81744.1
-2.375	81771.0
-2.370	81770.1
-2.365	81760.1
-2.360	81763.1
-2.355	81761.1
-2.350	81778.0
-2.345	81778.0
-2.340	81787.0
-2.335	81779.0
-2.330	81769.0
-2.325	81761.0
-2.320	81747.0
-2.315	81760.0
-2.310	81790.0
-2.305	81789.0
-2.300	81780.0
-2.295	81787.0
-2.290	81809.0
-2.285	81796.0
-2.280	81804.0
-2.275	81792.0
-2.270	81788.0
-2.265	81805.0
-2.260	81813.0
-2.255	81796.0
-2.250	81791.0
-2.245	81808.0
-2.240	81842.0
-2.235	81839.0
-2.230	81844.0
-2.225	81834.0
-2.220	81839.0
-2.215	81843.0
-2.210	81859.0
-2.205	81841.0
-2.200	81847.0
-2.195	81831.0
-2.190	81812.0
-2.185	81784.0
-2.180	81809.0
-2.175	81823.0
-2.170	81832.0
-2.165	81824.0
-2.160	81826.0
-2.155	81822.0
-2.150	81830.0
-2.145	81822.0
-2.140	81823.0
-2.135	81832.0
-2.130	81833.0
-2.125	81843.0
-2.120	81830.0
-2.115	81845.0
-2.110	81882.0
-2.105	81882.0
-2.100	81863.0
-2.095	81844.0
-2.090	81840.1
-2.085	81825.1
-2.080	81817.1
-2.075	81802.1
-2.070	81805.1
-2.065	81781.1
-2.060	81779.1
-2.055	81760.1
-2.050	81758.1
-2.045	81780.0
-2.040	81805.0
-2.035	81803.0
-2.030	81801.0
-2.025	81809.0
-2.020	81813.0
-2.015	81811.0
-2.010	81821.0
-2.005	81822.0
-2.000	81823.0
-1.995	81811.0
-1.990	81785.0
-1.985	81752.0
-1.980	81742.1
-1.975	81765.0
-1.970	81761.0
-1.965	81755.0
-1.960	81773.0
-1.955	81789.0
-1.950	81791.0
-1.945	81766.0
-1.940	81750.1
-1.935	81736.1
-1.930	81728.1
-1.925	81731.1
-1.920	81694.1
-1.915	81684.1
-1.910	81691.1
-1.905	81681.1
-1.900	81670.1
-1.895	81658.1
-1.890	81656.1
-1.885	81653.1
-1.880	81658.1
-1.875	81648.1
-1.870	81636.1
-1.865	81624.1
-1.860	81631.1
-1.855	81591.1
-1.850	81584.1
-1.845	81593.1
-1.840	81628.1
-1.835	81624.1
-1.830	81641.0
-1.825	81642.0
-1.820	81654.0
-1.815	81648.0
-1.810	81655.0
-1.805	81655.0
-1.800	81669.0
-1.795	81653.0
-1.790	81645.0
-1.785	81617.1
-1.780	81634.0
-1.775	81649.0
-1.770	81670.0
-1.765	81675.0
-1.760	81679.0
-1.755	81682.0
-1.750	81679.0
-1.745	81661.0
-1.740	81651.0
-1.735	81634.0
-1.730	81633.0
-1.725	81629.0
-1.720	81620.0
-1.715	81641.0
-1.710	81675.0
-1.705	81687.0
-1.700	81699.9
-1.695	81708.9
-1.690	81699.0
-1.685	81695.0
-1.680	81694.0
-1.675	81700.0
-1.670	81713.9
-1.665	81721.9
-1.660	81716.9
-1.655	81682.9
-1.650	81677.9
-1.645	81690.9
-1.640	81719.9
-1.635	81717.9
-1.630	81722.9
-1.625	81714.9
-1.620	81708.9
-1.615	81725.9
-1.610	81743.8
-1.605	81749.8
-1.600	81755.8
-1.595	81758.8
-1.590	81743.8
-1.585	81721.9
-1.580	81729.9
-1.575	81747.9
-1.570	81745.9
-1.565	81744.9
-1.560	81755.9
-1.555	81737.9
-1.550	81744.9
-1.545	81747.9
-1.540	81757.8
-1.535	81741.8
-1.530	81749.8
-1.525	81731.8
-1.520	81720.8
-1.515	81723.8
-1.510	81753.8
-1.505	81750.8
-1.500	81729.8
-1.495	81729.8
-1.490	81730.8
-1.485	81731.8
-1.480	81748.7
-1.475	81753.7
-1.470	81764.7
-1.465	81755.7
-1.460	81764.7
-1.455	81735.7
-1.450	81740.7
-1.445	81770.6
-1.440	81799.6
-1.435	81793.6
-1.430	81783.6
-1.425	81773.6
-1.420	81763.6
-1.415	81751.6
-1.410	81744.6
-1.405	81739.6
-1.400	81725.6
-1.395	81714.6
-1.390	81696.6
-1.385	81671.6
-1.380	81701.6
-1.375	81707.6
-1.370	81704.6
-1.365	81674.7
-1.360	81667.7
-1.355	81660.7
-1.350	81660.7
-1.345	81651.7
-1.340	81637.7
-1.335	81638.7
-1.330	81629.7
-1.325	81608.7
-1.320	81552.7
-1.315	81555.7
-1.310	81561.7
-1.305	81556.7
-1.300	81556.7
-1.295	81535.7
-1.290	81532.7
-1.285	81526.7
-1.280	81521.7
-1.275	81522.7
-1.270	81511.7
-1.265	81504.7
-1.260	81516.7
-1.255	81485.7
-1.250	81478.7
-1.245	81496.7
-1.240	81492.7
-1.235	81485.7
-1.230	81473.7
-1.225	81461.7
-1.220	81450.7
-1.215	81429.7
-1.210	81431.7
-1.205	81436.7
-1.200	81442.7
-1.195	81449.7
-1.190	81434.7
-1.185	81406.7
-1.180	81439.6
-1.175	81475.6
-1.170	81476.6
-1.165	81472.6
-1.160	81469.6
-1.155	81469.6
-1.150	81490.6
-1.145	81496.6
-1.140	81501.6
-1.135	81488.6
-1.130	81480.6
-1.125	81468.6
-1.120	81454.6
-1.115	81474.6
-1.110	81512.5
-1.105	81512.5
-1.100	81510.5
-1.095	81503.5
-1.090	81513.5
-1.085	81512.5
-1.080	81534.5
-1.075	81559.5
-1.070	81583.5
-1.065	81597.4
-1.060	81617.4
-1.055	81589.5
-1.050	81577.5
-1.045	81597.4
-1.040	81616.4
-1.035	81622.4
-1.030	81618.4
-1.025	81636.4
-1.020	81655.4
-1.015	81659.3
-1.010	81675.3
-1.005	81677.3
-1.000	81703.3
-0.995	81702.3
-0.990	81686.3
-0.985	81671.3
-0.980	81701.3
-0.975	81725.2
-0.970	81735.2
-0.965	81732.2
-0.960	81743.2
-0.955	81742.2
-0.950	81745.2
-0.945	81758.2
-0.940	81777.2
-0.935	81777.2
-0.930	81786.1
-0.925	81777.1
-0.920	81756.2
-0.915	81754.2
-0.910	81790.1
-0.905	81791.1
-0.900	81802.1
-0.895	81791.1
-0.890	81771.1
-0.885	81758.1
-0.880	81761.1
-0.875	81747.1
-0.870	81750.1
-0.865	81752.1
-0.860	81756.0
-0.855	81732.0
-0.850	81757.0
-0.845	81789.0
-0.840	81808.0
-0.835	81800.0
-0.830	81792.0
-0.825	81754.0
-0.820	81736.0
-0.815	81703.0
-0.810	81695.0
-0.805	81688.0
-0.800	81691.0
-0.795	81682.0
-0.790	81654.0
-0.785	81636.0
-0.780	81652.0
-0.775	81673.9
-0.770	81660.9
-0.765	81650.0
-0.760	81651.9
-0.755	81652.9
-0.750	81661.9
-0.745	81648.0
-0.740	81654.9
-0.735	81655.0
-0.730	81651.0
-0.725	81643.0
-0.720	81622.0
-0.715	81623.0
-0.710	81655.9
-0.705	81645.0
-0.700	81638.0
-0.695	81638.9
-0.690	81647.9
-0.685	81651.9
-0.680	81659.9
-0.675	81669.9
-0.670	81662.9
-0.665	81655.9
-0.660	81654.9
-0.655	81612.9
-0.650	81616.9
-0.645	81623.9
-0.640	81633.9
-0.635	81642.8
-0.630	81649.8
-0.625	81640.8
-0.620	81645.8
-0.615	81659.8
-0.610	81663.8
-0.605	81673.8
-0.600	81671.7
-0.595	81687.7
-0.590	81666.7
-0.585	81664.7
-0.580	81674.7
-0.575	81686.7
-0.570	81668.7
-0.565	81646.7
-0.560	81646.7
-0.555	81653.7
-0.550	81667.7
-0.545	81692.7
-0.540	81702.7
-0.535	81712.6
-0.530	81708.6
-0.525	81675.7
-0.520	81642.7
-0.515	81619.7
-0.510	81634.7
-0.505	81624.7
-0.500	81628.7
-0.495	81620.7
-0.490	81624.7
-0.485	81625.7
-0.480	81624.7
-0.475	81634.6
-0.470	81644.6
-0.465	81633.6
-0.460	81653.6
-0.455	81616.6
-0.450	81636.6
-0.445	81666.6
-0.440	81690.6
-0.435	81692.5
-0.430	81703.5
-0.425	81698.5
-0.420	81699.5
-0.415	81698.5
-0.410	81685.5
-0.405	81695.5
-0.400	81687.5
-0.395	81697.5
-0.390	81672.5
-0.385	81658.5
-0.380	81669.5
-0.375	81688.4
-0.370	81703.4
-0.365	81690.4
-0.360	81693.4
-0.355	81669.4
-0.350	81675.4
-0.345	81693.4
-0.340	81717.4
-0.335	81717.4
-0.330	81723.3
-0.325	81706.4
-0.320	81680.4
-0.315	81700.4
-0.310	81754.3
-0.305	81753.3
-0.300	81743.3
-0.295	81717.3
-0.290	81710.3
-0.285	81684.3
-0.280	81698.3
-0.275	81700.3
-0.270	81715.3
-0.265	81718.3
-0.260	81717.3
-0.255	81670.3
-0.250	81666.3
-0.245	81690.3
-0.240	81705.2
-0.235	81715.2
-0.230	81724.2
-0.225	81725.2
-0.220	81733.2
-0.215	81744.2
-0.210	81763.1
-0.205	81778.1
-0.200	81783.1
-0.195	81765.1
-0.190	81728.1
-0.185	81728.1
-0.180	81729.1
-0.175	81731.1
-0.170	81724.1
-0.165	81724.1
-0.160	81733.1
-0.155	81720.1
-0.150	81739.1
-0.145	81756.1
-0.140	81750.1
-0.135	81746.1
-0.130	81718.2
-0.125	81687.2
-0.120	81685.2
-0.115	81711.2
-0.110	81753.2
-0.105	81760.2
-0.100	81763.2
-0.095	81751.1
-0.090	81747.1
-0.085	81743.1
-0.080	81751.0
-0.075	81744.9
-0.070	81718.8
-0.065	81671.8
-0.060	81640.7
-0.055	81563.7
-0.050	81512.6
-0.045	81551.6
-0.040	81647.5
-0.035	81713.5
-0.030	81714.5
-0.025	81708.7
-0.020	81733.8
-0.015	81751.9
-0.010	81698.1
-0.005	81653.4
0.000	81721.5
0.005	81787.5
0.010	81746.6
0.015	81673.6
0.020	81620.6
0.025	81607.5
0.030	81586.3
0.035	81591.1
0.040	81608.9
0.045	81654.8
0.050	81713.6
0.055	81750.4
0.060	81762.4
0.065	81757.3
0.070	81749.4
0.075	81700.4
0.080	81660.5
0.085	81668.5
0.090	81701.6
0.095	81699.6
0.100	81682.7
0.105	81693.7
0.110	81722.6
0.115	81729.6
0.120	81720.7
0.125	81705.7
0.130	81697.7
0.135	81697.7
0.140	81703.7
0.145	81679.7
0.150	81702.7
0.155	81736.6
0.160	81758.6
0.165	81707.7
0.170	81671.7
0.175	81624.7
0.180	81605.7
0.185	81622.7
0.190	81666.7
0.195	81692.6
0.200	81717.6
0.205	81726.6
0.210	81682.6
0.215	81673.6
0.220	81679.6
0.225	81673.6
0.230	81656.6
0.235	81630.6
0.240	81610.7
0.245	81612.6
0.250	81637.6
0.255	81642.6
0.260	81676.6
0.265	81685.5
0.270	81689.5
0.275	81685.5
0.280	81683.5
0.285	81698.5
0.290	81752.4
0.295	81766.4
0.300	81752.4
0.305	81715.4
0.310	81679.5
0.315	81647.5
0.320	81655.5
0.325	81673.4
0.330	81701.4
0.335	81709.4
0.340	81720.4
0.345	81690.4
0.350	81716.3
0.355	81737.3
0.360	81734.3
0.365	81698.3
0.370	81673.3
0.375	81663.3
0.380	81648.3
0.385	81626.4
0.390	81642.3
0.395	81652.3
0.400	81669.3
0.405	81695.3
0.410	81700.3
0.415	81709.2
0.420	81748.2
0.425	81773.2
0.430	81773.2
0.435	81764.2
0.440	81755.2
0.445	81746.2
0.450	81736.2
0.455	81722.2
0.460	81732.2
0.465	81729.2
0.470	81712.2
0.475	81710.2
0.480	81701.2
0.485	81710.2
0.490	81727.2
0.495	81730.2
0.500	81728.2
0.505	81738.1
0.510	81731.1
0.515	81716.2
0.520	81712.1
0.525	81717.1
0.530	81720.1
0.535	81720.1
0.540	81731.1
0.545	81690.1
0.550	81705.1
0.555	81719.1
0.560	81725.1
0.565	81706.1
0.570	81696.1
0.575	81681.1
0.580	81696.1
0.585	81711.0
0.590	81718.0
0.595	81718.0
0.600	81713.0
0.605	81720.0
0.610	81696.0
0.615	81690.0
0.620	81722.0
0.625	81718.0
0.630	81708.0
0.635	81715.0
0.640	81708.0
0.645	81701.0
0.650	81702.0
0.655	81691.0
0.660	81695.0
0.665	81697.0
0.670	81696.0
0.675	81668.0
0.680	81651.0
0.685	81683.0
0.690	81720.9
0.695	81716.9
0.700	81732.9
0.705	81702.9
0.710	81717.9
0.715	81722.9
0.720	81715.9
0.725	81713.9
0.730	81712.9
0.735	81693.9
0.740	81686.9
0.745	81663.9
0.750	81680.9
0.755	81701.9
0.760	81703.9
0.765	81694.9
0.770	81694.8
0.775	81683.8
0.780	81684.8
0.785	81695.8
0.790	81691.8
0.795	81686.8
0.800	81694.8
0.805	81681.8
0.810	81663.8
0.815	81643.8
0.820	81665.7
0.825	81681.7
0.830	81693.7
0.835	81682.7
0.840	81687.7
0.845	81678.7
0.850	81691.6
0.855	81692.6
0.860	81696.6
0.865	81704.6
0.870	81690.6
0.875	81676.6
0.880	81665.6
0.885	81655.6
0.890	81676.6
0.895	81664.6
0.900	81663.6
0.905	81642.6
0.910	81638.6
0.915	81633.6
0.920	81640.6
0.925	81649.6
0.930	81650.6
0.935	81653.6
0.940	81632.6
0.945	81598.7
0.950	81595.7
0.955	81608.7
0.960	81615.6
0.965	81608.6
0.970	81612.6
0.975	81601.6
0.980	81592.6
0.985	81594.6
0.990	81600.6
0.995	81604.6
1.000	81609.6
1.005	81607.6
1.010	81572.6
1.015	81578.6
1.020	81614.6
1.025	81625.5
1.030	81624.5
1.035	81607.5
1.040	81605.5
1.045	81590.5
1.050	81593.5
1.055	81580.5
1.060	81593.5
1.065	81579.5
1.070	81588.5
1.075	81553.5
1.080	81551.5
1.085	81550.5
1.090	81590.5
1.095	81582.5
1.100	81585.4
1.105	81585.4
1.110	81580.4
1.115	81570.4
1.120	81581.4
1.125	81585.4
1.130	81582.4
1.135	81588.4
1.140	81572.4
1.145	81562.4
1.150	81570.4
1.155	81591.4
1.160	81604.4
1.165	81582.4
1.170	81566.4
1.175	81556.4
1.180	81544.4
1.185	81558.4
1.190	81572.4
1.195	81586.4
1.200	81604.3
1.205	81605.3
1.210	81581.4
1.215	81581.4
1.220	81604.4
1.225	81626.4
1.230	81622.4
1.235	81631.4
1.240	81648.4
1.245	81657.4
1.250	81662.4
1.255	81666.3
1.260	81690.3
1.265	81690.3
1.270	81696.3
1.275	81649.3
1.280	81629.3
1.285	81636.3
1.290	81648.3
1.295	81653.3
1.300	81661.2
1.305	81676.2
1.310	81676.2
1.315	81675.2
1.320	81670.2
1.325	81674.2
1.330	81679.2
1.335	81695.2
1.340	81691.2
1.345	81684.2
1.350	81689.1
1.355	81720.1
1.360	81722.1
1.365	81717.1
1.370	81722.1
1.375	81694.1
1.380	81710.1
1.385	81709.1
1.390	81728.1
1.395	81743.1
1.400	81731.1
1.405	81729.1
1.410	81707.1
1.415	81711.1
1.420	81723.1
1.425	81728.1
1.430	81708.1
1.435	81692.1
1.440	81691.1
1.445	81683.1
1.450	81684.1
1.455	81693.1
1.460	81708.1
1.465	81717.1
1.470	81717.1
1.475	81684.1
1.480	81658.1
1.485	81672.1
1.490	81711.0
1.495	81702.0
1.500	81724.0
1.505	81725.0
1.510	81718.0
1.515	81709.0
1.520	81713.0
1.525	81701.0
1.530	81714.9
1.535	81717.9
1.540	81729.9
1.545	81706.9
1.550	81734.9
1.555	81750.9
1.560	81748.9
1.565	81736.9
1.570	81739.8
1.575	81736.8
1.580	81751.8
1.585	81741.8
1.590	81721.8
1.595	81712.8
1.600	81714.8
1.605	81717.8
1.610	81695.9
1.615	81706.8
1.620	81743.8
1.625	81753.8
1.630	81756.8
1.635	81754.8
1.640	81765.8
1.645	81778.8
1.650	81801.8
1.655	81791.8
1.660	81786.8
1.665	81761.8
1.670	81732.9
1.675	81694.9
1.680	81717.9
1.685	81766.9
1.690	81811.8
1.695	81814.8
1.700	81810.8
1.705	81804.8
1.710	81801.8
1.715	81790.8
1.720	81812.8
1.725	81807.8
1.730	81803.8
1.735	81808.7
1.740	81770.8
1.745	81746.8
1.750	81744.8
1.755	81759.7
1.760	81777.7
1.765	81783.7
1.770	81802.7
1.775	81787.7
1.780	81793.7
1.785	81783.7
1.790	81764.7
1.795	81752.7
1.800	81755.7
1.805	81748.7
1.810	81727.8
1.815	81742.8
1.820	81769.7
1.825	81765.7
1.830	81760.7
1.835	81761.7
1.840	81765.7
1.845	81740.7
1.850	81723.8
1.855	81717.8
1.860	81705.8
1.865	81719.8
1.870	81723.8
1.875	81700.8
1.880	81717.8
1.885	81734.8
1.890	81747.8
1.895	81748.7
1.900	81764.7
1.905	81772.7
1.910	81773.7
1.915	81761.7
1.920	81750.7
1.925	81745.7
1.930	81770.7
1.935	81758.7
1.940	81721.7
1.945	81697.7
1.950	81697.7
1.955	81719.7
1.960	81734.7
1.965	81723.7
1.970	81732.7
1.975	81748.7
1.980	81751.7
1.985	81740.7
1.990	81733.7
1.995	81705.7
2.000	81700.7
2.005	81672.7
2.010	81655.7
2.015	81636.7
2.020	81657.7
2.025	81667.7
2.030	81662.7
2.035	81664.7
2.040	81682.7
2.045	81691.7
2.050	81707.7
2.055	81710.7
2.060	81705.7
2.065	81691.7
2.070	81678.7
2.075	81648.7
2.080	81638.7
2.085	81632.7
2.090	81651.7
2.095	81631.8
2.100	81627.8
2.105	81620.8
2.110	81615.8
2.115	81609.8
2.120	81614.8
2.125	81630.8
2.130	81651.8
2.135	81670.8
2.140	81644.8
2.145	81623.8
2.150	81635.8
2.155	81646.8
2.160	81663.8
2.165	81678.7
2.170	81651.8
2.175	81621.8
2.180	81629.8
2.185	81637.8
2.190	81656.8
2.195	81639.8
2.200	81628.8
2.205	81630.8
2.210	81603.8
2.215	81613.8
2.220	81664.8
2.225	81658.8
2.230	81630.8
2.235	81610.8
2.240	81597.8
2.245	81606.8
2.250	81632.8
2.255	81632.8
2.260	81632.8
2.265	81621.8
2.270	81607.8
2.275	81569.8
2.280	81591.8
2.285	81615.8
2.290	81649.7
2.295	81636.7
2.300	81611.8
2.305	81611.8
2.310	81629.7
2.315	81634.7
2.320	81645.7
2.325	81624.7
2.330	81631.7
2.335	81637.7
2.340	81623.8
2.345	81622.8
2.350	81622.8
2.355	81635.8
2.360	81640.8
2.365	81629.8
2.370	81607.8
2.375	81585.9
2.380	81568.9
2.385	81564.9
2.390	81568.9
2.395	81584.9
2.400	81607.9
2.405	81594.9
2.410	81587.9
2.415	81595.9
2.420	81633.9
2.425	81647.8
2.430	81658.8
2.435	81651.8
2.440	81660.8
2.445	81635.8
2.450	81628.8
2.455	81621.9
2.460	81630.9
2.465	81630.9
2.470	81625.9
2.475	81594.9
2.480	81591.9
2.485	81602.9
2.490	81604.9
2.495	81559.0
2.500	81554.0
2.505	81557.0
2.510	81561.0
2.515	81543.0
2.520	81544.0
2.525	81567.0
2.530	81598.0
2.535	81603.0
2.540	81587.0
2.545	81562.0
2.550	81581.0
2.555	81617.9
2.560	81631.9
2.565	81607.9
2.570	81579.0
2.575	81571.0
2.580	81572.0
2.585	81584.0
2.590	81611.0
2.595	81631.0
2.600	81637.0
2.605	81594.0
2.610	81557.0
2.615	81547.0
2.620	81559.0
2.625	81532.0
2.630	81529.0
2.635	81530.1
2.640	81537.1
2.645	81554.1
2.650	81545.1
2.655	81552.1
2.660	81540.1
2.665	81533.1
2.670	81533.1
2.675	81501.1
2.680	81494.1
2.685	81514.1
2.690	81571.1
2.695	81578.1
2.700	81604.1
2.705	81578.1
2.710	81581.1
2.715	81575.1
2.720	81585.1
2.725	81590.1
2.730	81568.2
2.735	81549.2
2.740	81540.2
2.745	81566.2
2.750	81589.2
2.755	81584.2
2.760	81570.3
2.765	81598.3
2.770	81606.3
2.775	81594.3
2.780	81581.3
2.785	81577.3
2.790	81581.3
2.795	81578.3
2.800	81598.3
2.805	81611.2
2.810	81607.3
2.815	81602.3
2.820	81622.2
2.825	81619.2
2.830	81610.2
2.835	81605.3
2.840	81589.3
2.845	81588.3
2.850	81599.3
2.855	81591.3
2.860	81600.3
2.865	81585.3
2.870	81581.3
2.875	81566.4
2.880	81601.4
2.885	81602.4
2.890	81617.4
2.895	81613.4
2.900	81625.4
2.905	81625.4
2.910	81636.4
2.915	81622.4
2.920	81616.4
2.925	81595.4
2.930	81580.5
2.935	81572.5
2.940	81560.5
2.945	81555.5
2.950	81586.5
2.955	81621.5
2.960	81646.5
2.965	81652.5
2.970	81653.5
2.975	81653.5
2.980	81661.5
2.985	81661.5
2.990	81645.5
2.995	81630.6
3.000	81642.6
3.005	81642.6
3.010	81630.6
3.015	81649.6
3.020	81681.6
3.025	81672.6
3.030	81666.6
3.035	81665.6
3.040	81656.6
3.045	81672.6
3.050	81696.6
3.055	81703.6
3.060	81695.6
3.065	81676.7
3.070	81657.7
3.075	81607.7
3.080	81612.7
3.085	81628.7
3.090	81660.7
3.095	81670.7
3.100	81686.7
3.105	81684.7
3.110	81702.7
3.115	81697.7
3.120	81698.7
3.125	81694.7
3.130	81698.7
3.135	81707.7
3.140	81683.8
3.145	81679.8
3.150	81695.8
3.155	81686.8
3.160	81691.8
3.165	81684.8
3.170	81695.8
3.175	81722.8
3.180	81756.8
3.185	81770.8
3.190	81783.8
3.195	81785.8
3.200	81788.8
3.205	81778.8
3.210	81756.9
3.215	81763.9
3.220	81768.9
3.225	81774.9
3.230	81786.9
3.235	81778.9
3.240	81784.9
3.245	81802.9
3.250	81792.9
3.255	81774.9
3.260	81763.9
3.265	81760.9
3.270	81766.9
3.275	81721.9
3.280	81708.9
3.285	81726.9
3.290	81740.9
3.295	81743.8
3.300	81755.8
3.305	81752.8
3.310	81738.8
3.315	81761.7
3.320	81790.7
3.325	81800.6
3.330	81780.7
3.335	81712.7
3.340	81617.8
3.345	81589.9
3.350	81660.8
3.355	81744.8
3.360	81782.9
3.365	81793.9
3.370	81797.0
3.375	81773.2
3.380	81711.3
3.385	81634.6
3.390	81656.7
3.395	81766.7
3.400	81820.7
3.405	81782.8
3.410	81738.9
3.415	81738.9
3.420	81764.8
3.425	81774.8
3.430	81767.8
3.435	81748.8
3.440	81752.8
3.445	81751.8
3.450	81752.8
3.455	81750.8
3.460	81752.9
3.465	81750.9
3.470	81763.9
3.475	81734.0
3.480	81726.0
3.485	81745.1
3.490	81773.1
3.495	81780.2
3.500	81796.2
3.505	81804.3
3.510	81805.3
3.515	81796.4
3.520	81795.5
3.525	81782.6
3.530	81774.6
3.535	81771.7
3.540	81735.8
3.545	81724.9
3.550	81748.9
3.555	81766.9
3.560	81746.0
3.565	81722.0
3.570	81711.1
3.575	81687.1
3.580	81671.2
3.585	81630.2
3.590	81599.3
3.595	81560.3
3.600	81547.3
3.605	81504.4
3.610	81471.4
3.615	81472.4
3.620	81510.4
3.625	81498.4
3.630	81482.5
3.635	81484.5
3.640	81492.5
3.645	81500.5
3.650	81514.5
3.655	81533.5
3.660	81549.5
3.665	81576.5
3.670	81578.5
3.675	81566.5
3.680	81579.5
3.685	81622.5
3.690	81632.5
3.695	81635.5
3.700	81641.5
3.705	81658.6
3.710	81670.6
3.715	81676.6
3.720	81689.6
3.725	81683.6
3.730	81681.6
3.735	81697.6
3.740	81680.7
3.745	81667.7
3.750	81693.7
3.755	81727.7
3.760	81733.7
3.765	81726.7
3.770	81733.8
3.775	81741.8
3.780	81735.8
3.785	81734.8
3.790	81756.8
3.795	81752.9
3.800	81746.9
3.805	81730.9
3.810	81742.0
3.815	81756.0
3.820	81796.0
3.825	81780.0
3.830	81784.1
3.835	81771.1
3.840	81776.1
3.845	81784.2
3.850	81791.2
3.855	81791.2
3.860	81775.3
3.865	81760.3
3.870	81740.4
3.875	81688.5
3.880	81678.5
3.885	81693.6
3.890	81685.6
3.895	81668.7
3.900	81654.7
3.905	81632.8
3.910	81629.9
3.915	81601.9
3.920	81580.0
3.925	81556.1
3.930	81537.2
3.935	81513.3
3.940	81441.4
3.945	81395.5
3.950	81393.6
3.955	81412.7
3.960	81395.8
3.965	81444.9
3.970	81365.0
3.975	80879.5
3.980	80519.9
3.985	80650.0
3.990	81048.0
3.995	81260.0
4.000	81406.2
4.005	81436.4
4.010	81278.8
4.015	81002.3
4.020	80909.7
4.025	80988.9
4.030	81105.0
4.035	81078.2
4.040	81010.4
4.045	80942.4
4.050	80927.4
4.055	80891.3
4.060	80859.1
4.065	80818.8
4.070	80824.3
4.075	80866.7
4.080	80951.0
4.085	81061.1
4.090	81172.1
4.095	81275.2
4.100	81387.3
4.105	81464.6
4.110	81520.1
4.115	81554.7
4.120	81564.5
4.125	81564.4
4.130	81571.3
4.135	81575.2
4.140	81533.2
4.145	81523.2
4.150	81555.1
4.155	81587.1
4.160	81583.1
4.165	81581.1
4.170	81586.1
4.175	81577.0
4.180	81575.0
4.185	81580.0
4.190	81597.0
4.195	81585.0
4.200	81573.0
4.205	81540.0
4.210	81525.0
4.215	81537.0
4.220	81545.0
4.225	81543.0
4.230	81523.1
4.235	81514.1
4.240	81534.1
4.245	81532.1
4.250	81548.0
4.255	81544.0
4.260	81542.0
4.265	81525.1
4.270	81513.1
4.275	81487.1
4.280	81501.0
4.285	81534.0
4.290	81553.0
4.295	81543.0
4.300	81545.0
4.305	81541.0
4.310	81547.0
4.315	81538.0
4.320	81536.0
4.325	81533.0
4.330	81549.0
4.335	81555.0
4.340	81540.0
4.345	81545.0
4.350	81568.9
4.355	81578.9
4.360	81564.9
4.365	81541.0
4.370	81537.9
4.375	81535.9
4.380	81550.9
4.385	81558.9
4.390	81583.9
4.395	81601.9
4.400	81613.9
4.405	81594.9
4.410	81570.9
4.415	81553.9
4.420	81585.9
4.425	81577.9
4.430	81588.9
4.435	81588.9
4.440	81592.9
4.445	81592.9
4.450	81596.8
4.455	81597.8
4.460	81595.8
4.465	81601.8
4.470	81601.8
4.475	81587.8
4.480	81603.8
4.485	81619.8
4.490	81630.8
4.495	81628.8
4.500	81633.8
4.505	81621.8
4.510	81635.8
4.515	81613.8
4.520	81626.8
4.525	81622.7
4.530	81623.7
4.535	81610.7
4.540	81606.7
4.545	81607.7
4.550	81618.7
4.555	81634.7
4.560	81633.7
4.565	81639.7
4.570	81633.7
4.575	81637.7
4.580	81638.7
4.585	81636.7
4.590	81641.7
4.595	81631.7
4.600	81641.7
4.605	81622.7
4.610	81607.7
4.615	81592.7
4.620	81614.7
4.625	81631.7
4.630	81635.7
4.635	81646.6
4.640	81637.6
4.645	81635.6
4.650	81640.6
4.655	81640.6
4.660	81646.6
4.665	81646.6
4.670	81634.6
4.675	81606.6
4.680	81633.5
4.685	81651.5
4.690	81657.5
4.695	81646.5
4.700	81658.5
4.705	81643.5
4.710	81642.5
4.715	81630.5
4.720	81644.5
4.725	81651.5
4.730	81646.5
4.735	81642.5
4.740	81598.5
4.745	81608.5
4.750	81620.5
4.755	81630.5
4.760	81623.5
4.765	81613.5
4.770	81604.5
4.775	81584.5
4.780	81593.5
4.785	81613.4
4.790	81614.4
4.795	81603.4
4.800	81627.4
4.805	81583.4
4.810	81569.4
4.815	81563.4
4.820	81604.4
4.825	81603.4
4.830	81601.4
4.835	81589.4
4.840	81573.4
4.845	81558.4
4.850	81561.4
4.855	81559.3
4.860	81563.3
4.865	81555.3
4.870	81527.4
4.875	81477.4
4.880	81449.4
4.885	81447.4
4.890	81447.4
4.895	81416.4
4.900	81406.4
4.905	81380.4
4.910	81349.4
4.915	81320.4
4.920	81304.4
4.925	81303.4
4.930	81309.4
4.935	81301.4
4.940	81265.4
4.945	81270.4
4.950	81306.4
4.955	81336.4
4.960	81336.3
4.965	81315.3
4.970	81322.3
4.975	81312.3
4.980	81328.3
4.985	81339.2
4.990	81356.2
4.995	81361.2
5.000	81378.2
5.005	81345.2
5.010	81331.2
5.015	81365.1
5.020	81396.1
5.025	81405.0
5.030	81416.0
5.035	81411.0
5.040	81427.0
5.045	81424.0
5.050	81433.9
5.055	81464.9
5.060	81506.8
5.065	81552.8
5.070	81570.7
5.075	81521.8
5.080	81479.8
5.085	81470.8
5.090	81478.7
5.095	81493.7
5.100	81518.7
5.105	81521.7
5.110	81533.6
5.115	81555.6
5.120	81599.5
5.125	81632.5
5.130	81632.4
5.135	81614.4
5.140	81554.4
5.145	81557.4
5.150	81607.3
5.155	81607.3
5.160	81599.3
5.165	81591.2
5.170	81625.2
5.175	81633.1
5.180	81619.1
5.185	81621.0
5.190	81646.0
5.195	81645.9
5.200	81633.9
5.205	81597.8
5.210	81600.8
5.215	81614.7
5.220	81659.6
5.225	81669.5
5.230	81673.5
5.235	81657.4
5.240	81673.3
5.245	81671.3
5.250	81660.2
5.255	81662.1
5.260	81638.1
5.265	81619.0
5.270	81606.9
5.275	81565.8
5.280	81547.7
5.285	81572.5
5.290	81557.4
5.295	81518.3
5.300	81515.1
5.305	81473.9
5.310	81435.6
5.315	81367.4
5.320	81326.2
5.325	81223.9
5.330	81143.8
5.335	81048.6
5.340	80909.6
5.345	80829.5
5.350	80747.5
5.355	80671.6
5.360	80631.8
5.365	80584.0
5.370	80554.3
5.375	80560.8
5.380	80616.3
5.385	80651.8
5.390	80659.5
5.395	80665.4
5.400	80732.3
5.405	80775.2
5.410	80852.8
5.415	80936.1
5.420	81052.3
5.425	81104.4
5.430	81137.4
5.435	81143.4
5.440	81149.4
5.445	81185.4
5.450	81219.4
5.455	81244.4
5.460	81269.4
5.465	81289.4
5.470	81284.4
5.475	81273.4
5.480	81313.3
5.485	81352.3
5.490	81382.3
5.495	81406.3
5.500	81435.2
5.505	81459.2
5.510	81482.2
5.515	81514.2
5.520	81530.2
5.525	81553.2
5.530	81568.1
5.535	81575.1
5.540	81554.1
5.545	81574.1
5.550	81625.1
5.555	81641.1
5.560	81646.1
5.565	81651.1
5.570	81662.1
5.575	81665.1
5.580	81669.1
5.585	81685.0
5.590	81690.0
5.595	81690.0
5.600	81706.0
5.605	81670.1
5.610	81673.1
5.615	81683.1
5.620	81721.0
5.625	81725.0
5.630	81730.0
5.635	81725.0
5.640	81726.0
5.645	81731.1
5.650	81736.1
5.655	81731.1
5.660	81740.1
5.665	81741.1
5.670	81718.1
5.675	81696.2
5.680	81724.1
5.685	81741.1
5.690	81751.2
5.695	81735.2
5.700	81734.2
5.705	81726.2
5.710	81733.2
5.715	81717.2
5.720	81713.2
5.725	81718.2
5.730	81701.2
5.735	81687.2
5.740	81647.2
5.745	81635.2
5.750	81651.2
5.755	81642.2
5.760	81632.2
5.765	81615.2
5.770	81610.2
5.775	81580.2
5.780	81567.2
5.785	81562.2
5.790	81544.2
5.795	81518.2
5.800	81499.2
5.805	81437.3
5.810	81423.3
5.815	81410.3
5.820	81423.3
5.825	81409.3
5.830	81388.3
5.835	81365.3
5.840	81373.3
5.845	81368.3
5.850	81388.3
5.855	81394.3
5.860	81407.3
5.865	81435.3
5.870	81431.3
5.875	81435.3
5.880	81490.2
5.885	81549.2
5.890	81576.2
5.895	81605.1
5.900	81618.1
5.905	81626.1
5.910	81647.1
5.915	81657.1
5.920	81670.1
5.925	81678.1
5.930	81688.1
5.935	81680.1
5.940	81652.1
5.945	81662.1
5.950	81686.1
5.955	81701.1
5.960	81688.1
5.965	81683.1
5.970	81696.1
5.975	81684.1
5.980	81697.1
5.985	81689.1
5.990	81695.1
5.995	81690.1
6.000	81703.1
6.005	81656.1
6.010	81656.1
6.015	81667.1
6.020	81694.1
6.025	81688.1
6.030	81682.1
6.035	81670.1
6.040	81679.1
6.045	81678.1
6.050	81682.1
6.055	81676.1
6.060	81670.1
6.065	81673.1
6.070	81655.1
6.075	81642.1
6.080	81651.1
6.085	81677.1
6.090	81675.1
6.095	81648.1
6.100	81643.1
6.105	81647.1
6.110	81638.1
6.115	81635.1
6.120	81662.1
6.125	81657.1
6.130	81669.1
6.135	81653.1
6.140	81637.1
6.145	81641.1
6.150	81654.1
6.155	81650.1
6.160	81648.1
6.165	81652.1
6.170	81645.1
6.175	81636.1
6.180	81636.1
6.185	81628.1
6.190	81634.1
6.195	81618.2
6.200	81613.2
6.205	81563.2
6.210	81568.2
6.215	81577.2
6.220	81571.2
6.225	81563.2
6.230	81545.2
6.235	81528.2
6.240	81526.2
6.245	81535.2
6.250	81535.2
6.255	81533.2
6.260	81527.2
6.265	81521.2
6.270	81496.3
6.275	81489.3
6.280	81514.2
6.285	81534.2
6.290	81525.2
6.295	81533.2
6.300	81546.2
6.305	81553.2
6.310	81564.2
6.315	81565.2
6.320	81570.2
6.325	81580.2
6.330	81585.2
6.335	81574.2
6.340	81559.2
6.345	81573.2
6.350	81584.2
6.355	81578.2
6.360	81581.2
6.365	81576.2
6.370	81586.2
6.375	81581.2
6.380	81593.2
6.385	81602.2
6.390	81626.2
6.395	81622.2
6.400	81631.2
6.405	81605.2
6.410	81614.2
6.415	81632.2
6.420	81665.1
6.425	81659.1
6.430	81667.1
6.435	81676.1
6.440	81694.1
6.445	81693.1
6.450	81696.1
6.455	81702.1
6.460	81714.1
6.465	81707.1
6.470	81687.1
6.475	81679.1
6.480	81694.1
6.485	81721.1
6.490	81725.1
6.495	81710.1
6.500	81710.1
6.505	81718.1
6.510	81712.1
6.515	81724.1
6.520	81728.1
6.525	81735.1
6.530	81730.1
6.535	81721.1
6.540	81691.1
6.545	81696.1
6.550	81728.1
6.555	81726.1
6.560	81738.1
6.565	81731.1
6.570	81737.1
6.575	81729.1
6.580	81736.1
6.585	81731.1
6.590	81742.1
6.595	81737.1
6.600	81747.1
6.605	81716.1
6.610	81713.1
6.615	81744.1
6.620	81752.1
6.625	81742.1
6.630	81750.1
6.635	81738.1
6.640	81743.1
6.645	81733.1
6.650	81735.1
6.655	81721.1
6.660	81724.1
6.665	81724.1
6.670	81696.1
6.675	81687.1
6.680	81697.1
6.685	81702.1
6.690	81691.1
6.695	81686.1
6.700	81689.1
6.705	81692.1
6.710	81683.1
6.715	81697.1
6.720	81727.1
6.725	81733.1
6.730	81748.1
6.735	81731.1
6.740	81728.1
6.745	81752.1
6.750	81785.1
6.755	81794.1
6.760	81785.1
6.765	81781.1
6.770	81797.1
6.775	81788.1
6.780	81794.1
6.785	81800.1
6.790	81811.1
6.795	81800.1
6.800	81804.1
6.805	81771.1
6.810	81777.1
6.815	81797.1
6.820	81810.1
6.825	81812.1
6.830	81813.1
6.835	81815.1
6.840	81825.0
6.845	81814.1
6.850	81830.0
6.855	81827.0
6.860	81832.0
6.865	81827.0
6.870	81806.1
6.875	81795.1
6.880	81821.0
6.885	81834.0
6.890	81843.0
6.895	81831.0
6.900	81831.0
6.905	81829.0
6.910	81826.0
6.915	81826.0
6.920	81824.0
6.925	81821.0
6.930	81832.0
6.935	81808.1
6.940	81786.1
6.945	81802.1
6.950	81830.0
6.955	81828.0
6.960	81824.0
6.965	81831.0
6.970	81834.0
6.975	81837.0
6.980	81847.0
6.985	81849.0
6.990	81844.0
6.995	81856.0
7.000	81849.0
7.005	81812.1
7.010	81822.1
7.015	81844.0
7.020	81861.0
7.025	81846.0
7.030	81839.0
7.035	81837.0
7.040	81842.0
7.045	81850.0
7.050	81844.0
7.055	81843.0
7.060	81840.0
7.065	81842.0
7.070	81815.1
7.075	81803.1
7.080	81817.1
7.085	81839.1
7.090	81841.0
7.095	81821.1
7.100	81829.1
7.105	81820.1
7.110	81834.1
7.115	81826.1
7.120	81830.1
7.125	81819.1
7.130	81816.1
7.135	81794.1
7.140	81767.1
7.145	81785.1
7.150	81802.1
7.155	81792.1
7.160	81784.1
7.165	81780.1
7.170	81784.1
7.175	81785.1
7.180	81785.1
7.185	81777.1
7.190	81784.1
7.195	81779.1
7.200	81786.1
7.205	81735.1
7.210	81751.1
7.215	81776.1
7.220	81793.1
7.225	81775.1
7.230	81779.1
7.235	81775.1
7.240	81777.1
7.245	81772.1
7.250	81770.1
7.255	81775.1
7.260	81771.1
7.265	81766.1
7.270	81736.2
7.275	81713.2
7.280	81751.1
7.285	81753.1
7.290	81750.1
7.295	81739.2
7.300	81739.2
7.305	81731.2
7.310	81730.2
7.315	81734.2
7.320	81733.2
7.325	81727.2
7.330	81724.2
7.335	81713.2
7.340	81688.2
7.345	81685.2
7.350	81721.2
7.355	81714.2
7.360	81706.2
7.365	81702.2
7.370	81710.2
7.375	81707.2
7.380	81711.2
7.385	81712.2
7.390	81716.2
7.395	81712.2
7.400	81707.2
7.405	81676.2
7.410	81686.2
7.415	81701.2
7.420	81696.2
7.425	81693.2
7.430	81685.2
7.435	81688.2
7.440	81686.2
7.445	81686.2
7.450	81680.2
7.455	81681.2
7.460	81695.2
7.465	81689.2
7.470	81668.2
7.475	81653.2
7.480	81666.2
7.485	81701.2
7.490	81698.2
7.495	81684.2
7.500	81686.2
7.505	81695.2
7.510	81688.2
7.515	81700.2
7.520	81703.2
7.525	81699.2
7.530	81707.2
7.535	81678.2
7.540	81663.2
7.545	81677.2
7.550	81705.2
7.555	81704.2
7.560	81699.2
7.565	81693.2
7.570	81703.2
7.575	81700.2
7.580	81703.2
7.585	81700.2
7.590	81706.2
7.595	81712.2
7.600	81700.2
7.605	81673.2
7.610	81682.2
7.615	81702.2
7.620	81717.2
7.625	81714.2
7.630	81708.2
7.635	81707.2
7.640	81717.2
7.645	81721.2
7.650	81725.2
7.655	81718.2
7.660	81715.2
7.665	81712.2
7.670	81687.2
7.675	81684.3
7.680	81704.2
7.685	81724.2
7.690	81714.2
7.695	81705.2
7.700	81709.2
7.705	81702.2
7.710	81711.2
7.715	81701.2
7.720	81711.2
7.725	81717.2
7.730	81726.2
7.735	81708.2
7.740	81693.3
7.745	81701.2
7.750	81733.2
7.755	81728.2
7.760	81730.2
7.765	81736.2
7.770	81735.2
7.775	81739.2
7.780	81741.2
7.785	81732.2
7.790	81743.2
7.795	81730.2
7.800	81730.2
7.805	81683.3
7.810	81694.3
7.815	81706.3
7.820	81701.3
7.825	81667.3
7.830	81643.3
7.835	81620.3
7.840	81607.3
7.845	81578.4
7.850	81543.4
7.855	81529.4
7.860	81515.4
7.865	81497.4
7.870	81463.4
7.875	81446.5
7.880	81496.4
7.885	81549.4
7.890	81589.4
7.895	81613.3
7.900	81652.3
7.905	81674.3
7.910	81688.3
7.915	81706.3
7.920	81714.3
7.925	81710.3
7.930	81708.3
7.935	81694.3
7.940	81685.3
7.945	81702.3
7.950	81736.3
7.955	81727.3
7.960	81720.3
7.965	81713.3
7.970	81719.3
7.975	81717.3
7.980	81721.3
7.985	81728.3
7.990	81737.3
7.995	81737.3
8.000	81739.3
8.005	81709.3
8.010	81719.3
8.015	81746.3
8.020	81749.3
8.025	81750.3
8.030	81756.3
8.035	81751.3
8.040	81770.3
8.045	81759.3
8.050	81761.3
8.055	81774.3
8.060	81770.3
8.065	81767.3
8.070	81741.3
8.075	81735.3
8.080	81759.3
8.085	81768.3
8.090	81760.3
8.095	81757.3
8.100	81763.3
8.105	81759.3
8.110	81754.3
8.115	81756.3
8.120	81769.3
8.125	81763.3
8.130	81756.3
8.135	81741.3
8.140	81720.3
8.145	81730.3
8.150	81762.3
8.155	81766.3
8.160	81777.3
8.165	81770.3
8.170	81789.3
8.175	81792.3
8.180	81801.3
8.185	81798.3
8.190	81798.3
8.195	81797.3
8.200	81785.3
8.205	81761.3
8.210	81774.3
8.215	81800.3
8.220	81800.3
8.225	81790.3
8.230	81797.3
8.235	81781.3
8.240	81792.3
8.245	81797.3
8.250	81792.3
8.255	81800.3
8.260	81805.3
8.265	81803.3
8.270	81774.3
8.275	81762.3
8.280	81789.3
8.285	81798.3
8.290	81798.3
8.295	81794.3
8.300	81796.3
8.305	81799.3
8.310	81798.3
8.315	81788.3
8.320	81788.3
8.325	81792.3
8.330	81795.3
8.335	81758.4
8.340	81749.4
8.345	81766.4
8.350	81795.3
8.355	81785.3
8.360	81785.4
8.365	81777.4
8.370	81777.4
8.375	81773.4
8.380	81771.4
8.385	81775.4
8.390	81778.4
8.395	81771.4
8.400	81765.4
8.405	81741.4
8.410	81744.4
8.415	81764.4
8.420	81769.4
8.425	81767.4
8.430	81761.4
8.435	81753.4
8.440	81751.4
8.445	81743.4
8.450	81758.4
8.455	81746.4
8.460	81750.4
8.465	81750.4
8.470	81721.4
8.475	81718.4
8.480	81747.4
8.485	81744.4
8.490	81743.4
8.495	81741.4
8.500	81740.4
8.505	81735.4
8.510	81734.5
8.515	81731.5
8.520	81720.5
8.525	81718.5
8.530	81710.5
8.535	81655.5
8.540	81625.5
8.545	81608.6
8.550	81613.6
8.555	81574.6
8.560	81545.6
8.565	81485.7
8.570	81457.7
8.575	81485.7
8.580	81561.6
8.585	81644.6
8.590	81686.5
8.595	81678.5
8.600	81648.6
8.605	81562.6
8.610	81523.7
8.615	81484.7
8.620	81504.7
8.625	81564.6
8.630	81628.6
8.635	81686.6
8.640	81700.6
8.645	81695.6
8.650	81701.6
8.655	81698.6
8.660	81707.6
8.665	81693.6
8.670	81655.6
8.675	81650.6
8.680	81677.6
8.685	81686.6
8.690	81681.6
8.695	81686.6
8.700	81672.6
8.705	81679.6
8.710	81676.6
8.715	81676.6
8.720	81671.6
8.725	81661.6
8.730	81670.6
8.735	81635.7
8.740	81644.7
8.745	81641.7
8.750	81661.7
8.755	81651.7
8.760	81651.7
8.765	81642.7
8.770	81639.7
8.775	81631.7
8.780	81641.7
8.785	81637.7
8.790	81641.7
8.795	81645.7
8.800	81628.7
8.805	81593.8
8.810	81606.8
8.815	81613.7
8.820	81630.7
8.825	81627.7
8.830	81615.8
8.835	81564.8
8.840	81513.8
8.845	81513.9
8.850	81572.8
8.855	81591.8
8.860	81593.8
8.865	81576.8
8.870	81548.9
8.875	81539.9
8.880	81558.9
8.885	81561.9
8.890	81527.9
8.895	81484.9
8.900	81480.9
8.905	81497.9
8.910	81500.9
8.915	81457.0
8.920	81419.0
8.925	81450.0
8.930	81489.0
8.935	81451.0
8.940	81423.0
8.945	81422.0
8.950	81442.0
8.955	81463.0
8.960	81474.0
8.965	81466.0
8.970	81457.0
8.975	81458.0
8.980	81471.0
8.985	81472.0
8.990	81464.1
8.995	81456.1
9.000	81447.1
9.005	81422.1
9.010	81433.1
9.015	81471.1
9.020	81498.1
9.025	81512.1
9.030	81513.1
9.035	81519.1
9.040	81544.1
9.045	81557.1
9.050	81575.1
9.055	81574.1
9.060	81593.1
9.065	81567.1
9.070	81523.1
9.075	81522.1
9.080	81512.2
9.085	81415.2
9.090	81448.2
9.095	81309.3
9.100	81077.5
9.105	81264.4
9.110	81448.3
9.115	81495.2
9.120	81524.2
9.125	81528.2
9.130	81469.3
9.135	81396.4
9.140	81432.3
9.145	81476.3
9.150	81497.3
9.155	81508.3
9.160	81511.3
9.165	81512.4
9.170	81516.4
9.175	81522.4
9.180	81525.4
9.185	81526.4
9.190	81540.4
9.195	81554.4
9.200	81555.4
9.205	81532.5
9.210	81558.4
9.215	81573.5
9.220	81580.5
9.225	81580.5
9.230	81574.5
9.235	81568.5
9.240	81578.5
9.245	81600.5
9.250	81626.5
9.255	81614.6
9.260	81626.6
9.265	81605.6
9.270	81575.7
9.275	81580.7
9.280	81607.7
9.285	81604.7
9.290	81603.8
9.295	81605.8
9.300	81606.8
9.305	81612.8
9.310	81611.9
9.315	81596.9
9.320	81595.0
9.325	81586.0
9.330	81579.1
9.335	81540.1
9.340	81508.2
9.345	81503.2
9.350	81517.3
9.355	81498.3
9.360	81497.4
9.365	81487.5
9.370	81479.5
9.375	81447.6
9.380	81401.7
9.385	81335.9
9.390	81338.0
9.395	81281.1
9.400	81150.3
9.405	81036.6
9.410	80862.9
9.415	80876.1
9.420	80986.2
9.425	80777.6
9.430	80319.2
9.435	79913.8
9.440	79888.0
9.445	80131.0
9.450	80419.9
9.455	80632.9
9.460	80760.8
9.465	80776.8
9.470	80720.7
9.475	80724.4
9.480	80812.1
9.485	80895.7
9.490	80979.1
9.495	81069.4
9.500	81173.5
9.505	81280.7
9.510	81386.0
9.515	81460.5
9.520	81516.2
9.525	81543.0
9.530	81565.9
9.535	81532.9
9.540	81540.8
9.545	81564.8
9.550	81573.8
9.555	81576.8
9.560	81578.8
9.565	81565.8
9.570	81572.8
9.575	81566.8
9.580	81586.8
9.585	81580.8
9.590	81578.8
9.595	81576.8
9.600	81559.8
9.605	81533.8
9.610	81548.8
9.615	81577.8
9.620	81578.8
9.625	81578.8
9.630	81585.8
9.635	81581.8
9.640	81600.8
9.645	81594.8
9.650	81591.8
9.655	81594.8
9.660	81596.8
9.665	81575.8
9.670	81560.8
9.675	81568.8
9.680	81597.8
9.685	81598.8
9.690	81592.8
9.695	81584.8
9.700	81589.8
9.705	81594.8
9.710	81588.8
9.715	81594.8
9.720	81602.8
9.725	81589.8
9.730	81603.8
9.735	81572.8
9.740	81567.8
9.745	81579.8
9.750	81602.8
9.755	81593.8
9.760	81602.8
9.765	81600.8
9.770	81610.7
9.775	81615.7
9.780	81617.7
9.785	81615.7
9.790	81613.7
9.795	81611.7
9.800	81590.8
9.805	81577.8
9.810	81593.8
9.815	81608.7
9.820	81608.7
9.825	81603.7
9.830	81599.8
9.835	81593.8
9.840	81598.8
9.845	81582.8
9.850	81590.8
9.855	81594.8
9.860	81605.7
9.865	81579.8
9.870	81558.8
9.875	81571.8
9.880	81597.8
9.885	81603.8
9.890	81594.8
9.895	81594.8
9.900	81580.8
9.905	81583.8
9.910	81585.8
9.915	81578.8
9.920	81583.8
9.925	81568.8
9.930	81571.8
9.935	81528.8
9.940	81533.8
9.945	81553.8
9.950	81556.8
9.955	81551.8
9.960	81540.8
9.965	81531.8
9.970	81526.8
9.975	81525.8
9.980	81532.8
9.985	81529.8
9.990	81528.8
9.995	81522.8
10.000	81504.8
10.005	81473.8
10.010	81496.8
10.015	81509.8
10.020	81514.8
10.025	81504.8
10.030	81498.8
10.035	81497.8
10.040	81494.8
10.045	81491.8
10.050	81482.8
10.055	81488.8
10.060	81488.8
10.065	81467.8
10.070	81447.9
10.075	81456.9
10.080	81488.8
10.085	81475.8
10.090	81462.8
10.095	81449.9
10.100	81446.9
10.105	81428.9
10.110	81426.9
10.115	81430.9
10.120	81433.9
10.125	81429.9
10.130	81427.9
10.135	81403.9
10.140	81392.9
10.145	81408.9
10.150	81437.9
10.155	81429.9
10.160	81428.9
10.165	81416.9
10.170	81421.9
10.175	81407.9
10.180	81424.9
10.185	81410.9
10.190	81414.9
10.195	81399.9
10.200	81378.9
10.205	81360.9
10.210	81376.9
10.215	81392.9
10.220	81387.9
10.225	81384.9
10.230	81380.9
10.235	81380.9
10.240	81373.9
10.245	81372.9
10.250	81375.9
10.255	81381.9
10.260	81380.9
10.265	81364.9
10.270	81329.9
10.275	81332.9
10.280	81360.9
10.285	81365.9
10.290	81373.9
10.295	81377.9
10.300	81384.9
10.305	81385.9
10.310	81379.9
10.315	81390.9
10.320	81384.9
10.325	81393.9
10.330	81389.9
10.335	81357.9
10.340	81372.9
10.345	81393.9
10.350	81404.9
10.355	81399.9
10.360	81400.9
10.365	81401.9
10.370	81410.9
10.375	81413.9
10.380	81416.9
10.385	81420.9
10.390	81441.9
10.395	81448.9
10.400	81432.9
10.405	81417.9
10.410	81430.9
10.415	81445.9
10.420	81452.8
10.425	81451.8
10.430	81445.9
10.435	81449.9
10.440	81460.8
10.445	81460.8
10.450	81472.8
10.455	81466.8
10.460	81474.8
10.465	81448.8
10.470	81441.9
10.475	81447.8
10.480	81487.8
10.485	81490.8
10.490	81494.8
10.495	81487.8
10.500	81495.8
10.505	81479.8
10.510	81490.8
10.515	81492.8
10.520	81494.8
10.525	81497.8
10.530	81491.8
10.535	81451.8
10.540	81450.8
10.545	81469.8
10.550	81482.8
10.555	81489.8
10.560	81495.8
10.565	81495.8
10.570	81512.8
10.575	81509.8
10.580	81523.8
10.585	81523.8
10.590	81526.8
10.595	81529.8
10.600	81501.8
10.605	81498.8
10.610	81522.8
10.615	81537.8
10.620	81537.8
10.625	81528.8
10.630	81521.8
10.635	81515.8
10.640	81525.8
10.645	81522.8
10.650	81528.8
10.655	81532.8
10.660	81543.8
10.665	81517.8
10.670	81507.8
10.675	81500.8
10.680	81543.8
10.685	81546.8
10.690	81551.8
10.695	81537.8
10.700	81554.8
10.705	81550.8
10.710	81550.8
10.715	81544.8
10.720	81544.8
10.725	81534.8
10.730	81532.8
10.735	81503.8
10.740	81518.8
10.745	81544.8
10.750	81547.8
10.755	81549.8
10.760	81540.8
10.765	81532.8
10.770	81539.8
10.775	81527.8
10.780	81531.8
10.785	81544.8
10.790	81552.8
10.795	81557.7
10.800	81520.8
10.805	81516.8
10.810	81537.8
10.815	81546.8
10.820	81548.8
10.825	81538.8
10.830	81537.8
10.835	81539.8
10.840	81552.8
10.845	81549.8
10.850	81556.8
10.855	81542.8
10.860	81557.8
10.865	81533.8
10.870	81526.8
10.875	81542.8
10.880	81559.8
10.885	81555.7
10.890	81553.8
10.895	81543.8
10.900	81552.8
10.905	81551.8
10.910	81551.8
10.915	81550.8
10.920	81552.8
10.925	81551.8
10.930	81542.8
10.935	81521.8
10.940	81539.8
10.945	81551.8
10.950	81558.7
10.955	81550.8
10.960	81549.8
10.965	81548.8
10.970	81538.8
10.975	81538.8
10.980	81545.8
10.985	81550.7
10.990	81549.7
10.995	81535.8
11.000	81516.8
11.005	81507.8
11.010	81530.8
11.015	81532.8
11.020	81532.8
11.025	81516.8
11.030	81519.8
11.035	81518.8
11.040	81518.8
11.045	81515.8
11.050	81513.8
11.055	81509.8
11.060	81501.8
11.065	81485.8
11.070	81464.8
11.075	81482.8
11.080	81511.8
11.085	81503.8
11.090	81505.8
11.095	81503.8
11.100	81517.8
11.105	81511.8
11.110	81516.8
11.115	81518.8
11.120	81516.8
11.125	81510.8
11.130	81502.8
11.135	81468.8
11.140	81484.8
11.145	81499.8
11.150	81504.8
11.155	81497.8
11.160	81489.8
11.165	81484.8
11.170	81494.8
11.175	81479.8
11.180	81477.8
11.185	81478.8
11.190	81477.8
11.195	81477.8
11.200	81454.8
11.205	81431.8
11.210	81433.8
11.215	81456.8
11.220	81457.8
11.225	81441.8
11.230	81431.8
11.235	81437.8
11.240	81436.8
11.245	81432.8
11.250	81432.8
11.255	81436.8
11.260	81441.8
11.265	81408.9
11.270	81401.9
11.275	81416.8
11.280	81441.8
11.285	81431.8
11.290	81432.8
11.295	81421.8
11.300	81425.8
11.305	81411.8
11.310	81408.8
11.315	81411.8
11.320	81418.8
11.325	81420.8
11.330	81409.8
11.335	81381.9
11.340	81372.9
11.345	81398.9
11.350	81409.8
11.355	81408.8
11.360	81399.9
11.365	81406.8
11.370	81417.8
11.375	81416.8
11.380	81424.8
11.385	81428.8
11.390	81422.8
11.395	81412.8
11.400	81385.9
11.405	81376.9
11.410	81404.8
11.415	81410.8
11.420	81407.8
11.425	81404.8
11.430	81394.9
11.435	81402.8
11.440	81398.9
11.445	81401.8
11.450	81409.8
11.455	81401.9
11.460	81425.8
11.465	81397.9
11.470	81386.9
11.475	81392.9
11.480	81418.8
11.485	81413.8
11.490	81416.8
11.495	81412.8
11.500	81416.8
11.505	81424.8
11.510	81434.8
11.515	81432.8
11.520	81437.8
11.525	81431.8
11.530	81418.8
11.535	81395.9
11.540	81410.8
11.545	81424.8
11.550	81430.8
11.555	81433.8
11.560	81437.8
11.565	81444.8
11.570	81436.8
11.575	81433.8
11.580	81437.8
11.585	81436.8
11.590	81439.8
11.595	81432.8
11.600	81399.8
11.605	81403.8
11.610	81419.8
11.615	81434.8
11.620	81434.8
11.625	81434.8
11.630	81430.8
11.635	81421.8
11.640	81431.8
11.645	81435.8
11.650	81444.8
11.655	81432.8
11.660	81443.8
11.665	81414.8
11.670	81411.8
11.675	81423.8
11.680	81438.8
11.685	81434.8
11.690	81428.8
11.695	81423.8
11.700	81427.8
11.705	81432.8
11.710	81432.8
11.715	81427.8
11.720	81435.8
11.725	81433.8
11.730	81428.8
11.735	81404.8
11.740	81412.8
11.745	81439.8
11.750	81453.8
11.755	81434.8
11.760	81438.8
11.765	81428.8
11.770	81442.8
11.775	81442.8
11.780	81440.8
11.785	81417.8
11.790	81421.8
11.795	81418.8
11.800	81394.8
11.805	81391.8
11.810	81429.8
11.815	81433.8
11.820	81442.8
11.825	81426.8
11.830	81433.8
11.835	81422.8
11.840	81422.8
11.845	81412.8
11.850	81406.8
11.855	81410.8
11.860	81411.8
11.865	81386.8
11.870	81367.9
11.875	81377.9
11.880	81413.8
11.885	81401.8
11.890	81406.8
11.895	81408.8
11.900	81420.8
11.905	81409.8
11.910	81417.8
11.915	81411.8
11.920	81415.8
11.925	81412.8
11.930	81400.8
11.935	81372.9
11.940	81385.8
11.945	81409.8
11.950	81413.8
11.955	81394.8
11.960	81394.8
11.965	81398.8
11.970	81407.8
11.975	81410.8
11.980	81401.8
11.985	81398.8
11.990	81405.8
11.995	81396.8
12.000	81371.9
12.005	81360.9
12.010	81391.8
12.015	81398.8
12.020	81405.8
12.025	81403.8
12.030	81408.8
12.035	81405.8
12.040	81405.8
12.045	81406.8
12.050	81407.8
12.055	81404.8
12.060	81402.8
12.065	81379.8
12.070	81365.9
12.075	81374.9
12.080	81395.8
12.085	81391.8
12.090	81392.8
12.095	81390.8
12.100	81395.8
12.105	81385.8
12.110	81393.8
12.115	81385.8
12.120	81390.8
12.125	81385.8
12.130	81369.9
12.135	81344.9
12.140	81359.9
12.145	81383.8
12.150	81383.8
12.155	81380.8
12.160	81389.8
12.165	81386.8
12.170	81390.8
12.175	81384.8
12.180	81404.8
12.185	81401.8
12.190	81395.8
12.195	81391.8
12.200	81373.8
12.205	81373.8
12.210	81399.8
12.215	81405.8
12.220	81405.8
12.225	81396.8
12.230	81396.8
12.235	81400.8
12.240	81402.8
12.245	81407.8
12.250	81412.8
12.255	81405.8
12.260	81413.8
12.265	81378.8
12.270	81369.8
12.275	81385.8
12.280	81422.8
12.285	81415.8
12.290	81419.8
12.295	81410.8
12.300	81419.8
12.305	81422.8
12.310	81427.8
12.315	81433.8
12.320	81437.8
12.325	81428.8
12.330	81402.8
12.335	81390.8
12.340	81419.8
12.345	81447.8
12.350	81438.8
12.355	81442.8
12.360	81440.8
12.365	81445.8
12.370	81446.8
12.375	81453.8
12.380	81460.8
12.385	81450.8
12.390	81461.8
12.395	81453.8
12.400	81429.8
12.405	81428.8
12.410	81456.8
12.415	81473.8
12.420	81476.8
12.425	81480.8
12.430	81487.7
12.435	81495.7
12.440	81500.7
12.445	81504.7
12.450	81487.7
12.455	81493.7
12.460	81494.7
12.465	81469.8
12.470	81473.8
12.475	81492.7
12.480	81512.7
12.485	81509.7
12.490	81506.7
12.495	81506.7
12.500	81512.7
12.505	81512.7
12.510	81513.7
12.515	81522.7
12.520	81522.7
12.525	81527.7
12.530	81512.7
12.535	81493.7
12.540	81512.7
12.545	81529.7
12.550	81548.7
12.555	81540.7
12.560	81550.7
12.565	81559.7
12.570	81576.7
12.575	81571.7
12.580	81574.7
12.585	81579.7
12.590	81576.7
12.595	81563.7
12.600	81545.7
12.605	81549.7
12.610	81571.7
12.615	81582.7
12.620	81589.7
12.625	81575.7
12.630	81582.7
12.635	81594.7
12.640	81594.7
12.645	81585.7
12.650	81598.7
12.655	81608.6
12.660	81614.6
12.665	81576.7
12.670	81590.7
12.675	81600.7
12.680	81621.6
12.685	81618.6
12.690	81622.6
12.695	81614.6
12.700	81624.6
12.705	81623.6
12.710	81632.6
12.715	81620.6
12.720	81633.6
12.725	81630.6
12.730	81611.6
12.735	81593.7
12.740	81625.6
12.745	81644.6
12.750	81641.6
12.755	81639.6
12.760	81639.6
12.765	81642.6
12.770	81635.6
12.775	81638.6
12.780	81650.6
12.785	81652.6
12.790	81662.6
12.795	81657.6
12.800	81620.6
12.805	81624.6
12.810	81655.6
12.815	81658.6
12.820	81659.6
12.825	81666.6
12.830	81670.6
12.835	81666.6
12.840	81667.6
12.845	81674.6
12.850	81679.6
12.855	81678.6
12.860	81678.6
12.865	81649.6
12.870	81655.6
12.875	81664.6
12.880	81692.6
12.885	81680.6
12.890	81686.6
12.895	81673.6
12.900	81678.6
12.905	81663.6
12.910	81687.6
12.915	81696.6
12.920	81699.6
12.925	81692.6
12.930	81667.6
12.935	81658.6
12.940	81673.6
12.945	81698.6
12.950	81698.6
12.955	81694.6
12.960	81700.6
12.965	81708.6
12.970	81711.6
12.975	81706.6
12.980	81713.6
12.985	81703.6
12.990	81711.6
12.995	81701.6
13.000	81676.6
13.005	81677.6
13.010	81704.6
13.015	81712.6
13.020	81711.6
13.025	81700.6
13.030	81712.6
13.035	81705.6
13.040	81713.6
13.045	81709.6
13.050	81718.6
13.055	81715.5
13.060	81729.5
13.065	81683.6
13.070	81692.6
13.075	81701.6
13.080	81733.5
13.085	81723.5
13.090	81723.5
13.095	81722.5
13.100	81740.5
13.105	81735.5
13.110	81739.5
13.115	81738.5
13.120	81750.5
13.125	81743.5
13.130	81717.5
13.135	81707.6
13.140	81726.5
13.145	81744.5
13.150	81743.5
13.155	81734.5
13.160	81729.5
13.165	81731.5
13.170	81723.5
13.175	81722.5
13.180	81731.5
13.185	81731.5
13.190	81734.5
13.195	81720.5
13.200	81696.6
13.205	81694.6
13.210	81727.5
13.215	81731.5
13.220	81732.5
13.225	81735.5
13.230	81727.5
13.235	81727.5
13.240	81733.5
13.245	81737.5
13.250	81730.5
13.255	81729.5
13.260	81729.5
13.265	81692.6
13.270	81690.6
13.275	81709.5
13.280	81726.5
13.285	81717.5
13.290	81710.5
13.295	81705.6
13.300	81705.6
13.305	81704.6
13.310	81698.6
13.315	81686.6
13.320	81698.6
13.325	81696.6
13.330	81672.6
13.335	81647.6
13.340	81658.6
13.345	81685.6
13.350	81689.6
13.355	81678.6
13.360	81680.6
13.365	81671.6
13.370	81682.6
13.375	81666.6
13.380	81676.6
13.385	81674.6
13.390	81665.6
13.395	81649.6
13.400	81633.6
13.405	81646.6
13.410	81660.6
13.415	81655.6
13.420	81644.6
13.425	81640.6
13.430	81632.6
13.435	81637.6
13.440	81641.6
13.445	81623.6
13.450	81630.6
13.455	81633.6
13.460	81629.6
13.465	81585.6
13.470	81587.6
13.475	81605.6
13.480	81621.6
13.485	81625.6
13.490	81620.6
13.495	81612.6
13.500	81627.6
13.505	81626.6
13.510	81626.6
13.515	81611.6
13.520	81618.6
13.525	81600.6
13.530	81587.6
13.535	81576.6
13.540	81602.6
13.545	81615.6
13.550	81618.6
13.555	81601.6
13.560	81605.6
13.565	81600.6
13.570	81602.6
13.575	81590.6
13.580	81598.6
13.585	81606.6
13.590	81606.6
13.595	81591.6
13.600	81565.6
13.605	81571.6
13.610	81599.6
13.615	81602.6
13.620	81597.6
13.625	81597.6
13.630	81592.6
13.635	81596.6
13.640	81598.6
13.645	81600.6
13.650	81602.6
13.655	81593.6
13.660	81593.6
13.665	81564.6
13.670	81571.6
13.675	81593.6
13.680	81597.6
13.685	81596.6
13.690	81594.6
13.695	81592.6
13.700	81597.6
13.705	81589.6
13.710	81597.6
13.715	81592.6
13.720	81603.6
13.725	81604.6
13.730	81580.6
13.735	81572.6
13.740	81583.6
13.745	81607.6
13.750	81609.6
13.755	81606.6
13.760	81609.6
13.765	81613.6
13.770	81619.6
13.775	81620.6
13.780	81617.6
13.785	81619.6
13.790	81620.6
13.795	81607.6
13.800	81592.6
13.805	81608.6
13.810	81636.6
13.815	81631.6
13.820	81634.6
13.825	81625.6
13.830	81632.6
13.835	81639.6
13.840	81640.6
13.845	81637.6
13.850	81638.6
13.855	81639.6
13.860	81641.6
13.865	81617.6
13.870	81622.6
13.875	81638.6
13.880	81657.6
13.885	81658.6
13.890	81659.6
13.895	81659.6
13.900	81669.5
13.905	81673.5
13.910	81679.5
13.915	81684.5
13.920	81680.5
13.925	81691.5
13.930	81662.6
13.935	81647.6
13.940	81669.5
13.945	81683.5
13.950	81680.5
13.955	81680.5
13.960	81687.5
13.965	81679.5
13.970	81690.5
13.975	81684.5
13.980	81695.5
13.985	81694.5
13.990	81696.5
13.995	81676.5
14.000	81660.6
14.005	81661.5
14.010	81691.5
14.015	81695.5
14.020	81705.5
14.025	81701.5
14.030	81701.5
14.035	81708.5
14.040	81709.5
14.045	81712.5
14.050	81705.5
14.055	81708.5
14.060	81702.5
14.065	81673.5
14.070	81670.5
14.075	81693.5
14.080	81712.5
14.085	81700.5
14.090	81691.5
14.095	81691.5
14.100	81687.5
14.105	81693.5
14.110	81691.5
14.115	81689.5
14.120	81692.5
14.125	81697.5
14.130	81676.5
14.135	81645.6
14.140	81667.5
14.145	81682.5
14.150	81697.5
14.155	81696.5
14.160	81704.5
14.165	81705.5
14.170	81708.5
14.175	81709.5
14.180	81709.5
14.185	81699.5
14.190	81705.5
14.195	81687.5
14.200	81668.5
14.205	81690.5
14.210	81720.5
14.215	81711.5
14.220	81707.5
14.225	81702.5
14.230	81701.5
14.235	81710.5
14.240	81712.5
14.245	81703.5
14.250	81711.5
14.255	81716.5
14.260	81708.5
14.265	81675.5
14.270	81691.5
14.275	81705.5
14.280	81715.5
14.285	81719.5
14.290	81723.5
14.295	81714.5
14.300	81720.5
14.305	81723.5
14.310	81721.5
14.315	81717.5
14.320	81715.5
14.325	81715.5
14.330	81678.5
14.335	81679.5
14.340	81705.5
14.345	81715.5
14.350	81716.5
14.355	81714.5
14.360	81704.5
14.365	81712.5
14.370	81707.5
14.375	81711.5
14.380	81706.5
14.385	81701.5
14.390	81699.5
14.395	81686.5
14.400	81680.5
14.405	81688.5
14.410	81709.5
14.415	81711.5
14.420	81710.5
14.425	81717.5
14.430	81710.5
14.435	81705.5
14.440	81711.5
14.445	81712.5
14.450	81707.5
14.455	81709.5
14.460	81699.5
14.465	81676.5
14.470	81681.5
14.475	81704.5
14.480	81713.5
14.485	81696.5
14.490	81703.5
14.495	81693.5
14.500	81701.5
14.505	81691.5
14.510	81704.5
14.515	81699.5
14.520	81707.5
14.525	81702.5
14.530	81678.5
14.535	81664.5
14.540	81682.5
14.545	81704.5
14.550	81701.5
14.555	81701.5
14.560	81694.5
14.565	81702.5
14.570	81703.5
14.575	81699.5
14.580	81702.5
14.585	81692.5
14.590	81696.5
14.595	81679.5
14.600	81664.5
14.605	81679.5
14.610	81705.5
14.615	81698.5
14.620	81689.5
14.625	81684.5
14.630	81689.5
14.635	81683.5
14.640	81682.5
14.645	81687.5
14.650	81688.5
14.655	81682.5
14.660	81672.5
14.665	81645.5
14.670	81657.5
14.675	81675.5
14.680	81692.5
14.685	81688.5
14.690	81691.5
14.695	81677.5
14.700	81684.5
14.705	81683.5
14.710	81687.5
14.715	81688.5
14.720	81677.5
14.725	81673.5
14.730	81645.5
14.735	81646.5
14.740	81672.5
14.745	81676.5
14.750	81667.5
14.755	81666.5
14.760	81666.5
14.765	81651.5
14.770	81650.5
14.775	81650.5
14.780	81663.5
14.785	81652.5
14.790	81655.5
14.795	81621.5
14.800	81611.5
14.805	81627.5
14.810	81653.5
14.815	81644.5
14.820	81647.5
14.825	81642.5
14.830	81633.5
14.835	81635.5
14.840	81633.5
14.845	81634.5
14.850	81636.5
14.855	81634.5
14.860	81604.6
14.865	81571.6
14.870	81589.6
14.875	81614.5
14.880	81611.5
14.885	81597.6
14.890	81606.5
14.895	81592.6
14.900	81606.5
14.905	81596.6
14.910	81598.5
14.915	81579.6
14.920	81579.6
14.925	81570.6
14.930	81540.6
14.935	81535.6
14.940	81552.6
14.945	81560.6
14.950	81570.6
14.955	81562.6
14.960	81555.6
14.965	81556.6
14.970	81565.6
14.975	81565.6
14.980	81563.6
14.985	81557.6
14.990	81556.6
14.995	81525.6
15.000	81520.6
15.005	81545.6
15.010	81567.6
15.015	81554.6
15.020	81555.6
15.025	81556.6
15.030	81553.6
15.035	81546.6
15.040	81555.6
15.045	81551.6
15.050	81564.6
15.055	81560.6
15.060	81566.6
15.065	81530.6
15.070	81547.6
15.075	81572.6
15.080	81581.6
15.085	81580.6
15.090	81584.6
15.095	81583.6
15.100	81579.6
15.105	81590.5
15.110	81597.5
15.115	81592.5
15.120	81601.5
15.125	81590.5
15.130	81554.6
15.135	81573.6
15.140	81589.5
15.145	81602.5
15.150	81592.5
15.155	81592.5
15.160	81590.5
15.165	81590.5
15.170	81595.5
15.175	81587.5
15.180	81599.5
15.185	81597.5
15.190	81603.5
15.195	81580.5
15.200	81567.6
15.205	81574.6
15.210	81598.5
15.215	81596.5
15.220	81605.5
15.225	81599.5
15.230	81592.5
15.235	81600.5
15.240	81608.5
15.245	81605.5
15.250	81601.5
15.255	81597.5
15.260	81589.5
15.265	81561.6
15.270	81577.5
15.275	81594.5
15.280	81593.5
15.285	81577.5
15.290	81578.5
15.295	81571.5
15.300	81572.5
15.305	81573.5
15.310	81577.5
15.315	81570.5
15.320	81564.6
15.325	81571.5
15.330	81536.6
15.335	81529.6
15.340	81538.6
15.345	81568.5
15.350	81557.6
15.355	81555.6
15.360	81558.6
15.365	81548.6
15.370	81556.6
15.375	81543.6
15.380	81546.6
15.385	81541.6
15.390	81537.6
15.395	81507.6
15.400	81501.6
15.405	81510.6
15.410	81536.6
15.415	81535.6
15.420	81534.6
15.425	81518.6
15.430	81516.6
15.435	81512.6
15.440	81515.6
15.445	81509.6
15.450	81508.6
15.455	81504.6
15.460	81483.6
15.465	81459.6
15.470	81469.6
15.475	81485.6
15.480	81490.6
15.485	81494.6
15.490	81496.6
15.495	81491.6
15.500	81497.6
15.505	81487.6
15.510	81484.6
15.515	81487.6
15.520	81487.6
15.525	81485.6
15.530	81448.6
15.535	81451.6
15.540	81475.6
15.545	81478.6
15.550	81463.6
15.555	81461.6
15.560	81460.6
15.565	81459.6
15.570	81460.6
15.575	81466.6
15.580	81475.6
15.585	81479.6
15.590	81477.6
15.595	81441.6
15.600	81442.6
15.605	81442.6
15.610	81469.6
15.615	81463.6
15.620	81464.6
15.625	81473.6
15.630	81483.6
15.635	81480.6
15.640	81471.6
15.645	81470.6
15.650	81484.6
15.655	81474.6
15.660	81463.6
15.665	81427.6
15.670	81449.6
15.675	81486.6
15.680	81500.6
15.685	81475.6
15.690	81480.6
15.695	81485.6
15.700	81487.6
15.705	81479.6
15.710	81477.6
15.715	81478.6
15.720	81487.6
15.725	81490.6
15.730	81455.6
15.735	81457.6
15.740	81489.6
15.745	81510.6
15.750	81503.6
15.755	81497.6
15.760	81501.6
15.765	81511.6
15.770	81514.6
15.775	81523.6
15.780	81522.6
15.785	81517.6
15.790	81524.6
15.795	81500.6
15.800	81498.6
15.805	81508.6
15.810	81536.5
15.815	81526.6
15.820	81519.6
15.825	81519.6
15.830	81524.5
15.835	81525.6
15.840	81530.5
15.845	81516.6
15.850	81532.5
15.855	81525.5
15.860	81522.5
15.865	81492.6
15.870	81503.6
15.875	81524.5
15.880	81525.5
15.885	81535.5
15.890	81545.5
15.895	81548.5
15.900	81555.5
15.905	81540.5
15.910	81548.5
15.915	81541.5
15.920	81544.5
15.925	81546.5
15.930	81516.6
15.935	81515.5
15.940	81542.5
15.945	81541.5
15.950	81549.5
15.955	81555.5
15.960	81554.5
15.965	81551.5
15.970	81553.5
15.975	81554.5
15.980	81560.5
15.985	81568.5
15.990	81582.5
15.995	81530.5
16.000	81514.5
16.005	81527.5
16.010	81555.5
16.015	81545.5
16.020	81554.5
16.025	81551.5
16.030	81553.5
16.035	81550.5
16.040	81558.5
16.045	81565.5
16.050	81566.5
16.055	81565.5
16.060	81540.5
16.065	81521.5
16.070	81541.5
16.075	81556.5
16.080	81553.5
16.085	81550.5
16.090	81560.5
16.095	81560.5
16.100	81543.5
16.105	81550.5
16.110	81558.5
16.115	81544.5
16.120	81541.5
16.125	81548.5
16.130	81514.5
16.135	81514.5
16.140	81534.5
16.145	81552.5
16.150	81551.5
16.155	81539.5
16.160	81548.5
16.165	81542.5
16.170	81542.5
16.175	81537.5
16.180	81533.5
16.185	81534.5
16.190	81530.5
16.195	81499.5
16.200	81503.5
16.205	81525.5
16.210	81529.5
16.215	81519.5
16.220	81511.5
16.225	81506.5
16.230	81518.5
16.235	81512.5
16.240	81522.5
16.245	81526.5
16.250	81537.5
16.255	81531.5
16.260	81503.5
16.265	81486.6
16.270	81501.5
16.275	81530.5
16.280	81541.5
16.285	81544.5
16.290	81540.5
16.295	81545.5
16.300	81548.5
16.305	81543.5
16.310	81535.5
16.315	81525.5
16.320	81527.5
16.325	81520.5
16.330	81500.5
16.335	81498.5
16.340	81534.5
16.345	81530.5
16.350	81516.5
16.355	81504.5
16.360	81507.5
16.365	81511.5
16.370	81510.5
16.375	81505.5
16.380	81508.5
16.385	81514.5
16.390	81508.5
16.395	81474.5
16.400	81475.5
16.405	81489.5
16.410	81505.5
16.415	81486.5
16.420	81493.5
16.425	81488.5
16.430	81491.5
16.435	81506.5
16.440	81507.5
16.445	81502.5
16.450	81492.5
16.455	81487.5
16.460	81460.6
16.465	81447.6
16.470	81483.5
16.475	81487.5
16.480	81483.5
16.485	81460.5
16.490	81472.5
16.495	81464.6
16.500	81464.5
16.505	81462.5
16.510	81464.5
16.515	81464.5
16.520	81472.5
16.525	81462.5
16.530	81440.6
16.535	81442.6
16.540	81472.5
16.545	81474.5
16.550	81467.5
16.555	81474.5
16.560	81479.5
16.565	81480.5
16.570	81478.5
16.575	81482.5
16.580	81491.5
16.585	81479.5
16.590	81478.5
16.595	81444.6
16.600	81457.5
16.605	81479.5
16.610	81502.5
16.615	81492.5
16.620	81494.5
16.625	81475.5
16.630	81489.5
16.635	81495.5
16.640	81494.5
16.645	81494.5
16.650	81500.5
16.655	81501.5
16.660	81478.5
16.665	81459.5
16.670	81483.5
16.675	81513.5
16.680	81507.5
16.685	81497.5
16.690	81491.5
16.695	81493.5
16.700	81505.5
16.705	81514.5
16.710	81514.5
16.715	81508.5
16.720	81501.5
16.725	81485.5
16.730	81461.5
16.735	81471.5
16.740	81505.5
16.745	81497.5
16.750	81475.5
16.755	81477.5
16.760	81479.5
16.765	81469.5
16.770	81471.5
16.775	81456.5
16.780	81459.5
16.785	81455.5
16.790	81462.5
16.795	81421.6
16.800	81417.6
16.805	81432.5
16.810	81464.5
16.815	81452.5
16.820	81454.5
16.825	81436.5
16.830	81430.5
16.835	81431.5
16.840	81441.5
16.845	81438.5
16.850	81442.5
16.855	81418.5
16.860	81381.6
16.865	81374.6
16.870	81379.6
16.875	81382.6
16.880	81376.6
16.885	81361.6
16.890	81363.6
16.895	81367.6
16.900	81365.6
16.905	81349.6
16.910	81343.6
16.915	81336.6
16.920	81341.6
16.925	81323.6
16.930	81294.6
16.935	81294.6
16.940	81317.6
16.945	81308.6
16.950	81313.6
16.955	81302.6
16.960	81290.6
16.965	81274.7
16.970	81273.7
16.975	81259.7
16.980	81253.7
16.985	81246.7
16.990	81244.7
16.995	81213.7
17.000	81205.7
17.005	81213.7
17.010	81236.7
17.015	81227.7
17.020	81227.7
17.025	81228.7
17.030	81228.7
17.035	81237.7
17.040	81228.7
17.045	81210.7
17.050	81210.7
17.055	81214.7
17.060	81210.7
17.065	81200.7
17.070	81212.7
17.075	81243.7
17.080	81258.7
17.085	81261.6
17.090	81262.6
17.095	81244.7
17.100	81247.7
17.105	81252.7
17.110	81257.7
17.115	81269.6
17.120	81263.6
17.125	81253.6
17.130	81239.7
17.135	81248.7
17.140	81283.6
17.145	81284.6
17.150	81296.6
17.155	81294.6
17.160	81310.6
17.165	81317.6
17.170	81310.6
17.175	81301.6
17.180	81298.6
17.185	81307.6
17.190	81312.6
17.195	81279.6
17.200	81283.6
17.205	81294.6
17.210	81306.6
17.215	81296.6
17.220	81311.6
17.225	81321.6
17.230	81333.6
17.235	81340.6
17.240	81343.6
17.245	81331.6
17.250	81328.6
17.255	81325.6
17.260	81301.6
17.265	81296.6
17.270	81320.6
17.275	81335.6
17.280	81345.6
17.285	81335.6
17.290	81345.6
17.295	81339.6
17.300	81333.6
17.305	81327.6
17.310	81336.6
17.315	81345.6
17.320	81351.6
17.325	81331.6
17.330	81297.6
17.335	81305.6
17.340	81337.6
17.345	81333.6
17.350	81329.6
17.355	81335.6
17.360	81330.6
17.365	81334.6
17.370	81330.6
17.375	81328.6
17.380	81328.6
17.385	81340.6
17.390	81329.6
17.395	81288.6
17.400	81304.6
17.405	81325.6
17.410	81338.6
17.415	81337.6
17.420	81319.6
17.425	81314.6
17.430	81323.6
17.435	81315.6
17.440	81311.6
17.445	81294.6
17.450	81309.6
17.455	81315.6
17.460	81278.6
17.465	81261.6
17.470	81275.6
17.475	81310.6
17.480	81315.6
17.485	81308.6
17.490	81298.6
17.495	81294.6
17.500	81304.6
17.505	81316.6
17.510	81321.6
17.515	81311.6
17.520	81323.6
17.525	81308.6
17.530	81286.6
17.535	81309.6
17.540	81335.5
17.545	81323.6
17.550	81309.6
17.555	81319.6
17.560	81319.6
17.565	81323.6
17.570	81328.6
17.575	81333.5
17.580	81344.5
17.585	81341.5
17.590	81338.5
17.595	81294.6
17.600	81304.6
17.605	81320.6
17.610	81337.5
17.615	81344.5
17.620	81348.5
17.625	81341.5
17.630	81342.5
17.635	81339.5
17.640	81347.5
17.645	81348.5
17.650	81346.5
17.655	81326.5
17.660	81295.6
17.665	81290.6
17.670	81323.5
17.675	81335.5
17.680	81328.5
17.685	81319.5
17.690	81314.5
17.695	81309.6
17.700	81316.5
17.705	81333.5
17.710	81336.5
17.715	81323.5
17.720	81336.5
17.725	81312.5
17.730	81295.6
17.735	81303.5
17.740	81347.5
17.745	81347.5
17.750	81344.5
17.755	81338.5
17.760	81330.5
17.765	81338.5
17.770	81346.5
17.775	81353.5
17.780	81364.5
17.785	81360.5
17.790	81355.5
17.795	81321.5
17.800	81339.5
17.805	81365.5
17.810	81381.5
17.815	81372.5
17.820	81369.5
17.825	81364.5
17.830	81364.5
17.835	81375.5
17.840	81383.5
17.845	81390.5
17.850	81406.5
17.855	81388.5
17.860	81372.5
17.865	81355.5
17.870	81383.5
17.875	81419.4
17.880	81423.4
17.885	81425.4
17.890	81431.4
17.895	81431.4
17.900	81437.4
17.905	81446.4
17.910	81448.4
17.915	81454.4
17.920	81461.4
17.925	81447.4
17.930	81441.4
17.935	81459.4
17.940	81486.4
17.945	81480.4
17.950	81485.4
17.955	81481.4
17.960	81500.4
17.965	81485.4
17.970	81497.4
17.975	81503.4
17.980	81509.4
17.985	81526.3
17.990	81509.4
17.995	81481.4
18.000	81494.4
18.005	81529.3
18.010	81547.3
18.015	81545.3
18.020	81541.3
18.025	81524.3
18.030	81534.3
18.035	81549.3
18.040	81557.3
18.045	81555.3
18.050	81543.3
18.055	81530.3
18.060	81501.4
18.065	81503.4
18.070	81520.3
18.075	81523.3
18.080	81516.3
18.085	81512.3
18.090	81516.3
18.095	81497.4
18.100	81507.3
18.105	81510.3
18.110	81522.3
18.115	81522.3
18.120	81499.4
18.125	81490.4
18.130	81476.4
18.135	81468.4
18.140	81492.4
18.145	81490.4
18.150	81501.3
18.155	81487.4
18.160	81479.4
18.165	81477.4
18.170	81486.4
18.175	81478.4
18.180	81478.4
18.185	81482.4
18.190	81477.4
18.195	81445.4
18.200	81459.4
18.205	81473.4
18.210	81486.3
18.215	81478.4
18.220	81479.4
18.225	81468.4
18.230	81474.4
18.235	81464.4
18.240	81477.3
18.245	81488.3
18.250	81487.3
18.255	81481.3
18.260	81448.4
18.265	81430.4
18.270	81444.4
18.275	81468.4
18.280	81458.4
18.285	81470.3
18.290	81468.4
18.295	81466.4
18.300	81460.4
18.305	81448.4
18.310	81454.4
18.315	81460.4
18.320	81460.4
18.325	81439.4
18.330	81420.4
18.335	81419.4
18.340	81432.4
18.345	81437.4
18.350	81434.4
18.355	81438.4
18.360	81431.4
18.365	81422.4
18.370	81423.4
18.375	81413.4
18.380	81421.4
18.385	81412.4
18.390	81417.4
18.395	81395.4
18.400	81403.4
18.405	81429.4
18.410	81441.4
18.415	81433.4
18.420	81426.4
18.425	81428.4
18.430	81426.4
18.435	81420.4
18.440	81432.4
18.445	81432.4
18.450	81432.4
18.455	81438.3
18.460	81412.4
18.465	81406.4
18.470	81425.4
18.475	81420.4
18.480	81414.4
18.485	81422.4
18.490	81414.4
18.495	81416.4
18.500	81414.4
18.505	81400.4
18.510	81398.4
18.515	81410.4
18.520	81419.4
18.525	81371.4
18.530	81359.4
18.535	81357.4
18.540	81387.4
18.545	81388.4
18.550	81381.4
18.555	81368.4
18.560	81371.4
18.565	81369.4
18.570	81372.4
18.575	81376.4
18.580	81376.4
18.585	81356.4
18.590	81331.4
18.595	81291.4
18.600	81302.4
18.605	81334.4
18.610	81319.4
18.615	81315.4
18.620	81319.4
18.625	81306.4
18.630	81298.4
18.635	81282.4
18.640	81281.4
18.645	81274.4
18.650	81279.4
18.655	81281.4
18.660	81241.5
18.665	81243.5
18.670	81268.4
18.675	81279.4
18.680	81277.4
18.685	81263.4
18.690	81265.4
18.695	81255.5
18.700	81265.4
18.705	81265.4
18.710	81271.4
18.715	81274.4
18.720	81280.4
18.725	81256.4
18.730	81253.4
18.735	81249.4
18.740	81267.4
18.745	81248.4
18.750	81237.5
18.755	81236.5
18.760	81235.5
18.765	81241.5
18.770	81242.4
18.775	81227.5
18.780	81228.5
18.785	81221.5
18.790	81209.5
18.795	81193.5
18.800	81209.5
18.805	81205.5
18.810	81211.5
18.815	81207.5
18.820	81218.5
18.825	81228.4
18.830	81238.4
18.835	81220.5
18.840	81219.5
18.845	81219.5
18.850	81226.4
18.855	81235.4
18.860	81192.5
18.865	81178.5
18.870	81204.5
18.875	81213.5
18.880	81227.4
18.885	81204.5
18.890	81201.5
18.895	81203.5
18.900	81204.5
18.905	81198.5
18.910	81189.5
18.915	81184.5
18.920	81174.5
18.925	81155.5
18.930	81147.5
18.935	81151.5
18.940	81193.5
18.945	81176.5
18.950	81179.5
18.955	81174.5
18.960	81177.5
18.965	81157.5
18.970	81138.5
18.975	81126.5
18.980	81116.5
18.985	81109.5
18.990	81097.5
18.995	81046.6
19.000	81047.6
19.005	81057.5
19.010	81044.6
19.015	81038.6
19.020	81045.6
19.025	81036.6
19.030	81023.6
19.035	81030.6
19.040	81058.5
19.045	81070.5
19.050	81068.5
19.055	81055.5
19.060	81017.6
19.065	81007.6
19.070	81030.6
19.075	81046.5
19.080	81058.5
19.085	81079.5
19.090	81106.5
19.095	81124.5
19.100	81139.5
19.105	81164.4
19.110	81190.4
19.115	81187.4
19.120	81177.4
19.125	81149.4
19.130	81144.5
19.135	81177.4
19.140	81192.4
19.145	81188.4
19.150	81198.4
19.155	81186.4
19.160	81186.4
19.165	81182.4
19.170	81207.4
19.175	81198.4
19.180	81205.4
19.185	81201.4
19.190	81197.4
19.195	81173.4
19.200	81188.4
19.205	81220.4
19.210	81228.4
19.215	81212.4
19.220	81204.4
19.225	81209.4
19.230	81196.4
19.235	81212.4
19.240	81217.4
19.245	81207.4
19.250	81185.4
19.255	81186.4
19.260	81159.4
19.265	81181.4
19.270	81211.4
19.275	81224.4
19.280	81202.4
19.285	81173.4
19.290	81172.4
19.295	81158.4
19.300	81141.4
19.305	81126.4
19.310	81127.4
19.315	81114.4
19.320	81102.4
19.325	81062.5
19.330	81039.5
19.335	81041.5
19.340	81049.5
19.345	81036.5
19.350	81010.5
19.355	81000.5
19.360	80998.5
19.365	81004.5
19.370	81013.5
19.375	81016.5
19.380	81017.5
19.385	81021.5
19.390	81003.5
19.395	80985.5
19.400	80995.5
19.405	81005.5
19.410	81007.5
19.415	81022.5
19.420	81012.5
19.425	81005.5
19.430	81018.5
19.435	81031.5
19.440	81052.4
19.445	81063.4
19.450	81080.4
19.455	81088.4
19.460	81077.4
19.465	81089.4
19.470	81128.4
19.475	81145.4
19.480	81159.4
19.485	81157.4
19.490	81158.3
19.495	81168.3
19.500	81181.3
19.505	81176.3
19.510	81174.3
19.515	81155.3
19.520	81167.3
19.525	81130.4
19.530	81137.4
19.535	81161.3
19.540	81179.3
19.545	81163.3
19.550	81164.3
19.555	81173.3
19.560	81169.3
19.565	81172.3
19.570	81168.3
19.575	81164.3
19.580	81167.3
19.585	81165.3
19.590	81150.3
19.595	81109.4
19.600	81126.3
19.605	81153.3
19.610	81142.3
19.615	81130.3
19.620	81124.3
19.625	81105.3
19.630	81112.3
19.635	81097.4
19.640	81089.4
19.645	81088.4
19.650	81093.4
19.655	81078.4
19.660	81043.4
19.665	81054.4
19.670	81082.4
19.675	81078.4
19.680	81070.4
19.685	81049.4
19.690	81045.4
19.695	81032.4
19.700	81005.4
19.705	81009.4
19.710	81017.4
19.715	81009.4
19.720	81006.4
19.725	80971.4
19.730	80953.4
19.735	80971.4
19.740	81013.4
19.745	81022.4
19.750	81025.4
19.755	81033.4
19.760	81036.4
19.765	81004.4
19.770	80991.4
19.775	80981.4
19.780	80961.4
19.785	80933.4
19.790	80918.4
19.795	80902.5
19.800	80908.4
19.805	80902.5
19.810	80884.5
19.815	80893.5
19.820	80894.5
19.825	80870.5
19.830	80877.5
19.835	80850.5
19.840	80852.5
19.845	80869.5
19.850	80891.4
19.855	80884.4
19.860	80827.5
19.865	80809.5
19.870	80835.5
19.875	80862.5
19.880	80873.4
19.885	80870.4
19.890	80835.5
19.895	80799.5
19.900	80787.5
19.905	80784.5
19.910	80797.5
19.915	80793.5
19.920	80791.5
19.925	80755.5
19.930	80737.5
19.935	80739.5
19.940	80761.5
19.945	80752.5
19.950	80755.5
19.955	80744.5
19.960	80733.5
19.965	80725.5
19.970	80747.5
19.975	80744.5
19.980	80767.5
19.985	80791.5
19.990	80790.5
19.995	80788.5
20.000	80813.4
20.005	80862.4
20.010	80878.4
20.015	80893.4
20.020	80906.4
20.025	80918.3
20.030	80947.3
20.035	80963.3
20.040	80973.3
20.045	80975.3
20.050	80979.3
20.055	80971.3
20.060	80954.3
20.065	80959.3
20.070	80986.3
20.075	80989.3
20.080	80998.3
20.085	81007.2
20.090	81012.2
20.095	81006.2
20.100	81015.2
20.105	81027.2
20.110	81031.2
20.115	81024.2
20.120	81018.2
20.125	80987.2
20.130	80977.3
20.135	80995.2
20.140	81003.2
20.145	80994.2
20.150	80999.2
20.155	80986.2
20.160	80977.2
20.165	80978.2
20.170	80980.2
20.175	80974.2
20.180	80959.2
20.185	80947.2
20.190	80914.3
20.195	80898.3
20.200	80915.3
20.205	80928.2
20.210	80933.2
20.215	80935.2
20.220	80928.2
20.225	80925.2
20.230	80916.2
20.235	80900.3
20.240	80893.3
20.245	80899.2
20.250	80912.2
20.255	80895.2
20.260	80845.3
20.265	80839.3
20.270	80864.3
20.275	80851.3
20.280	80844.3
20.285	80830.3
20.290	80825.3
20.295	80804.3
20.300	80791.3
20.305	80770.3
20.310	80763.3
20.315	80752.3
20.320	80749.3
20.325	80685.4
20.330	80650.4
20.335	80647.4
20.340	80645.4
20.345	80639.4
20.350	80611.4
20.355	80579.4
20.360	80567.4
20.365	80595.4
20.370	80611.4
20.375	80620.4
20.380	80635.4
20.385	80637.4
20.390	80618.4
20.395	80597.4
20.400	80604.4
20.405	80638.3
20.410	80639.3
20.415	80624.4
20.420	80613.4
20.425	80602.4
20.430	80589.4
20.435	80568.4
20.440	80552.4
20.445	80551.4
20.450	80552.4
20.455	80520.4
20.460	80474.4
20.465	80437.5
20.470	80409.5
20.475	80364.5
20.480	80333.5
20.485	80307.5
20.490	80293.6
20.495	80256.6
20.500	80231.6
20.505	80209.6
20.510	80209.6
20.515	80236.6
20.520	80239.6
20.525	80205.6
20.530	80222.6
20.535	80245.6
20.540	80279.5
20.545	80292.5
20.550	80299.5
20.555	80316.5
20.560	80348.5
20.565	80366.4
20.570	80377.4
20.575	80352.4
20.580	80335.4
20.585	80319.4
20.590	80287.5
20.595	80268.5
20.600	80263.5
20.605	80244.5
20.610	80251.5
20.615	80257.5
20.620	80250.5
20.625	80212.5
20.630	80186.5
20.635	80161.5
20.640	80115.6
20.645	80037.6
20.650	79990.6
20.655	79932.7
20.660	79865.7
20.665	79860.7
20.670	79892.7
20.675	79867.7
20.680	79850.7
20.685	79851.7
20.690	79832.7
20.695	79797.7
20.700	79770.8
20.705	79741.8
20.710	79747.8
20.715	79798.7
20.720	79828.7
20.725	79805.7
20.730	79830.7
20.735	79874.6
20.740	79902.6
20.745	79914.6
20.750	79920.6
20.755	79907.6
20.760	79885.6
20.765	79828.6
20.770	79797.7
20.775	79754.7
20.780	79720.7
20.785	79663.7
20.790	79593.8
20.795	79521.8
20.800	79483.9
20.805	79446.9
20.810	79367.9
20.815	79348.9
20.820	79344.9
20.825	79328.9
20.830	79331.9
20.835	79305.9
20.840	79260.0
20.845	79190.0
20.850	79097.1
20.855	79007.1
20.860	79002.1
20.865	79059.1
20.870	79127.0
20.875	79152.0
20.880	79197.9
20.885	79205.9
20.890	79237.9
20.895	79263.9
20.900	79287.8
20.905	79288.8
20.910	79310.8
20.915	79297.8
20.920	79298.8
20.925	79254.8
20.930	79266.8
20.935	79307.8
20.940	79339.7
20.945	79313.7
20.950	79298.7
20.955	79292.7
20.960	79284.7
20.965	79257.7
20.970	79233.7
20.975	79163.8
20.980	79052.9
20.985	78961.9
20.990	78843.0
20.995	78714.1
21.000	78632.1
21.005	78574.2
21.010	78464.3
21.015	78410.3
21.020	78424.3
21.025	78432.2
21.030	78415.3
21.035	78505.2
21.040	78667.0
21.045	78849.9
21.050	78985.7
21.055	78954.8
21.060	78879.8
21.065	78777.9
21.070	78644.0
21.075	78410.1
21.080	78188.3
21.085	78032.4
21.090	77966.4
21.095	78044.4
21.100	78356.1
21.105	78613.9
21.110	78712.8
21.115	78810.7
21.120	78984.5
21.125	79199.4
21.130	79388.2
21.135	79476.1
21.140	79476.1
21.145	79396.1
21.150	79225.2
21.155	79017.4
21.160	78988.4
21.165	79097.3
21.170	79228.1
21.175	79342.0
21.180	79385.0
21.185	79327.0
21.190	79119.1
21.195	78973.2
21.200	78960.2
21.205	79001.1
21.210	79011.1
21.215	78785.2
21.220	78188.7
21.225	77697.0
21.230	77220.4
21.235	76611.8
21.240	76464.9
21.245	76813.6
21.250	76938.5
21.255	76625.7
21.260	76736.6
21.265	77769.7
21.270	78543.0
21.275	78254.2
21.280	77992.4
21.285	78008.3
21.290	77890.3
21.295	77640.5
21.300	77632.4
21.305	77785.2
21.310	77296.6
21.315	75439.0
21.320	72840.0
21.325	72253.4
21.330	73727.1
21.335	74078.7
21.340	73323.3
21.345	73524.0
21.350	75890.9
21.355	77245.8
21.360	76898.0
21.365	76217.4
21.370	75746.7
21.375	75304.9
21.380	74931.1
21.385	74553.5
21.390	74151.8
21.395	74140.8
21.400	74538.6
21.405	74839.5
21.410	74843.7
21.415	74807.0
21.420	74995.2
21.425	75551.2
21.430	76380.9
21.435	77265.6
21.440	78115.4
21.445	78960.2
21.450	79850.0
21.455	80675.8
21.460	81374.6
21.465	81913.4
21.470	82314.3
21.475	82517.2
21.480	82634.2
21.485	82687.1
21.490	82722.1
21.495	82731.1
21.500	82748.1
21.505	82757.1
21.510	82761.1
21.515	82754.1
21.520	82747.1
21.525	82719.1
21.530	82731.1
21.535	82761.1
21.540	82770.1
21.545	82759.1
21.550	82764.1
21.555	82753.1
21.560	82761.1
21.565	82759.1
21.570	82761.1
21.575	82753.1
21.580	82764.1
21.585	82763.1
21.590	82732.1
21.595	82730.1
21.600	82750.1
21.605	82772.1
21.610	82769.1
21.615	82769.1
21.620	82768.1
21.625	82774.1
21.630	82781.1
21.635	82773.1
21.640	82774.1
21.645	82771.1
21.650	82781.1
21.655	82747.1
21.660	82746.1
21.665	82753.1
21.670	82780.1
21.675	82774.1
21.680	82774.1
21.685	82767.1
21.690	82775.1
21.695	82771.1
21.700	82771.1
21.705	82768.1
21.710	82766.1
21.715	82771.1
21.720	82764.1
21.725	82741.1
21.730	82750.1
21.735	82774.1
21.740	82777.1
21.745	82778.1
21.750	82776.1
21.755	82777.1
21.760	82778.1
21.765	82784.1
21.770	82789.1
21.775	82784.1
21.780	82782.1
21.785	82782.1
21.790	82754.1
21.795	82747.1
21.800	82777.1
21.805	82786.1
21.810	82777.1
21.815	82768.1
21.820	82768.1
21.825	82769.1
21.830	82778.1
21.835	82768.1
21.840	82775.1
21.845	82772.1
21.850	82780.1
21.855	82751.1
21.860	82745.1
21.865	82746.1
21.870	82780.1
21.875	82777.1
21.880	82783.1
21.885	82784.1
21.890	82776.1
21.895	82788.1
21.900	82784.1
21.905	82785.1
21.910	82775.1
21.915	82782.1
21.920	82767.1
21.925	82748.1
21.930	82761.1
21.935	82776.1
21.940	82787.1
21.945	82773.1
21.950	82776.1
21.955	82779.1
21.960	82773.1
21.965	82779.1
21.970	82773.1
21.975	82776.1
21.980	82784.1
21.985	82783.1
21.990	82760.1
21.995	82745.1
22.000	82767.1
22.005	82782.1
22.010	82788.1
22.015	82787.1
22.020	82786.1
22.025	82790.1
22.030	82778.1
22.035	82788.1
22.040	82784.1
22.045	82790.1
22.050	82788.1
22.055	82760.1
22.060	82751.1
22.065	82765.1
22.070	82792.1
22.075	82782.1
22.080	82785.1
22.085	82780.1
22.090	82780.1
22.095	82774.1
22.100	82783.1
22.105	82779.1
22.110	82776.1
22.115	82781.1
22.120	82774.1
22.125	82748.1
22.130	82756.1
22.135	82783.1
22.140	82797.1
22.145	82780.1
22.150	82789.1
22.155	82777.1
22.160	82788.1
22.165	82781.1
22.170	82795.1
22.175	82782.1
22.180	82788.1
22.185	82790.1
22.190	82757.1
22.195	82764.1
22.200	82786.1
22.205	82792.1
22.210	82792.1
22.215	82779.1
22.220	82785.1
22.225	82781.1
22.230	82777.1
22.235	82778.1
22.240	82780.1
22.245	82781.1
22.250	82795.1
22.255	82761.1
22.260	82746.1
22.265	82753.1
22.270	82790.1
22.275	82784.1
22.280	82783.1
22.285	82779.1
22.290	82777.1
22.295	82791.1
22.300	82788.1
22.305	82785.1
22.310	82795.1
22.315	82787.1
22.320	82779.1
22.325	82746.1
22.330	82761.1
22.335	82791.1
22.340	82793.1
22.345	82779.1
22.350	82780.1
22.355	82775.1
22.360	82779.1
22.365	82777.1
22.370	82780.1
22.375	82783.1
22.380	82784.1
22.385	82781.1
22.390	82748.1
22.395	82750.1
22.400	82774.1
22.405	82788.1
22.410	82790.1
22.415	82787.1
22.420	82783.1
22.425	82785.1
22.430	82787.1
22.435	82782.1
22.440	82792.1
22.445	82794.1
22.450	82790.1
22.455	82754.1
22.460	82751.1
22.465	82774.1
22.470	82795.1
22.475	82785.1
22.480	82792.1
22.485	82778.1
22.490	82778.1
22.495	82777.1
22.500	82780.1
22.505	82781.1
22.510	82787.1
22.515	82783.1
22.520	82777.1
22.525	82748.1
22.530	82766.1
22.535	82785.1
22.540	82784.1
22.545	82792.1
22.550	82792.1
22.555	82789.1
22.560	82796.1
22.565	82784.1
22.570	82798.1
22.575	82795.1
22.580	82797.1
22.585	82785.1
22.590	82761.1
22.595	82764.1
22.600	82796.1
22.605	82790.1
22.610	82792.1
22.615	82778.1
22.620	82785.1
22.625	82783.1
22.630	82782.1
22.635	82780.1
22.640	82793.1
22.645	82790.1
22.650	82795.1
22.655	82759.1
22.660	82761.1
22.665	82763.1
22.670	82791.1
22.675	82786.1
22.680	82790.1
22.685	82791.1
22.690	82786.1
22.695	82791.1
22.700	82788.1
22.705	82789.1
22.710	82793.1
22.715	82793.1
22.720	82777.1
22.725	82752.1
22.730	82768.1
22.735	82786.1
22.740	82791.1
22.745	82790.1
22.750	82787.1
22.755	82787.1
22.760	82778.1
22.765	82786.1
22.770	82794.1
22.775	82792.1
22.780	82801.1
22.785	82792.1
22.790	82763.1
22.795	82765.1
22.800	82781.1
22.805	82787.1
22.810	82788.1
22.815	82785.1
22.820	82794.1
22.825	82791.1
22.830	82798.1
22.835	82792.1
22.840	82799.1
22.845	82796.1
22.850	82793.1
22.855	82759.1
22.860	82755.1
22.865	82775.1
22.870	82796.1
22.875	82789.1
22.880	82783.1
22.885	82768.1
22.890	82770.1
22.895	82761.1
22.900	82767.1
22.905	82766.1
22.910	82774.1
22.915	82775.1
22.920	82768.1
22.925	82741.1
22.930	82760.1
22.935	82778.1
22.940	82795.1
22.945	82783.1
22.950	82791.1
22.955	82777.1
22.960	82791.1
22.965	82797.1
22.970	82793.1
22.975	82798.1
22.980	82787.1
22.985	82785.1
22.990	82758.1
22.995	82767.1
23.000	82788.1
23.005	82792.1
23.010	82784.1
23.015	82781.1
23.020	82783.1
23.025	82780.1
23.030	82778.1
23.035	82776.1
23.040	82789.1
23.045	82781.1
23.050	82787.1
23.055	82756.1
23.060	82755.1
23.065	82760.1
23.070	82789.1
23.075	82784.1
23.080	82788.1
23.085	82775.1
23.090	82782.1
23.095	82779.1
23.100	82789.1
23.105	82787.1
23.110	82792.1
23.115	82790.1
23.120	82759.1
23.125	82744.1
23.130	82770.1
23.135	82793.1
23.140	82790.1
23.145	82775.1
23.150	82771.1
23.155	82777.1
23.160	82777.1
23.165	82773.1
23.170	82776.1
23.175	82769.1
23.180	82772.1
23.185	82772.1
23.190	82744.1
23.195	82743.1
23.200	82765.1
23.205	82778.1
23.210	82782.1
23.215	82778.1
23.220	82779.1
23.225	82779.1
23.230	82788.1
23.235	82784.1
23.240	82788.1
23.245	82785.1
23.250	82785.1
23.255	82744.1
23.260	82750.1
23.265	82776.1
23.270	82784.1
23.275	82784.1
23.280	82781.1
23.285	82774.1
23.290	82773.1
23.295	82772.1
23.300	82772.1
23.305	82776.1
23.310	82776.1
23.315	82783.1
23.320	82762.1
23.325	82741.1
23.330	82753.1
23.335	82779.1
23.340	82780.1
23.345	82778.1
23.350	82782.1
23.355	82788.1
23.360	82783.1
23.365	82777.1
23.370	82786.1
23.375	82785.1
23.380	82779.1
23.385	82777.1
23.390	82751.1
23.395	82760.1
23.400	82788.1
23.405	82787.1
23.410	82784.1
23.415	82773.1
23.420	82780.1
23.425	82772.1
23.430	82767.1
23.435	82768.1
23.440	82776.1
23.445	82784.1
23.450	82780.1
23.455	82751.1
23.460	82750.1
23.465	82762.1
23.470	82780.1
23.475	82783.1
23.480	82790.1
23.485	82782.1
23.490	82786.1
23.495	82785.1
23.500	82794.1
23.505	82775.1
23.510	82782.1
23.515	82783.1
23.520	82761.1
23.525	82752.1
23.530	82769.1
23.535	82783.1
23.540	82786.1
23.545	82772.1
23.550	82778.1
23.555	82776.1
23.560	82780.1
23.565	82772.1
23.570	82778.1
23.575	82773.1
23.580	82784.1
23.585	82777.1
23.590	82743.1
23.595	82747.1
23.600	82775.1
23.605	82780.1
23.610	82778.1
23.615	82783.1
23.620	82786.1
23.625	82784.1
23.630	82788.1
23.635	82790.1
23.640	82791.1
23.645	82783.1
23.650	82784.1
23.655	82751.1
23.660	82761.1
23.665	82779.1
23.670	82795.1
23.675	82781.1
23.680	82782.1
23.685	82779.1
23.690	82776.1
23.695	82779.1
23.700	82791.1
23.705	82778.1
23.710	82783.1
23.715	82781.1
23.720	82757.1
23.725	82743.1
23.730	82762.1
23.735	82780.1
23.740	82773.1
23.745	82777.1
23.750	82777.1
23.755	82780.1
23.760	82786.1
23.765	82779.1
23.770	82787.1
23.775	82787.1
23.780	82781.1
23.785	82770.1
23.790	82752.1
23.795	82758.1
23.800	82786.1
23.805	82784.1
23.810	82783.1
23.815	82775.1
23.820	82777.1
23.825	82779.1
23.830	82778.1
23.835	82769.1
23.840	82778.1
23.845	82776.1
23.850	82785.1
23.855	82745.1
23.860	82746.1
23.865	82752.1
23.870	82774.1
23.875	82775.1
23.880	82777.1
23.885	82773.1
23.890	82788.1
23.895	82784.1
23.900	82788.1
23.905	82786.1
23.910	82782.1
23.915	82782.1
23.920	82753.1
23.925	82743.1
23.930	82760.1
23.935	82785.1
23.940	82778.1
23.945	82773.1
23.950	82779.1
23.955	82775.1
23.960	82766.1
23.965	82774.1
23.970	82780.1
23.975	82771.1
23.980	82778.1
23.985	82761.1
23.990	82735.1
23.995	82743.1
24.000	82772.1
24.005	82775.1
24.010	82791.1
24.015	82776.1
24.020	82782.1
24.025	82773.1
24.030	82787.1
24.035	82777.1
24.040	82786.1
24.045	82781.1
24.050	82777.1
24.055	82742.1
24.060	82754.1
24.065	82767.1
24.070	82780.1
24.075	82777.1
24.080	82775.1
24.085	82772.1
24.090	82765.1
24.095	82771.1
24.100	82762.1
24.105	82773.1
24.110	82774.1
24.115	82770.1
24.120	82750.1
24.125	82732.1
24.130	82752.1
24.135	82777.1
24.140	82781.1
24.145	82774.1
24.150	82775.1
24.155	82771.1
24.160	82771.1
24.165	82781.1
24.170	82774.1
24.175	82777.1
24.180	82778.1
24.185	82755.1
24.190	82735.1
24.195	82756.1
24.200	82781.1
24.205	82782.1
24.210	82781.1
24.215	82766.1
24.220	82765.1
24.225	82760.1
24.230	82764.1
24.235	82763.1
24.240	82774.1
24.245	82761.1
24.250	82773.1
24.255	82733.1
24.260	82741.1
24.265	82760.1
24.270	82783.1
24.275	82770.1
24.280	82779.1
24.285	82770.1
24.290	82774.1
24.295	82769.1
24.300	82771.1
24.305	82776.1
24.310	82777.1
24.315	82775.1
24.320	82744.1
24.325	82733.1
24.330	82767.1
24.335	82780.1
24.340	82779.1
24.345	82759.1
24.350	82774.1
24.355	82762.1
24.360	82757.1
24.365	82765.1
24.370	82768.1
24.375	82763.1
24.380	82765.1
24.385	82752.1
24.390	82730.1
24.395	82736.1
24.400	82772.1
24.405	82774.1
24.410	82773.1
24.415	82774.1
24.420	82781.1
24.425	82764.1
24.430	82781.1
24.435	82776.1
24.440	82782.1
24.445	82771.1
24.450	82776.1
24.455	82742.1
24.460	82746.1
24.465	82768.1
24.470	82774.1
24.475	82770.1
24.480	82769.1
24.485	82767.1
24.490	82764.1
24.495	82769.1
24.500	82765.1
24.505	82764.1
24.510	82769.1
24.515	82765.1
24.520	82739.1
24.525	82730.1
24.530	82747.1
24.535	82770.1
24.540	82773.1
24.545	82780.1
24.550	82774.1
24.555	82771.1
24.560	82773.1
24.565	82775.1
24.570	82773.1
24.575	82774.1
24.580	82783.1
24.585	82748.1
24.590	82741.1
24.595	82749.1
24.600	82785.1
24.605	82767.1
24.610	82767.1
24.615	82754.1
24.620	82767.1
24.625	82752.1
24.630	82766.1
24.635	82758.1
24.640	82769.1
24.645	82766.1
24.650	82767.1
24.655	82730.1
24.660	82741.1
24.665	82757.1
24.670	82781.1
24.675	82766.1
24.680	82764.1
24.685	82768.1
24.690	82770.1
24.695	82774.1
24.700	82774.1
24.705	82774.1
24.710	82770.1
24.715	82771.1
24.720	82746.1
24.725	82737.1
24.730	82763.1
24.735	82776.1
24.740	82768.1
24.745	82758.1
24.750	82762.1
24.755	82753.1
24.760	82766.1
24.765	82767.1
24.770	82761.1
24.775	82769.1
24.780	82775.1
24.785	82748.1
24.790	82729.1
24.795	82740.1
24.800	82772.1
24.805	82760.1
24.810	82775.1
24.815	82769.1
24.820	82783.1
24.825	82772.1
24.830	82776.1
24.835	82775.1
24.840	82774.1
24.845	82770.1
24.850	82770.1
24.855	82740.1
24.860	82743.1
24.865	82773.1
24.870	82775.1
24.875	82768.1
24.880	82767.1
24.885	82773.1
24.890	82773.1
24.895	82763.1
24.900	82766.1
24.905	82767.1
24.910	82771.1
24.915	82764.1
24.920	82741.1
24.925	82731.1
24.930	82755.1
24.935	82768.1
24.940	82774.1
24.945	82769.1
24.950	82776.1
24.955	82773.1
24.960	82783.1
24.965	82779.1
24.970	82786.1
24.975	82777.1
24.980	82773.1
24.985	82750.1
24.990	82742.1
24.995	82754.1
25.000	82776.1
25.005	82781.1
25.010	82768.1
25.015	82762.1
25.020	82764.1
25.025	82768.1
25.030	82765.1
25.035	82764.1
25.040	82772.1
25.045	82764.1
25.050	82765.1
25.055	82730.1
25.060	82735.1
25.065	82762.1
25.070	82783.1
25.075	82767.1
25.080	82774.1
25.085	82763.1
25.090	82773.1
25.095	82779.1
25.100	82784.1
25.105	82774.1
25.110	82782.1
25.115	82777.1
25.120	82749.1
25.125	82745.1
25.130	82766.1
25.135	82773.1
25.140	82774.1
25.145	82768.1
25.150	82760.1
25.155	82765.1
25.160	82770.1
25.165	82770.1
25.170	82767.1
25.175	82767.1
25.180	82770.1
25.185	82759.1
25.190	82736.1
25.195	82741.1
25.200	82776.1
25.205	82775.1
25.210	82778.1
25.215	82773.1
25.220	82772.1
25.225	82774.1
25.230	82772.1
25.235	82769.1
25.240	82781.1
25.245	82775.1
25.250	82766.1
25.255	82741.1
25.260	82762.1
25.265	82775.1
25.270	82783.1
25.275	82768.1
25.280	82775.1
25.285	82768.1
25.290	82774.1
25.295	82765.1
25.300	82772.1
25.305	82772.1
25.310	82762.1
25.315	82778.1
25.320	82738.1
25.325	82736.1
25.330	82754.1
25.335	82766.1
25.340	82773.1
25.345	82777.1
25.350	82777.1
25.355	82777.1
25.360	82780.1
25.365	82780.1
25.370	82777.1
25.375	82784.1
25.380	82781.1
25.385	82753.1
25.390	82744.1
25.395	82766.1
25.400	82788.1
25.405	82769.1
25.410	82772.1
25.415	82761.1
25.420	82776.1
25.425	82767.1
25.430	82764.1
25.435	82773.1
25.440	82774.1
25.445	82777.1
25.450	82770.1
25.455	82745.1
25.460	82749.1
25.465	82773.1
25.470	82778.1
25.475	82778.1
25.480	82777.1
25.485	82779.1
25.490	82787.1
25.495	82785.1
25.500	82778.1
25.505	82783.1
25.510	82785.1
25.515	82778.1
25.520	82756.1
25.525	82756.1
25.530	82773.1
25.535	82787.1
25.540	82780.1
25.545	82770.1
25.550	82775.1
25.555	82768.1
25.560	82767.1
25.565	82765.1
25.570	82784.1
25.575	82769.1
25.580	82785.1
25.585	82753.1
25.590	82742.1
25.595	82758.1
25.600	82786.1
25.605	82781.1
25.610	82782.1
25.615	82790.1
25.620	82783.1
25.625	82780.1
25.630	82781.1
25.635	82785.1
25.640	82790.1
25.645	82783.1
25.650	82771.1
25.655	82746.1
25.660	82757.1
25.665	82788.1
25.670	82788.1
25.675	82780.1
25.680	82779.1
25.685	82782.1
25.690	82787.1
25.695	82779.1
25.700	82785.1
25.705	82781.1
25.710	82792.1
25.715	82786.1
25.720	82750.1
25.725	82757.1
25.730	82774.1
25.735	82789.1
25.740	82790.1
25.745	82790.1
25.750	82795.1
25.755	82786.1
25.760	82786.1
25.765	82793.1
25.770	82795.1
25.775	82785.1
25.780	82797.1
25.785	82763.1
25.790	82753.1
25.795	82770.1
25.800	82794.1
25.805	82788.1
25.810	82788.1
25.815	82780.1
25.820	82777.1
25.825	82779.1
25.830	82782.1
25.835	82781.1
25.840	82786.1
25.845	82782.1
25.850	82785.1
25.855	82754.1
25.860	82768.1
25.865	82778.1
25.870	82789.1
25.875	82793.1
25.880	82801.1
25.885	82784.1
25.890	82792.1
25.895	82792.1
25.900	82792.1
25.905	82793.1
25.910	82791.1
25.915	82791.1
25.920	82762.1
25.925	82761.1
25.930	82786.1
25.935	82789.1
25.940	82789.1
25.945	82788.1
25.950	82785.1
25.955	82777.1
25.960	82787.1
25.965	82785.1
25.970	82788.1
25.975	82790.1
25.980	82794.1
25.985	82760.1
25.990	82756.1
25.995	82766.1
26.000	82799.1
26.005	82785.1
26.010	82796.1
26.015	82796.1
26.020	82792.1
26.025	82794.1
26.030	82804.1
26.035	82786.1
26.040	82798.1
26.045	82789.1
26.050	82776.1
26.055	82751.1
26.060	82776.1
26.065	82798.1
26.070	82799.1
26.075	82791.1
26.080	82783.1
26.085	82787.1
26.090	82787.1
26.095	82785.1
26.100	82792.1
26.105	82790.1
26.110	82786.1
26.115	82786.1
26.120	82762.1
26.125	82753.1
26.130	82776.1
26.135	82785.1
26.140	82788.1
26.145	82793.1
26.150	82798.1
26.155	82787.1
26.160	82805.1
26.165	82801.1
26.170	82801.1
26.175	82793.1
26.180	82802.1
26.185	82756.1
26.190	82757.1
26.195	82776.1
26.200	82799.1
26.205	82786.1
26.210	82793.1
26.215	82782.1
26.220	82788.1
26.225	82784.1
26.230	82789.1
26.235	82786.1
26.240	82789.1
26.245	82795.1
26.250	82767.1
26.255	82755.1
26.260	82759.1
26.265	82791.1
26.270	82794.1
26.275	82794.1
26.280	82793.1
26.285	82787.1
26.290	82795.1
26.295	82794.1
26.300	82802.1
26.305	82797.1
26.310	82792.1
26.315	82785.1
26.320	82763.1
26.325	82767.1
26.330	82791.1
26.335	82797.1
26.340	82790.1
26.345	82781.1
26.350	82780.1
26.355	82781.1
26.360	82785.1
26.365	82788.1
26.370	82787.1
26.375	82785.1
26.380	82791.1
26.385	82766.1
26.390	82755.1
26.395	82765.1
26.400	82791.1
26.405	82795.1
26.410	82791.1
26.415	82794.1
26.420	82796.1
26.425	82792.1
26.430	82804.1
