PK2650 Power Data
Z Position (mm)	105.000	W Position (deg)	144.00
Preform ID	Diameter (mm)	Time Stamp	Start Time	Operator	Serial Number
Test 1	25	03-Nov-22 18:05:01	03-Nov-22 18:06:59	[no user]	266007708
Radius (mm)	Power
-26.280	82776.1
-26.275	82769.2
-26.270	82777.1
-26.265	82781.1
-26.260	82794.1
-26.255	82789.1
-26.250	82768.2
-26.245	82748.2
-26.240	82769.2
-26.235	82794.1
-26.230	82786.1
-26.225	82793.1
-26.220	82793.1
-26.215	82790.1
-26.210	82809.1
-26.205	82811.1
-26.200	82815.1
-26.195	82809.1
-26.190	82811.1
-26.185	82789.1
-26.180	82779.1
-26.175	82795.1
-26.170	82824.1
-26.165	82816.1
-26.160	82811.1
-26.155	82798.1
-26.150	82802.1
-26.145	82810.1
-26.140	82808.1
-26.135	82811.1
-26.130	82818.1
-26.125	82819.1
-26.120	82828.1
-26.115	82786.1
-26.110	82800.1
-26.105	82812.1
-26.100	82823.1
-26.095	82829.1
-26.090	82828.1
-26.085	82826.1
-26.080	82828.1
-26.075	82830.1
-26.070	82842.1
-26.065	82829.1
-26.060	82839.1
-26.055	82828.1
-26.050	82806.1
-26.045	82802.1
-26.040	82820.1
-26.035	82832.1
-26.030	82827.1
-26.025	82828.1
-26.020	82826.1
-26.015	82830.1
-26.010	82824.1
-26.005	82831.1
-26.000	82832.1
-25.995	82843.1
-25.990	82850.1
-25.985	82833.1
-25.980	82810.1
-25.975	82812.1
-25.970	82845.1
-25.965	82843.1
-25.960	82849.1
-25.955	82844.1
-25.950	82842.1
-25.945	82848.1
-25.940	82847.1
-25.935	82855.1
-25.930	82864.1
-25.925	82859.1
-25.920	82847.1
-25.915	82818.1
-25.910	82829.1
-25.905	82845.1
-25.900	82849.1
-25.895	82853.1
-25.890	82846.1
-25.885	82839.1
-25.880	82847.1
-25.875	82849.1
-25.870	82846.1
-25.865	82844.1
-25.860	82862.1
-25.855	82848.1
-25.850	82834.1
-25.845	82823.1
-25.840	82831.1
-25.835	82845.1
-25.830	82857.1
-25.825	82855.1
-25.820	82859.1
-25.815	82859.1
-25.810	82863.1
-25.805	82870.1
-25.800	82869.1
-25.795	82867.1
-25.790	82863.1
-25.785	82844.1
-25.780	82826.1
-25.775	82836.1
-25.770	82866.1
-25.765	82850.1
-25.760	82857.1
-25.755	82847.1
-25.750	82851.1
-25.745	82857.1
-25.740	82858.1
-25.735	82861.1
-25.730	82861.1
-25.725	82864.1
-25.720	82863.1
-25.715	82828.1
-25.710	82830.1
-25.705	82848.1
-25.700	82860.1
-25.695	82865.1
-25.690	82860.1
-25.685	82854.1
-25.680	82859.1
-25.675	82862.1
-25.670	82857.1
-25.665	82867.1
-25.660	82874.1
-25.655	82858.1
-25.650	82842.1
-25.645	82839.1
-25.640	82854.1
-25.635	82859.1
-25.630	82857.1
-25.625	82850.1
-25.620	82853.1
-25.615	82848.1
-25.610	82863.1
-25.605	82850.1
-25.600	82853.1
-25.595	82858.1
-25.590	82862.1
-25.585	82833.1
-25.580	82818.1
-25.575	82827.1
-25.570	82858.1
-25.565	82850.1
-25.560	82853.1
-25.555	82856.1
-25.550	82860.1
-25.545	82864.1
-25.540	82867.1
-25.535	82872.1
-25.530	82863.1
-25.525	82859.1
-25.520	82854.1
-25.515	82831.1
-25.510	82841.1
-25.505	82853.1
-25.500	82860.1
-25.495	82842.1
-25.490	82846.1
-25.485	82849.1
-25.480	82850.1
-25.475	82857.1
-25.470	82856.1
-25.465	82847.1
-25.460	82858.1
-25.455	82862.1
-25.450	82826.1
-25.445	82817.1
-25.440	82836.1
-25.435	82861.1
-25.430	82852.1
-25.425	82854.1
-25.420	82857.1
-25.415	82853.1
-25.410	82854.1
-25.405	82856.1
-25.400	82864.1
-25.395	82854.1
-25.390	82859.1
-25.385	82833.1
-25.380	82827.1
-25.375	82834.1
-25.370	82862.1
-25.365	82843.1
-25.360	82847.1
-25.355	82841.1
-25.350	82841.1
-25.345	82836.1
-25.340	82854.1
-25.335	82841.1
-25.330	82850.1
-25.325	82855.1
-25.320	82850.1
-25.315	82813.1
-25.310	82817.1
-25.305	82839.1
-25.300	82853.1
-25.295	82845.1
-25.290	82853.1
-25.285	82848.1
-25.280	82859.1
-25.275	82856.1
-25.270	82863.1
-25.265	82855.1
-25.260	82856.1
-25.255	82848.1
-25.250	82834.1
-25.245	82826.1
-25.240	82840.1
-25.235	82857.1
-25.230	82848.1
-25.225	82849.1
-25.220	82846.1
-25.215	82840.1
-25.210	82835.1
-25.205	82837.1
-25.200	82848.1
-25.195	82846.1
-25.190	82853.1
-25.185	82829.1
-25.180	82812.1
-25.175	82824.1
-25.170	82851.1
-25.165	82845.1
-25.160	82844.1
-25.155	82842.1
-25.150	82848.1
-25.145	82845.1
-25.140	82847.1
-25.135	82850.1
-25.130	82850.1
-25.125	82843.1
-25.120	82849.1
-25.115	82816.1
-25.110	82817.1
-25.105	82838.1
-25.100	82846.1
-25.095	82840.1
-25.090	82836.1
-25.085	82833.1
-25.080	82842.1
-25.075	82835.1
-25.070	82849.1
-25.065	82836.1
-25.060	82842.1
-25.055	82842.1
-25.050	82814.1
-25.045	82805.1
-25.040	82821.1
-25.035	82836.1
-25.030	82829.1
-25.025	82842.1
-25.020	82837.1
-25.015	82838.1
-25.010	82847.1
-25.005	82846.1
-25.000	82853.1
-24.995	82853.1
-24.990	82849.1
-24.985	82817.1
-24.980	82803.1
-24.975	82814.1
-24.970	82834.1
-24.965	82835.1
-24.960	82827.1
-24.955	82816.1
-24.950	82824.1
-24.945	82817.1
-24.940	82823.1
-24.935	82822.1
-24.930	82829.1
-24.925	82826.1
-24.920	82827.1
-24.915	82796.1
-24.910	82802.1
-24.905	82819.1
-24.900	82830.1
-24.895	82817.1
-24.890	82826.1
-24.885	82823.1
-24.880	82825.1
-24.875	82827.1
-24.870	82830.1
-24.865	82824.1
-24.860	82831.1
-24.855	82820.1
-24.850	82797.1
-24.845	82796.1
-24.840	82825.1
-24.835	82820.1
-24.830	82809.1
-24.825	82808.1
-24.820	82809.1
-24.815	82812.1
-24.810	82803.1
-24.805	82803.1
-24.800	82812.1
-24.795	82818.1
-24.790	82823.1
-24.785	82790.1
-24.780	82779.1
-24.775	82791.1
-24.770	82814.1
-24.765	82798.1
-24.760	82808.1
-24.755	82802.1
-24.750	82812.1
-24.745	82806.1
-24.740	82809.1
-24.735	82809.1
-24.730	82814.1
-24.725	82814.1
-24.720	82797.1
-24.715	82770.2
-24.710	82784.1
-24.705	82807.1
-24.700	82804.1
-24.695	82784.1
-24.690	82786.1
-24.685	82789.1
-24.680	82788.1
-24.675	82793.1
-24.670	82802.1
-24.665	82796.1
-24.660	82795.1
-24.655	82789.1
-24.650	82767.2
-24.645	82763.2
-24.640	82773.2
-24.635	82801.1
-24.630	82788.1
-24.625	82787.1
-24.620	82788.1
-24.615	82785.1
-24.610	82797.1
-24.605	82796.1
-24.600	82806.1
-24.595	82791.1
-24.590	82797.1
-24.585	82776.2
-24.580	82764.2
-24.575	82771.2
-24.570	82800.1
-24.565	82794.1
-24.560	82776.2
-24.555	82775.2
-24.550	82779.2
-24.545	82781.2
-24.540	82777.2
-24.535	82782.1
-24.530	82783.1
-24.525	82794.1
-24.520	82775.2
-24.515	82747.2
-24.510	82763.2
-24.505	82782.1
-24.500	82787.1
-24.495	82780.1
-24.490	82778.1
-24.485	82781.1
-24.480	82787.1
-24.475	82776.1
-24.470	82782.1
-24.465	82788.1
-24.460	82782.1
-24.455	82782.1
-24.450	82758.2
-24.445	82756.2
-24.440	82775.2
-24.435	82774.2
-24.430	82781.2
-24.425	82766.2
-24.420	82768.2
-24.415	82762.2
-24.410	82777.2
-24.405	82773.2
-24.400	82774.2
-24.395	82772.2
-24.390	82776.1
-24.385	82751.2
-24.380	82732.2
-24.375	82749.2
-24.370	82770.2
-24.365	82758.2
-24.360	82768.2
-24.355	82760.2
-24.350	82769.2
-24.345	82776.2
-24.340	82777.2
-24.335	82771.2
-24.330	82776.1
-24.325	82769.2
-24.320	82758.2
-24.315	82728.2
-24.310	82752.2
-24.305	82781.1
-24.300	82774.2
-24.295	82755.2
-24.290	82763.2
-24.285	82759.2
-24.280	82764.2
-24.275	82762.2
-24.270	82759.2
-24.265	82766.2
-24.260	82768.2
-24.255	82768.2
-24.250	82733.2
-24.245	82742.2
-24.240	82761.2
-24.235	82762.2
-24.230	82765.2
-24.225	82770.2
-24.220	82769.2
-24.215	82758.2
-24.210	82778.2
-24.205	82780.2
-24.200	82780.1
-24.195	82776.2
-24.190	82775.2
-24.185	82744.2
-24.180	82738.2
-24.175	82761.2
-24.170	82781.1
-24.165	82763.2
-24.160	82757.2
-24.155	82760.2
-24.150	82766.2
-24.145	82759.2
-24.140	82764.2
-24.135	82763.2
-24.130	82767.2
-24.125	82767.2
-24.120	82759.2
-24.115	82729.2
-24.110	82739.2
-24.105	82769.2
-24.100	82774.2
-24.095	82764.2
-24.090	82776.2
-24.085	82769.2
-24.080	82775.2
-24.075	82784.1
-24.070	82776.2
-24.065	82776.2
-24.060	82778.2
-24.055	82764.2
-24.050	82736.2
-24.045	82748.2
-24.040	82759.2
-24.035	82769.2
-24.030	82762.2
-24.025	82755.2
-24.020	82749.2
-24.015	82755.2
-24.010	82756.2
-24.005	82758.2
-24.000	82770.2
-23.995	82764.2
-23.990	82770.2
-23.985	82744.2
-23.980	82740.2
-23.975	82749.2
-23.970	82769.2
-23.965	82765.2
-23.960	82772.2
-23.955	82760.2
-23.950	82769.2
-23.945	82777.2
-23.940	82783.2
-23.935	82780.1
-23.930	82787.1
-23.925	82782.1
-23.920	82759.2
-23.915	82736.2
-23.910	82764.2
-23.905	82773.2
-23.900	82782.2
-23.895	82755.2
-23.890	82766.2
-23.885	82768.2
-23.880	82773.2
-23.875	82773.2
-23.870	82781.1
-23.865	82784.1
-23.860	82774.2
-23.855	82783.1
-23.850	82744.2
-23.845	82748.2
-23.840	82771.2
-23.835	82788.1
-23.830	82788.1
-23.825	82777.2
-23.820	82786.1
-23.815	82792.1
-23.810	82796.1
-23.805	82804.1
-23.800	82805.1
-23.795	82787.1
-23.790	82802.1
-23.785	82771.2
-23.780	82766.2
-23.775	82778.2
-23.770	82797.1
-23.765	82787.1
-23.760	82786.1
-23.755	82776.2
-23.750	82780.2
-23.745	82784.1
-23.740	82786.1
-23.735	82794.1
-23.730	82798.1
-23.725	82800.1
-23.720	82786.1
-23.715	82748.2
-23.710	82766.2
-23.705	82795.1
-23.700	82791.1
-23.695	82790.1
-23.690	82800.1
-23.685	82789.1
-23.680	82800.1
-23.675	82795.1
-23.670	82806.1
-23.665	82806.1
-23.660	82806.1
-23.655	82788.1
-23.650	82763.2
-23.645	82781.1
-23.640	82795.1
-23.635	82795.1
-23.630	82792.1
-23.625	82783.1
-23.620	82785.1
-23.615	82781.1
-23.610	82796.1
-23.605	82801.1
-23.600	82806.1
-23.595	82791.1
-23.590	82799.1
-23.585	82764.2
-23.580	82754.2
-23.575	82778.2
-23.570	82800.1
-23.565	82804.1
-23.560	82794.1
-23.555	82800.1
-23.550	82803.1
-23.545	82802.1
-23.540	82801.1
-23.535	82806.1
-23.530	82810.1
-23.525	82803.1
-23.520	82790.1
-23.515	82773.2
-23.510	82796.1
-23.505	82813.1
-23.500	82803.1
-23.495	82807.1
-23.490	82799.1
-23.485	82797.1
-23.480	82802.1
-23.475	82794.1
-23.470	82812.1
-23.465	82812.1
-23.460	82813.1
-23.455	82801.1
-23.450	82773.1
-23.445	82788.1
-23.440	82804.1
-23.435	82820.1
-23.430	82809.1
-23.425	82810.1
-23.420	82809.1
-23.415	82809.1
-23.410	82818.1
-23.405	82823.1
-23.400	82829.1
-23.395	82820.1
-23.390	82821.1
-23.385	82782.1
-23.380	82795.1
-23.375	82805.1
-23.370	82817.1
-23.365	82814.1
-23.360	82815.1
-23.355	82810.1
-23.350	82822.1
-23.345	82815.1
-23.340	82816.1
-23.335	82819.1
-23.330	82824.1
-23.325	82820.1
-23.320	82807.1
-23.315	82780.1
-23.310	82806.1
-23.305	82829.1
-23.300	82826.1
-23.295	82837.1
-23.290	82826.1
-23.285	82825.1
-23.280	82831.1
-23.275	82831.1
-23.270	82835.1
-23.265	82833.1
-23.260	82843.1
-23.255	82823.1
-23.250	82797.1
-23.245	82814.1
-23.240	82832.1
-23.235	82835.1
-23.230	82830.1
-23.225	82817.1
-23.220	82826.1
-23.215	82822.1
-23.210	82820.1
-23.205	82823.1
-23.200	82832.1
-23.195	82823.1
-23.190	82833.1
-23.185	82810.1
-23.180	82803.1
-23.175	82808.1
-23.170	82836.1
-23.165	82832.1
-23.160	82838.1
-23.155	82831.1
-23.150	82835.1
-23.145	82833.1
-23.140	82830.1
-23.135	82838.1
-23.130	82843.1
-23.125	82834.1
-23.120	82813.1
-23.115	82803.1
-23.110	82818.1
-23.105	82831.1
-23.100	82831.1
-23.095	82819.1
-23.090	82828.1
-23.085	82824.1
-23.080	82829.1
-23.075	82825.1
-23.070	82831.1
-23.065	82836.1
-23.060	82841.1
-23.055	82830.1
-23.050	82792.1
-23.045	82805.1
-23.040	82821.1
-23.035	82833.1
-23.030	82832.1
-23.025	82827.1
-23.020	82834.1
-23.015	82832.1
-23.010	82840.1
-23.005	82837.1
-23.000	82839.1
-22.995	82839.1
-22.990	82845.1
-22.985	82799.1
-22.980	82807.1
-22.975	82818.1
-22.970	82836.1
-22.965	82820.1
-22.960	82817.1
-22.955	82819.1
-22.950	82824.1
-22.945	82819.1
-22.940	82820.1
-22.935	82821.1
-22.930	82831.1
-22.925	82833.1
-22.920	82818.1
-22.915	82782.1
-22.910	82802.1
-22.905	82825.1
-22.900	82825.1
-22.895	82826.1
-22.890	82824.1
-22.885	82822.1
-22.880	82832.1
-22.875	82822.1
-22.870	82823.1
-22.865	82835.1
-22.860	82826.1
-22.855	82822.1
-22.850	82791.1
-22.845	82795.1
-22.840	82825.1
-22.835	82825.1
-22.830	82821.1
-22.825	82819.1
-22.820	82824.1
-22.815	82810.1
-22.810	82813.1
-22.805	82815.1
-22.800	82823.1
-22.795	82825.1
-22.790	82827.1
-22.785	82792.1
-22.780	82785.1
-22.775	82805.1
-22.770	82830.1
-22.765	82822.1
-22.760	82825.1
-22.755	82825.1
-22.750	82827.1
-22.745	82825.1
-22.740	82835.1
-22.735	82833.1
-22.730	82836.1
-22.725	82825.1
-22.720	82798.1
-22.715	82789.1
-22.710	82808.1
-22.705	82829.1
-22.700	82826.1
-22.695	82816.1
-22.690	82813.1
-22.685	82814.1
-22.680	82814.1
-22.675	82813.1
-22.670	82820.1
-22.665	82820.1
-22.660	82826.1
-22.655	82809.1
-22.650	82787.1
-22.645	82797.1
-22.640	82819.1
-22.635	82826.1
-22.630	82833.1
-22.625	82823.1
-22.620	82827.1
-22.615	82824.1
-22.610	82834.1
-22.605	82825.1
-22.600	82822.1
-22.595	82828.1
-22.590	82830.1
-22.585	82798.1
-22.580	82806.1
-22.575	82820.1
-22.570	82827.1
-22.565	82819.1
-22.560	82809.1
-22.555	82815.1
-22.550	82814.1
-22.545	82812.1
-22.540	82822.1
-22.535	82821.1
-22.530	82827.1
-22.525	82820.1
-22.520	82807.1
-22.515	82785.1
-22.510	82809.1
-22.505	82829.1
-22.500	82820.1
-22.495	82825.1
-22.490	82827.1
-22.485	82832.1
-22.480	82838.1
-22.475	82842.1
-22.470	82836.1
-22.465	82834.1
-22.460	82830.1
-22.455	82818.1
-22.450	82809.1
-22.445	82812.1
-22.440	82843.1
-22.435	82831.1
-22.430	82828.1
-22.425	82819.1
-22.420	82825.1
-22.415	82818.1
-22.410	82828.1
-22.405	82831.1
-22.400	82826.1
-22.395	82833.1
-22.390	82836.1
-22.385	82799.1
-22.380	82807.1
-22.375	82816.1
-22.370	82829.1
-22.365	82835.1
-22.360	82829.1
-22.355	82825.1
-22.350	82840.1
-22.345	82832.1
-22.340	82848.1
-22.335	82846.1
-22.330	82844.1
-22.325	82839.1
-22.320	82817.1
-22.315	82808.1
-22.310	82826.1
-22.305	82840.1
-22.300	82841.1
-22.295	82833.1
-22.290	82830.1
-22.285	82829.1
-22.280	82828.1
-22.275	82825.1
-22.270	82837.1
-22.265	82833.1
-22.260	82845.1
-22.255	82817.1
-22.250	82804.1
-22.245	82803.1
-22.240	82835.1
-22.235	82824.1
-22.230	82826.1
-22.225	82827.1
-22.220	82837.1
-22.215	82838.1
-22.210	82842.1
-22.205	82840.1
-22.200	82846.1
-22.195	82841.1
-22.190	82840.1
-22.185	82807.1
-22.180	82813.1
-22.175	82835.1
-22.170	82833.1
-22.165	82831.1
-22.160	82829.1
-22.155	82822.1
-22.150	82828.1
-22.145	82826.1
-22.140	82829.1
-22.135	82830.1
-22.130	82833.1
-22.125	82835.1
-22.120	82803.1
-22.115	82802.1
-22.110	82808.1
-22.105	82830.1
-22.100	82836.1
-22.095	82827.1
-22.090	82829.1
-22.085	82821.1
-22.080	82831.1
-22.075	82838.1
-22.070	82846.1
-22.065	82840.1
-22.060	82843.1
-22.055	82814.1
-22.050	82802.1
-22.045	82815.1
-22.040	82843.1
-22.035	82826.1
-22.030	82824.1
-22.025	82814.1
-22.020	82821.1
-22.015	82817.1
-22.010	82821.1
-22.005	82824.1
-22.000	82834.1
-21.995	82825.1
-21.990	82824.1
-21.985	82801.1
-21.980	82799.1
-21.975	82817.1
-21.970	82829.1
-21.965	82824.1
-21.960	82820.1
-21.955	82827.1
-21.950	82826.1
-21.945	82830.1
-21.940	82835.1
-21.935	82840.1
-21.930	82832.1
-21.925	82835.1
-21.920	82807.1
-21.915	82803.1
-21.910	82819.1
-21.905	82831.1
-21.900	82825.1
-21.895	82822.1
-21.890	82814.1
-21.885	82812.1
-21.880	82810.1
-21.875	82822.1
-21.870	82821.1
-21.865	82823.1
-21.860	82823.1
-21.855	82798.1
-21.850	82784.1
-21.845	82795.1
-21.840	82830.1
-21.835	82815.1
-21.830	82825.1
-21.825	82819.1
-21.820	82819.1
-21.815	82826.1
-21.810	82827.1
-21.805	82824.1
-21.800	82829.1
-21.795	82820.1
-21.790	82823.1
-21.785	82784.1
-21.780	82803.1
-21.775	82813.1
-21.770	82827.1
-21.765	82823.1
-21.760	82816.1
-21.755	82811.1
-21.750	82808.1
-21.745	82813.1
-21.740	82809.1
-21.735	82819.1
-21.730	82818.1
-21.725	82822.1
-21.720	82793.1
-21.715	82779.1
-21.710	82800.1
-21.705	82819.1
-21.700	82821.1
-21.695	82809.1
-21.690	82814.1
-21.685	82808.1
-21.680	82819.1
-21.675	82823.1
-21.670	82819.1
-21.665	82816.1
-21.660	82814.1
-21.655	82786.1
-21.650	82776.1
-21.645	82794.1
-21.640	82820.1
-21.635	82813.1
-21.630	82816.1
-21.625	82805.1
-21.620	82805.1
-21.615	82792.1
-21.610	82807.1
-21.605	82802.1
-21.600	82814.1
-21.595	82811.1
-21.590	82801.1
-21.585	82772.1
-21.580	82780.1
-21.575	82799.1
-21.570	82801.1
-21.565	82805.1
-21.560	82806.1
-21.555	82802.1
-21.550	82805.1
-21.545	82812.1
-21.540	82815.1
-21.535	82809.1
-21.530	82819.1
-21.525	82808.1
-21.520	82785.1
-21.515	82780.1
-21.510	82800.1
-21.505	82809.1
-21.500	82800.1
-21.495	82792.1
-21.490	82792.1
-21.485	82796.1
-21.480	82796.1
-21.475	82796.1
-21.470	82801.1
-21.465	82803.1
-21.460	82804.1
-21.455	82789.1
-21.450	82761.2
-21.445	82770.2
-21.440	82800.1
-21.435	82785.1
-21.430	82797.1
-21.425	82791.1
-21.420	82795.1
-21.415	82790.1
-21.410	82784.1
-21.405	82786.1
-21.400	82790.1
-21.395	82782.2
-21.390	82766.2
-21.385	82732.2
-21.380	82719.2
-21.375	82712.2
-21.370	82671.3
-21.365	82591.4
-21.360	82505.5
-21.355	82355.6
-21.350	82185.8
-21.345	81940.1
-21.340	81618.4
-21.335	81212.9
-21.330	80746.4
-21.325	80272.9
-21.320	79798.5
-21.315	79358.1
-21.310	78932.7
-21.305	78420.4
-21.300	77810.2
-21.295	77178.0
-21.290	76563.8
-21.285	75925.7
-21.280	75164.6
-21.275	74200.6
-21.270	73311.6
-21.265	72988.2
-21.260	72698.7
-21.255	72200.1
-21.250	72602.7
-21.245	73437.0
-21.240	73390.9
-21.235	73607.6
-21.230	74650.8
-21.225	75750.9
-21.220	76511.3
-21.215	76514.2
-21.210	75279.0
-21.205	73727.0
-21.200	74071.6
-21.195	75319.6
-21.190	75363.5
-21.185	75181.6
-21.180	75988.9
-21.175	74715.8
-21.170	73230.7
-21.165	75300.3
-21.160	77023.0
-21.155	77587.5
-21.150	77872.3
-21.145	77722.3
-21.140	77159.7
-21.135	76297.2
-21.130	76048.4
-21.125	76538.0
-21.120	76918.7
-21.115	77326.4
-21.110	77989.8
-21.105	78371.5
-21.100	78027.7
-21.095	76803.6
-21.090	75567.4
-21.085	76042.0
-21.080	77564.9
-21.075	77246.2
-21.070	74883.9
-21.065	73521.8
-21.060	75206.5
-21.055	77501.8
-21.050	78220.3
-21.045	77985.4
-21.040	77551.7
-21.035	77596.7
-21.030	77710.6
-21.025	77443.7
-21.020	77495.7
-21.015	78101.2
-21.010	78612.8
-21.005	78697.7
-21.000	78519.8
-20.995	78361.9
-20.990	78286.0
-20.985	78252.0
-20.980	78284.9
-20.975	78311.9
-20.970	78503.7
-20.965	78862.5
-20.960	79143.3
-20.955	79189.2
-20.950	79064.3
-20.945	78755.5
-20.940	78308.8
-20.935	78072.0
-20.930	78171.9
-20.925	78401.7
-20.920	78586.5
-20.915	78666.5
-20.910	78650.5
-20.905	78710.4
-20.900	78854.3
-20.895	78988.2
-20.890	79026.1
-20.885	78957.2
-20.880	78887.2
-20.875	78834.2
-20.870	78803.3
-20.865	78870.2
-20.860	78954.1
-20.855	78994.1
-20.850	79053.0
-20.845	79046.0
-20.840	79021.0
-20.835	78964.1
-20.830	78861.1
-20.825	78795.2
-20.820	78750.2
-20.815	78631.2
-20.810	78514.3
-20.805	78514.3
-20.800	78594.3
-20.795	78662.2
-20.790	78728.1
-20.785	78776.1
-20.780	78852.0
-20.775	78925.0
-20.770	78919.9
-20.765	78882.0
-20.760	78848.0
-20.755	78878.9
-20.750	78916.9
-20.745	78998.8
-20.740	79045.8
-20.735	79052.8
-20.730	79114.7
-20.725	79207.7
-20.720	79234.6
-20.715	79321.6
-20.710	79393.5
-20.705	79447.5
-20.700	79495.4
-20.695	79515.4
-20.690	79538.4
-20.685	79571.3
-20.680	79594.3
-20.675	79617.3
-20.670	79641.3
-20.665	79667.2
-20.660	79694.2
-20.655	79653.2
-20.650	79627.2
-20.645	79619.2
-20.640	79611.2
-20.635	79577.3
-20.630	79570.3
-20.625	79555.3
-20.620	79537.3
-20.615	79530.3
-20.610	79573.2
-20.605	79615.2
-20.600	79635.2
-20.595	79673.1
-20.590	79683.1
-20.585	79660.1
-20.580	79660.1
-20.575	79692.1
-20.570	79710.1
-20.565	79698.1
-20.560	79660.1
-20.555	79623.1
-20.550	79610.1
-20.545	79639.1
-20.540	79669.1
-20.535	79719.0
-20.530	79808.0
-20.525	79858.9
-20.520	79904.9
-20.515	79943.9
-20.510	79970.8
-20.505	80021.8
-20.500	80065.7
-20.495	80088.7
-20.490	80104.7
-20.485	80108.7
-20.480	80103.7
-20.475	80116.7
-20.470	80120.7
-20.465	80126.7
-20.460	80121.7
-20.455	80080.7
-20.450	80095.7
-20.445	80110.7
-20.440	80133.6
-20.435	80131.6
-20.430	80155.6
-20.425	80150.6
-20.420	80160.6
-20.415	80152.6
-20.410	80126.6
-20.405	80112.6
-20.400	80107.6
-20.395	80116.6
-20.390	80113.6
-20.385	80104.6
-20.380	80102.6
-20.375	80090.6
-20.370	80064.6
-20.365	80050.6
-20.360	80074.6
-20.355	80084.6
-20.350	80083.6
-20.345	80050.6
-20.340	80045.6
-20.335	80037.6
-20.330	80026.6
-20.325	80003.6
-20.320	79947.7
-20.315	79943.7
-20.310	79972.7
-20.305	79980.6
-20.300	79986.6
-20.295	80007.6
-20.290	80052.6
-20.285	80074.6
-20.280	80099.5
-20.275	80132.5
-20.270	80184.5
-20.265	80221.4
-20.260	80249.4
-20.255	80254.4
-20.250	80269.4
-20.245	80300.4
-20.240	80347.3
-20.235	80359.3
-20.230	80378.3
-20.225	80391.3
-20.220	80412.3
-20.215	80416.3
-20.210	80426.2
-20.205	80424.2
-20.200	80426.2
-20.195	80403.2
-20.190	80358.3
-20.185	80333.3
-20.180	80353.3
-20.175	80362.3
-20.170	80350.3
-20.165	80316.3
-20.160	80322.3
-20.155	80323.3
-20.150	80339.3
-20.145	80346.3
-20.140	80350.3
-20.135	80353.3
-20.130	80380.2
-20.125	80394.2
-20.120	80367.2
-20.115	80383.2
-20.110	80415.2
-20.105	80427.2
-20.100	80435.2
-20.095	80427.2
-20.090	80433.2
-20.085	80438.2
-20.080	80465.1
-20.075	80467.1
-20.070	80486.1
-20.065	80499.1
-20.060	80518.1
-20.055	80510.1
-20.050	80536.1
-20.045	80577.0
-20.040	80604.0
-20.035	80617.0
-20.030	80629.0
-20.025	80639.0
-20.020	80659.0
-20.015	80673.0
-20.010	80680.9
-20.005	80695.9
-20.000	80688.9
-19.995	80688.9
-19.990	80660.9
-19.985	80645.0
-19.980	80668.9
-19.975	80695.9
-19.970	80694.9
-19.965	80692.9
-19.960	80692.9
-19.955	80688.9
-19.950	80692.9
-19.945	80693.9
-19.940	80699.9
-19.935	80696.9
-19.930	80699.9
-19.925	80693.9
-19.920	80683.9
-19.915	80704.9
-19.910	80728.9
-19.905	80730.9
-19.900	80722.9
-19.895	80712.9
-19.890	80700.9
-19.885	80672.9
-19.880	80667.9
-19.875	80679.9
-19.870	80680.9
-19.865	80686.9
-19.860	80679.9
-19.855	80647.9
-19.850	80633.9
-19.845	80617.9
-19.840	80616.9
-19.835	80591.9
-19.830	80583.9
-19.825	80579.9
-19.820	80580.9
-19.815	80558.9
-19.810	80550.9
-19.805	80543.0
-19.800	80521.0
-19.795	80520.0
-19.790	80485.0
-19.785	80449.0
-19.780	80451.0
-19.775	80445.0
-19.770	80435.0
-19.765	80433.0
-19.760	80442.0
-19.755	80451.0
-19.750	80438.0
-19.745	80428.0
-19.740	80432.0
-19.735	80452.0
-19.730	80474.0
-19.725	80463.0
-19.720	80453.0
-19.715	80444.0
-19.710	80473.0
-19.705	80474.0
-19.700	80490.9
-19.695	80477.9
-19.690	80472.0
-19.685	80469.0
-19.680	80476.9
-19.675	80475.9
-19.670	80485.9
-19.665	80486.9
-19.660	80487.9
-19.655	80451.0
-19.650	80454.9
-19.645	80480.9
-19.640	80492.9
-19.635	80474.9
-19.630	80468.9
-19.625	80463.9
-19.620	80453.9
-19.615	80449.9
-19.610	80452.9
-19.605	80463.9
-19.600	80479.9
-19.595	80486.9
-19.590	80465.9
-19.585	80437.9
-19.580	80437.9
-19.575	80456.9
-19.570	80463.9
-19.565	80453.9
-19.560	80450.9
-19.555	80432.9
-19.550	80434.9
-19.545	80454.9
-19.540	80467.9
-19.535	80488.9
-19.530	80507.9
-19.525	80505.9
-19.520	80487.9
-19.515	80527.8
-19.510	80582.8
-19.505	80619.8
-19.500	80635.8
-19.495	80639.8
-19.490	80635.8
-19.485	80627.8
-19.480	80647.7
-19.475	80672.7
-19.470	80696.7
-19.465	80701.7
-19.460	80720.7
-19.455	80691.7
-19.450	80699.7
-19.445	80736.7
-19.440	80786.6
-19.435	80792.6
-19.430	80809.6
-19.425	80809.6
-19.420	80830.6
-19.415	80831.6
-19.410	80828.6
-19.405	80827.6
-19.400	80818.6
-19.395	80810.6
-19.390	80781.6
-19.385	80769.6
-19.380	80786.6
-19.375	80790.6
-19.370	80777.6
-19.365	80758.6
-19.360	80750.6
-19.355	80729.7
-19.350	80715.7
-19.345	80709.7
-19.340	80700.7
-19.335	80696.7
-19.330	80702.7
-19.325	80688.7
-19.320	80657.7
-19.315	80661.7
-19.310	80674.7
-19.305	80662.7
-19.300	80648.7
-19.295	80648.7
-19.290	80644.7
-19.285	80655.7
-19.280	80682.7
-19.275	80704.7
-19.270	80685.7
-19.265	80676.7
-19.260	80688.7
-19.255	80685.7
-19.250	80725.6
-19.245	80744.6
-19.240	80767.6
-19.235	80773.6
-19.230	80777.6
-19.225	80799.6
-19.220	80849.5
-19.215	80885.5
-19.210	80908.5
-19.205	80931.5
-19.200	80959.4
-19.195	80967.4
-19.190	80964.4
-19.185	80967.4
-19.180	80996.4
-19.175	81020.4
-19.170	81035.4
-19.165	81050.4
-19.160	81063.4
-19.155	81072.4
-19.150	81082.3
-19.145	81083.3
-19.140	81089.3
-19.135	81074.3
-19.130	81073.3
-19.125	81051.4
-19.120	81031.4
-19.115	81036.4
-19.110	81055.4
-19.105	81032.4
-19.100	81022.4
-19.095	81013.4
-19.090	81003.4
-19.085	80981.4
-19.080	80980.4
-19.075	80951.4
-19.070	80950.4
-19.065	80961.4
-19.060	80950.4
-19.055	80895.5
-19.050	80889.5
-19.045	80901.5
-19.040	80902.5
-19.035	80890.5
-19.030	80895.5
-19.025	80906.4
-19.020	80930.4
-19.015	80940.4
-19.010	80947.4
-19.005	80936.4
-19.000	80934.4
-18.995	80922.4
-18.990	80892.4
-18.985	80900.4
-18.980	80931.4
-18.975	80932.4
-18.970	80931.4
-18.965	80924.4
-18.960	80921.4
-18.955	80928.4
-18.950	80942.4
-18.945	80943.4
-18.940	80947.4
-18.935	80926.4
-18.930	80919.4
-18.925	80898.4
-18.920	80876.4
-18.915	80865.5
-18.910	80906.4
-18.905	80906.4
-18.900	80908.4
-18.895	80908.4
-18.890	80906.4
-18.885	80907.4
-18.880	80930.4
-18.875	80935.4
-18.870	80933.4
-18.865	80924.4
-18.860	80913.4
-18.855	80875.4
-18.850	80872.4
-18.845	80882.4
-18.840	80897.4
-18.835	80889.4
-18.830	80884.4
-18.825	80877.4
-18.820	80869.4
-18.815	80861.4
-18.810	80851.4
-18.805	80858.4
-18.800	80863.4
-18.795	80865.4
-18.790	80861.4
-18.785	80864.4
-18.780	80881.4
-18.775	80896.4
-18.770	80893.4
-18.765	80887.4
-18.760	80893.4
-18.755	80896.4
-18.750	80897.4
-18.745	80902.4
-18.740	80911.4
-18.735	80925.4
-18.730	80951.3
-18.725	80937.4
-18.720	80934.4
-18.715	80968.3
-18.710	81024.3
-18.705	81043.3
-18.700	81047.3
-18.695	81065.3
-18.690	81075.2
-18.685	81081.2
-18.680	81101.2
-18.675	81114.2
-18.670	81126.2
-18.665	81124.2
-18.660	81122.2
-18.655	81099.2
-18.650	81097.2
-18.645	81125.2
-18.640	81152.2
-18.635	81151.2
-18.630	81164.2
-18.625	81161.2
-18.620	81183.2
-18.615	81180.2
-18.610	81188.1
-18.605	81194.1
-18.600	81193.1
-18.595	81204.1
-18.590	81184.1
-18.585	81182.1
-18.580	81210.1
-18.575	81231.1
-18.570	81224.1
-18.565	81222.1
-18.560	81236.1
-18.555	81241.1
-18.550	81250.1
-18.545	81251.1
-18.540	81253.1
-18.535	81254.1
-18.530	81269.1
-18.525	81257.1
-18.520	81239.1
-18.515	81236.1
-18.510	81257.1
-18.505	81258.1
-18.500	81269.1
-18.495	81266.1
-18.490	81281.1
-18.485	81280.1
-18.480	81285.1
-18.475	81280.1
-18.470	81283.1
-18.465	81283.1
-18.460	81276.1
-18.455	81247.1
-18.450	81251.1
-18.445	81261.1
-18.440	81275.1
-18.435	81267.1
-18.430	81267.1
-18.425	81258.1
-18.420	81256.1
-18.415	81253.1
-18.410	81261.1
-18.405	81263.1
-18.400	81268.1
-18.395	81264.1
-18.390	81243.1
-18.385	81234.1
-18.380	81260.1
-18.375	81279.0
-18.370	81281.0
-18.365	81273.0
-18.360	81287.0
-18.355	81292.0
-18.350	81291.0
-18.345	81295.0
-18.340	81296.0
-18.335	81283.0
-18.330	81296.0
-18.325	81273.0
-18.320	81265.0
-18.315	81276.0
-18.310	81291.0
-18.305	81289.0
-18.300	81279.0
-18.295	81278.0
-18.290	81278.0
-18.285	81278.0
-18.280	81289.0
-18.275	81286.0
-18.270	81296.0
-18.265	81286.0
-18.260	81293.0
-18.255	81266.0
-18.250	81280.0
-18.245	81304.0
-18.240	81320.0
-18.235	81315.0
-18.230	81307.0
-18.225	81300.0
-18.220	81317.0
-18.215	81317.0
-18.210	81325.0
-18.205	81320.0
-18.200	81321.0
-18.195	81325.0
-18.190	81292.0
-18.185	81283.0
-18.180	81311.0
-18.175	81314.0
-18.170	81306.0
-18.165	81289.0
-18.160	81273.0
-18.155	81270.0
-18.150	81263.0
-18.145	81262.0
-18.140	81248.0
-18.135	81236.0
-18.130	81237.0
-18.125	81212.1
-18.120	81199.1
-18.115	81188.1
-18.110	81199.1
-18.105	81192.1
-18.100	81185.1
-18.095	81172.1
-18.090	81166.1
-18.085	81167.1
-18.080	81174.1
-18.075	81163.1
-18.070	81164.1
-18.065	81163.1
-18.060	81152.1
-18.055	81106.1
-18.050	81109.1
-18.045	81105.1
-18.040	81094.1
-18.035	81077.1
-18.030	81066.2
-18.025	81064.2
-18.020	81064.2
-18.015	81063.2
-18.010	81076.1
-18.005	81067.1
-18.000	81077.1
-17.995	81055.2
-17.990	81050.2
-17.985	81034.2
-17.980	81065.1
-17.975	81100.1
-17.970	81116.1
-17.965	81115.1
-17.960	81117.1
-17.955	81117.1
-17.950	81122.1
-17.945	81141.1
-17.940	81156.1
-17.935	81161.1
-17.930	81169.1
-17.925	81163.1
-17.920	81155.1
-17.915	81173.1
-17.910	81197.0
-17.905	81197.0
-17.900	81201.0
-17.895	81199.0
-17.890	81207.0
-17.885	81208.0
-17.880	81213.0
-17.875	81227.0
-17.870	81240.0
-17.865	81247.0
-17.860	81229.0
-17.855	81199.0
-17.850	81203.0
-17.845	81234.0
-17.840	81238.0
-17.835	81248.0
-17.830	81245.0
-17.825	81243.0
-17.820	81248.0
-17.815	81253.0
-17.810	81265.0
-17.805	81257.0
-17.800	81255.0
-17.795	81257.0
-17.790	81228.0
-17.785	81234.0
-17.780	81246.0
-17.775	81259.0
-17.770	81260.0
-17.765	81249.0
-17.760	81250.0
-17.755	81254.0
-17.750	81262.0
-17.745	81265.0
-17.740	81272.0
-17.735	81269.0
-17.730	81285.0
-17.725	81271.0
-17.720	81263.0
-17.715	81282.0
-17.710	81309.9
-17.705	81308.9
-17.700	81302.9
-17.695	81311.9
-17.690	81318.9
-17.685	81331.9
-17.680	81334.9
-17.675	81342.9
-17.670	81347.9
-17.665	81350.9
-17.660	81337.9
-17.655	81315.9
-17.650	81330.9
-17.645	81350.9
-17.640	81355.9
-17.635	81350.9
-17.630	81350.9
-17.625	81346.9
-17.620	81353.9
-17.615	81359.9
-17.610	81362.9
-17.605	81370.9
-17.600	81371.9
-17.595	81370.9
-17.590	81338.9
-17.585	81324.9
-17.580	81341.9
-17.575	81358.9
-17.570	81355.9
-17.565	81349.9
-17.560	81343.9
-17.555	81339.9
-17.550	81338.9
-17.545	81333.9
-17.540	81348.9
-17.535	81337.9
-17.530	81328.9
-17.525	81296.9
-17.520	81288.9
-17.515	81317.9
-17.510	81336.9
-17.505	81323.9
-17.500	81324.9
-17.495	81317.9
-17.490	81330.9
-17.485	81325.9
-17.480	81332.9
-17.475	81333.9
-17.470	81338.9
-17.465	81339.9
-17.460	81334.9
-17.455	81318.9
-17.450	81331.9
-17.445	81342.9
-17.440	81346.9
-17.435	81348.9
-17.430	81361.9
-17.425	81355.9
-17.420	81366.9
-17.415	81364.9
-17.410	81385.8
-17.405	81396.8
-17.400	81400.8
-17.395	81411.8
-17.390	81373.8
-17.385	81379.8
-17.380	81399.8
-17.375	81402.8
-17.370	81402.8
-17.365	81404.8
-17.360	81406.8
-17.355	81396.8
-17.350	81397.8
-17.345	81391.8
-17.340	81403.8
-17.335	81408.8
-17.330	81414.8
-17.325	81387.8
-17.320	81375.8
-17.315	81386.8
-17.310	81424.8
-17.305	81424.8
-17.300	81435.8
-17.295	81431.8
-17.290	81450.8
-17.285	81451.8
-17.280	81460.8
-17.275	81459.8
-17.270	81473.8
-17.265	81463.8
-17.260	81455.8
-17.255	81441.8
-17.250	81452.8
-17.245	81480.8
-17.240	81481.7
-17.235	81469.8
-17.230	81473.8
-17.225	81472.8
-17.220	81488.7
-17.215	81494.7
-17.210	81508.7
-17.205	81503.7
-17.200	81500.7
-17.195	81490.7
-17.190	81457.8
-17.185	81457.8
-17.180	81481.7
-17.175	81488.7
-17.170	81495.7
-17.165	81499.7
-17.160	81501.7
-17.155	81505.7
-17.150	81513.7
-17.145	81505.7
-17.140	81514.7
-17.135	81505.7
-17.130	81490.7
-17.125	81459.8
-17.120	81453.8
-17.115	81459.7
-17.110	81468.7
-17.105	81464.7
-17.100	81464.7
-17.095	81455.8
-17.090	81463.7
-17.085	81466.7
-17.080	81473.7
-17.075	81470.7
-17.070	81475.7
-17.065	81467.7
-17.060	81466.7
-17.055	81442.8
-17.050	81457.7
-17.045	81482.7
-17.040	81490.7
-17.035	81485.7
-17.030	81497.7
-17.025	81499.7
-17.020	81504.7
-17.015	81506.7
-17.010	81512.7
-17.005	81510.7
-17.000	81507.7
-16.995	81496.7
-16.990	81473.7
-16.985	81476.7
-16.980	81514.7
-16.975	81528.7
-16.970	81524.7
-16.965	81519.7
-16.960	81527.7
-16.955	81512.7
-16.950	81516.7
-16.945	81517.7
-16.940	81522.7
-16.935	81523.7
-16.930	81522.7
-16.925	81485.7
-16.920	81486.7
-16.915	81502.7
-16.910	81521.7
-16.905	81520.7
-16.900	81509.7
-16.895	81508.7
-16.890	81510.7
-16.885	81513.7
-16.880	81515.7
-16.875	81514.7
-16.870	81521.7
-16.865	81516.7
-16.860	81494.7
-16.855	81478.7
-16.850	81490.7
-16.845	81515.7
-16.840	81509.7
-16.835	81496.7
-16.830	81489.7
-16.825	81490.7
-16.820	81495.7
-16.815	81491.7
-16.810	81498.7
-16.805	81491.7
-16.800	81481.7
-16.795	81472.7
-16.790	81425.7
-16.785	81422.7
-16.780	81450.7
-16.775	81451.7
-16.770	81436.7
-16.765	81431.7
-16.760	81421.7
-16.755	81419.7
-16.750	81427.7
-16.745	81421.7
-16.740	81433.7
-16.735	81430.7
-16.730	81436.7
-16.725	81400.8
-16.720	81383.8
-16.715	81405.8
-16.710	81422.7
-16.705	81409.8
-16.700	81410.8
-16.695	81405.8
-16.690	81411.7
-16.685	81412.8
-16.680	81418.7
-16.675	81418.7
-16.670	81431.7
-16.665	81420.7
-16.660	81396.8
-16.655	81382.8
-16.650	81381.8
-16.645	81409.7
-16.640	81409.7
-16.635	81408.7
-16.630	81415.7
-16.625	81421.7
-16.620	81436.7
-16.615	81425.7
-16.610	81437.7
-16.605	81432.7
-16.600	81434.7
-16.595	81417.7
-16.590	81385.8
-16.585	81383.8
-16.580	81397.7
-16.575	81397.7
-16.570	81394.7
-16.565	81387.8
-16.560	81390.7
-16.555	81384.8
-16.550	81382.8
-16.545	81386.8
-16.540	81391.7
-16.535	81380.8
-16.530	81387.7
-16.525	81348.8
-16.520	81341.8
-16.515	81349.8
-16.510	81385.7
-16.505	81383.8
-16.500	81384.7
-16.495	81384.7
-16.490	81388.7
-16.485	81380.7
-16.480	81392.7
-16.475	81388.7
-16.470	81390.7
-16.465	81387.7
-16.460	81371.8
-16.455	81348.8
-16.450	81357.8
-16.445	81374.8
-16.440	81384.7
-16.435	81366.8
-16.430	81365.8
-16.425	81365.8
-16.420	81375.8
-16.415	81380.7
-16.410	81393.7
-16.405	81404.7
-16.400	81414.7
-16.395	81413.7
-16.390	81379.7
-16.385	81383.7
-16.380	81404.7
-16.375	81409.7
-16.370	81416.7
-16.365	81417.7
-16.360	81427.7
-16.355	81427.7
-16.350	81433.7
-16.345	81442.7
-16.340	81439.7
-16.335	81441.7
-16.330	81451.7
-16.325	81407.7
-16.320	81418.7
-16.315	81435.7
-16.310	81449.7
-16.305	81441.7
-16.300	81447.7
-16.295	81435.7
-16.290	81445.7
-16.285	81457.7
-16.280	81460.7
-16.275	81463.7
-16.270	81481.7
-16.265	81478.7
-16.260	81469.7
-16.255	81434.7
-16.250	81458.7
-16.245	81473.7
-16.240	81473.7
-16.235	81457.7
-16.230	81463.7
-16.225	81456.7
-16.220	81467.7
-16.215	81466.7
-16.210	81478.7
-16.205	81481.7
-16.200	81475.7
-16.195	81470.7
-16.190	81442.7
-16.185	81442.7
-16.180	81461.7
-16.175	81451.7
-16.170	81441.7
-16.165	81423.7
-16.160	81416.7
-16.155	81417.7
-16.150	81423.7
-16.145	81426.7
-16.140	81428.7
-16.135	81425.7
-16.130	81434.7
-16.125	81390.7
-16.120	81383.7
-16.115	81397.7
-16.110	81401.7
-16.105	81392.7
-16.100	81388.7
-16.095	81365.7
-16.090	81366.7
-16.085	81373.7
-16.080	81373.7
-16.075	81355.7
-16.070	81350.7
-16.065	81339.8
-16.060	81307.8
-16.055	81285.8
-16.050	81302.8
-16.045	81313.8
-16.040	81297.8
-16.035	81278.8
-16.030	81270.8
-16.025	81271.8
-16.020	81280.8
-16.015	81285.8
-16.010	81285.8
-16.005	81284.8
-16.000	81289.8
-15.995	81273.8
-15.990	81249.8
-15.985	81260.8
-15.980	81298.8
-15.975	81307.8
-15.970	81305.8
-15.965	81296.8
-15.960	81296.8
-15.955	81306.8
-15.950	81311.8
-15.945	81302.8
-15.940	81305.8
-15.935	81313.8
-15.930	81312.8
-15.925	81275.8
-15.920	81294.8
-15.915	81327.8
-15.910	81340.7
-15.905	81337.7
-15.900	81337.7
-15.895	81332.7
-15.890	81337.7
-15.885	81348.7
-15.880	81357.7
-15.875	81363.7
-15.870	81374.7
-15.865	81389.7
-15.860	81374.7
-15.855	81367.7
-15.850	81375.7
-15.845	81406.7
-15.840	81398.7
-15.835	81410.7
-15.830	81416.7
-15.825	81422.7
-15.820	81432.7
-15.815	81433.7
-15.810	81443.7
-15.805	81445.7
-15.800	81456.6
-15.795	81449.6
-15.790	81427.7
-15.785	81451.6
-15.780	81480.6
-15.775	81479.6
-15.770	81472.6
-15.765	81474.6
-15.760	81492.6
-15.755	81488.6
-15.750	81490.6
-15.745	81507.6
-15.740	81511.6
-15.735	81509.6
-15.730	81521.6
-15.725	81478.6
-15.720	81476.6
-15.715	81500.6
-15.710	81514.6
-15.705	81515.6
-15.700	81518.6
-15.695	81507.6
-15.690	81510.6
-15.685	81519.6
-15.680	81523.6
-15.675	81531.6
-15.670	81532.6
-15.665	81530.6
-15.660	81495.6
-15.655	81480.6
-15.650	81503.6
-15.645	81521.6
-15.640	81505.6
-15.635	81497.6
-15.630	81497.6
-15.625	81494.6
-15.620	81494.6
-15.615	81488.6
-15.610	81497.6
-15.605	81498.6
-15.600	81494.6
-15.595	81480.6
-15.590	81457.6
-15.585	81460.6
-15.580	81484.6
-15.575	81477.6
-15.570	81479.6
-15.565	81474.6
-15.560	81471.6
-15.555	81468.6
-15.550	81480.6
-15.545	81472.6
-15.540	81482.6
-15.535	81457.6
-15.530	81459.6
-15.525	81425.6
-15.520	81439.6
-15.515	81452.6
-15.510	81462.6
-15.505	81453.6
-15.500	81453.6
-15.495	81452.6
-15.490	81448.6
-15.485	81451.6
-15.480	81453.6
-15.475	81449.6
-15.470	81456.6
-15.465	81470.6
-15.460	81439.6
-15.455	81419.6
-15.450	81438.6
-15.445	81454.6
-15.440	81455.6
-15.435	81450.6
-15.430	81451.6
-15.425	81445.6
-15.420	81441.6
-15.415	81443.6
-15.410	81434.6
-15.405	81436.6
-15.400	81436.6
-15.395	81429.6
-15.390	81421.6
-15.385	81442.6
-15.380	81459.6
-15.375	81451.6
-15.370	81454.6
-15.365	81458.6
-15.360	81450.6
-15.355	81451.6
-15.350	81458.6
-15.345	81452.6
-15.340	81460.6
-15.335	81468.6
-15.330	81468.6
-15.325	81431.6
-15.320	81434.6
-15.315	81458.6
-15.310	81480.6
-15.305	81478.6
-15.300	81498.6
-15.295	81489.6
-15.290	81486.6
-15.285	81487.6
-15.280	81489.6
-15.275	81481.6
-15.270	81495.6
-15.265	81482.6
-15.260	81451.6
-15.255	81444.6
-15.250	81466.6
-15.245	81481.6
-15.240	81469.6
-15.235	81468.6
-15.230	81465.6
-15.225	81464.6
-15.220	81464.6
-15.215	81460.6
-15.210	81457.6
-15.205	81454.6
-15.200	81457.6
-15.195	81428.6
-15.190	81401.6
-15.185	81402.6
-15.180	81419.6
-15.175	81423.6
-15.170	81420.6
-15.165	81419.6
-15.160	81414.6
-15.155	81417.6
-15.150	81410.6
-15.145	81398.6
-15.140	81385.7
-15.135	81371.7
-15.130	81361.7
-15.125	81305.7
-15.120	81297.7
-15.115	81310.7
-15.110	81297.7
-15.105	81281.7
-15.100	81272.7
-15.095	81243.8
-15.090	81233.8
-15.085	81219.8
-15.080	81200.8
-15.075	81179.8
-15.070	81180.8
-15.065	81164.8
-15.060	81144.8
-15.055	81111.9
-15.050	81133.8
-15.045	81150.8
-15.040	81149.8
-15.035	81144.8
-15.030	81144.8
-15.025	81141.8
-15.020	81148.8
-15.015	81153.8
-15.010	81167.8
-15.005	81162.8
-15.000	81166.8
-14.995	81137.8
-14.990	81119.8
-14.985	81132.8
-14.980	81149.8
-14.975	81138.8
-14.970	81137.8
-14.965	81144.8
-14.960	81140.8
-14.955	81143.8
-14.950	81149.8
-14.945	81154.8
-14.940	81160.8
-14.935	81176.8
-14.930	81181.8
-14.925	81156.8
-14.920	81179.8
-14.915	81207.8
-14.910	81239.8
-14.905	81245.7
-14.900	81254.7
-14.895	81264.7
-14.890	81284.7
-14.885	81294.7
-14.880	81311.7
-14.875	81320.7
-14.870	81327.7
-14.865	81320.7
-14.860	81310.7
-14.855	81316.7
-14.850	81331.7
-14.845	81358.7
-14.840	81371.7
-14.835	81359.7
-14.830	81366.7
-14.825	81368.7
-14.820	81382.6
-14.815	81394.6
-14.810	81401.6
-14.805	81407.6
-14.800	81424.6
-14.795	81406.6
-14.790	81391.6
-14.785	81414.6
-14.780	81437.6
-14.775	81444.6
-14.770	81457.6
-14.765	81453.6
-14.760	81461.6
-14.755	81468.6
-14.750	81469.6
-14.745	81471.6
-14.740	81473.6
-14.735	81470.6
-14.730	81458.6
-14.725	81427.6
-14.720	81440.6
-14.715	81462.6
-14.710	81469.6
-14.705	81464.6
-14.700	81466.6
-14.695	81452.6
-14.690	81454.6
-14.685	81452.6
-14.680	81459.6
-14.675	81455.6
-14.670	81456.6
-14.665	81446.6
-14.660	81414.6
-14.655	81404.6
-14.650	81424.6
-14.645	81436.6
-14.640	81439.6
-14.635	81435.6
-14.630	81443.6
-14.625	81448.6
-14.620	81444.6
-14.615	81439.6
-14.610	81429.6
-14.605	81417.6
-14.600	81430.6
-14.595	81405.6
-14.590	81400.6
-14.585	81412.6
-14.580	81433.6
-14.575	81422.6
-14.570	81411.6
-14.565	81406.6
-14.560	81413.6
-14.555	81408.6
-14.550	81416.6
-14.545	81428.6
-14.540	81444.6
-14.535	81442.6
-14.530	81436.6
-14.525	81412.6
-14.520	81420.6
-14.515	81438.6
-14.510	81457.6
-14.505	81462.6
-14.500	81461.6
-14.495	81460.6
-14.490	81458.6
-14.485	81472.6
-14.480	81489.5
-14.475	81488.5
-14.470	81490.5
-14.465	81493.5
-14.460	81462.6
-14.455	81454.6
-14.450	81470.6
-14.445	81493.5
-14.440	81478.5
-14.435	81482.5
-14.430	81483.5
-14.425	81486.5
-14.420	81491.5
-14.415	81494.5
-14.410	81504.5
-14.405	81502.5
-14.400	81515.5
-14.395	81489.5
-14.390	81484.5
-14.385	81494.5
-14.380	81527.5
-14.375	81523.5
-14.370	81525.5
-14.365	81543.5
-14.360	81551.5
-14.355	81552.5
-14.350	81557.5
-14.345	81560.5
-14.340	81568.5
-14.335	81553.5
-14.330	81563.5
-14.325	81535.5
-14.320	81545.5
-14.315	81566.5
-14.310	81564.5
-14.305	81566.5
-14.300	81555.5
-14.295	81555.5
-14.290	81558.5
-14.285	81563.5
-14.280	81563.5
-14.275	81565.5
-14.270	81579.5
-14.265	81568.5
-14.260	81550.5
-14.255	81540.5
-14.250	81555.5
-14.245	81578.5
-14.240	81581.5
-14.235	81581.5
-14.230	81579.5
-14.225	81585.5
-14.220	81578.5
-14.215	81590.5
-14.210	81588.5
-14.205	81589.4
-14.200	81576.5
-14.195	81553.5
-14.190	81542.5
-14.185	81559.5
-14.180	81585.4
-14.175	81580.5
-14.170	81575.5
-14.165	81569.5
-14.160	81564.5
-14.155	81563.5
-14.150	81566.5
-14.145	81566.5
-14.140	81581.5
-14.135	81568.5
-14.130	81570.5
-14.125	81550.5
-14.120	81554.5
-14.115	81568.5
-14.110	81585.5
-14.105	81578.5
-14.100	81583.5
-14.095	81588.4
-14.090	81596.4
-14.085	81590.4
-14.080	81588.4
-14.075	81587.4
-14.070	81589.4
-14.065	81580.5
-14.060	81554.5
-14.055	81554.5
-14.050	81583.4
-14.045	81589.4
-14.040	81587.4
-14.035	81578.5
-14.030	81582.4
-14.025	81586.4
-14.020	81586.4
-14.015	81588.4
-14.010	81595.4
-14.005	81594.4
-14.000	81595.4
-13.995	81574.5
-13.990	81551.5
-13.985	81556.5
-13.980	81588.4
-13.975	81587.4
-13.970	81594.4
-13.965	81600.4
-13.960	81608.4
-13.955	81608.4
-13.950	81607.4
-13.945	81617.4
-13.940	81621.4
-13.935	81613.4
-13.930	81600.4
-13.925	81568.4
-13.920	81582.4
-13.915	81599.4
-13.910	81607.4
-13.905	81597.4
-13.900	81607.4
-13.895	81592.4
-13.890	81598.4
-13.885	81599.4
-13.880	81603.4
-13.875	81597.4
-13.870	81608.4
-13.865	81590.4
-13.860	81565.4
-13.855	81572.4
-13.850	81592.4
-13.845	81601.4
-13.840	81608.4
-13.835	81599.4
-13.830	81602.4
-13.825	81597.4
-13.820	81597.4
-13.815	81588.4
-13.810	81604.4
-13.805	81599.4
-13.800	81591.4
-13.795	81573.4
-13.790	81564.4
-13.785	81584.4
-13.780	81602.4
-13.775	81605.4
-13.770	81597.4
-13.765	81603.4
-13.760	81604.4
-13.755	81607.4
-13.750	81611.4
-13.745	81605.4
-13.740	81616.4
-13.735	81622.4
-13.730	81599.4
-13.725	81588.4
-13.720	81603.4
-13.715	81623.4
-13.710	81629.4
-13.705	81630.4
-13.700	81624.4
-13.695	81631.4
-13.690	81640.4
-13.685	81634.4
-13.680	81644.4
-13.675	81644.4
-13.670	81649.4
-13.665	81633.4
-13.660	81612.4
-13.655	81615.4
-13.650	81650.4
-13.645	81649.4
-13.640	81652.4
-13.635	81636.4
-13.630	81637.4
-13.625	81638.4
-13.620	81644.4
-13.615	81655.4
-13.610	81664.4
-13.605	81669.4
-13.600	81667.4
-13.595	81632.4
-13.590	81618.4
-13.585	81639.4
-13.580	81663.4
-13.575	81655.4
-13.570	81664.4
-13.565	81653.4
-13.560	81656.4
-13.555	81646.4
-13.550	81652.4
-13.545	81663.4
-13.540	81652.4
-13.535	81650.4
-13.530	81624.4
-13.525	81599.4
-13.520	81613.4
-13.515	81632.4
-13.510	81625.4
-13.505	81624.4
-13.500	81614.4
-13.495	81611.4
-13.490	81611.4
-13.485	81603.4
-13.480	81615.4
-13.475	81615.4
-13.470	81612.4
-13.465	81593.4
-13.460	81562.4
-13.455	81550.4
-13.450	81566.4
-13.445	81585.4
-13.440	81574.4
-13.435	81569.4
-13.430	81564.4
-13.425	81563.4
-13.420	81567.4
-13.415	81557.4
-13.410	81552.4
-13.405	81535.4
-13.400	81539.5
-13.395	81495.5
-13.390	81486.5
-13.385	81493.5
-13.380	81507.5
-13.375	81492.5
-13.370	81482.5
-13.365	81468.5
-13.360	81472.5
-13.355	81454.5
-13.350	81456.5
-13.345	81453.5
-13.340	81462.5
-13.335	81463.5
-13.330	81439.5
-13.325	81424.5
-13.320	81437.5
-13.315	81458.5
-13.310	81463.5
-13.305	81461.5
-13.300	81476.5
-13.295	81467.5
-13.290	81470.5
-13.285	81468.5
-13.280	81476.5
-13.275	81470.5
-13.270	81475.5
-13.265	81467.5
-13.260	81432.5
-13.255	81447.5
-13.250	81482.5
-13.245	81482.5
-13.240	81476.5
-13.235	81479.5
-13.230	81479.5
-13.225	81478.5
-13.220	81482.5
-13.215	81479.5
-13.210	81493.5
-13.205	81488.5
-13.200	81508.5
-13.195	81466.5
-13.190	81475.5
-13.185	81480.5
-13.180	81504.5
-13.175	81503.5
-13.170	81508.5
-13.165	81510.5
-13.160	81514.5
-13.155	81520.5
-13.150	81529.4
-13.145	81527.4
-13.140	81538.4
-13.135	81533.4
-13.130	81513.5
-13.125	81491.5
-13.120	81518.5
-13.115	81540.4
-13.110	81543.4
-13.105	81539.4
-13.100	81546.4
-13.095	81526.5
-13.090	81541.4
-13.085	81547.4
-13.080	81545.4
-13.075	81549.4
-13.070	81561.4
-13.065	81549.4
-13.060	81520.4
-13.055	81527.4
-13.050	81546.4
-13.045	81564.4
-13.040	81563.4
-13.035	81547.4
-13.030	81548.4
-13.025	81552.4
-13.020	81551.4
-13.015	81545.4
-13.010	81545.4
-13.005	81539.4
-13.000	81539.4
-12.995	81502.5
-12.990	81507.5
-12.985	81521.4
-12.980	81542.4
-12.975	81522.4
-12.970	81526.4
-12.965	81516.5
-12.960	81506.5
-12.955	81506.5
-12.950	81508.5
-12.945	81510.5
-12.940	81516.4
-12.935	81509.5
-12.930	81486.5
-12.925	81458.5
-12.920	81466.5
-12.915	81491.5
-12.910	81486.5
-12.905	81484.5
-12.900	81485.5
-12.895	81473.5
-12.890	81484.5
-12.885	81496.5
-12.880	81496.5
-12.875	81487.5
-12.870	81480.5
-12.865	81463.5
-12.860	81437.5
-12.855	81466.5
-12.850	81476.5
-12.845	81483.5
-12.840	81472.5
-12.835	81461.5
-12.830	81459.5
-12.825	81467.5
-12.820	81470.5
-12.815	81470.5
-12.810	81465.5
-12.805	81466.5
-12.800	81474.5
-12.795	81435.5
-12.790	81439.5
-12.785	81469.5
-12.780	81498.5
-12.775	81506.4
-12.770	81506.4
-12.765	81505.4
-12.760	81499.5
-12.755	81504.4
-12.750	81519.4
-12.745	81519.4
-12.740	81516.4
-12.735	81530.4
-12.730	81517.4
-12.725	81508.4
-12.720	81531.4
-12.715	81556.4
-12.710	81549.4
-12.705	81544.4
-12.700	81546.4
-12.695	81541.4
-12.690	81562.4
-12.685	81564.4
-12.680	81565.4
-12.675	81572.4
-12.670	81574.4
-12.665	81563.4
-12.660	81527.4
-12.655	81537.4
-12.650	81560.4
-12.645	81575.4
-12.640	81565.4
-12.635	81560.4
-12.630	81563.4
-12.625	81564.4
-12.620	81577.4
-12.615	81587.4
-12.610	81589.4
-12.605	81580.4
-12.600	81586.4
-12.595	81550.4
-12.590	81556.4
-12.585	81584.4
-12.580	81603.4
-12.575	81595.4
-12.570	81589.4
-12.565	81594.4
-12.560	81587.4
-12.555	81593.4
-12.550	81590.4
-12.545	81592.4
-12.540	81589.4
-12.535	81590.4
-12.530	81560.4
-12.525	81556.4
-12.520	81568.4
-12.515	81602.4
-12.510	81608.4
-12.505	81599.4
-12.500	81592.4
-12.495	81599.4
-12.490	81605.4
-12.485	81600.4
-12.480	81612.4
-12.475	81601.4
-12.470	81600.4
-12.465	81591.4
-12.460	81578.4
-12.455	81578.4
-12.450	81616.4
-12.445	81603.4
-12.440	81597.4
-12.435	81597.4
-12.430	81601.4
-12.425	81588.4
-12.420	81597.4
-12.415	81598.4
-12.410	81606.4
-12.405	81599.4
-12.400	81603.4
-12.395	81567.4
-12.390	81558.4
-12.385	81578.4
-12.380	81605.4
-12.375	81604.4
-12.370	81612.4
-12.365	81609.4
-12.360	81610.4
-12.355	81612.4
-12.350	81625.3
-12.345	81633.3
-12.340	81625.3
-12.335	81624.3
-12.330	81602.4
-12.325	81575.4
-12.320	81599.4
-12.315	81622.3
-12.310	81616.3
-12.305	81610.4
-12.300	81615.3
-12.295	81616.4
-12.290	81606.4
-12.285	81607.4
-12.280	81616.4
-12.275	81614.3
-12.270	81627.3
-12.265	81611.3
-12.260	81589.4
-12.255	81595.4
-12.250	81625.3
-12.245	81631.3
-12.240	81632.3
-12.235	81624.3
-12.230	81642.3
-12.225	81637.3
-12.220	81643.3
-12.215	81649.3
-12.210	81658.3
-12.205	81637.3
-12.200	81650.3
-12.195	81609.3
-12.190	81618.3
-12.185	81643.3
-12.180	81650.3
-12.175	81645.3
-12.170	81641.3
-12.165	81641.3
-12.160	81639.3
-12.155	81647.3
-12.150	81647.3
-12.145	81649.3
-12.140	81654.3
-12.135	81656.3
-12.130	81638.3
-12.125	81617.3
-12.120	81633.3
-12.115	81669.3
-12.110	81671.3
-12.105	81672.3
-12.100	81675.3
-12.095	81675.3
-12.090	81680.3
-12.085	81684.3
-12.080	81687.3
-12.075	81689.3
-12.070	81689.3
-12.065	81678.3
-12.060	81661.3
-12.055	81659.3
-12.050	81697.3
-12.045	81692.3
-12.040	81694.3
-12.035	81684.3
-12.030	81692.3
-12.025	81692.3
-12.020	81705.3
-12.015	81703.3
-12.010	81711.3
-12.005	81718.3
-12.000	81718.3
-11.995	81680.3
-11.990	81685.3
-11.985	81703.3
-11.980	81719.3
-11.975	81722.3
-11.970	81726.2
-11.965	81726.3
-11.960	81726.3
-11.955	81726.3
-11.950	81743.2
-11.945	81731.2
-11.940	81735.2
-11.935	81736.2
-11.930	81708.3
-11.925	81706.3
-11.920	81731.2
-11.915	81742.2
-11.910	81737.2
-11.905	81738.2
-11.900	81722.3
-11.895	81735.2
-11.890	81731.2
-11.885	81730.2
-11.880	81734.2
-11.875	81734.2
-11.870	81736.2
-11.865	81729.2
-11.860	81711.3
-11.855	81702.3
-11.850	81740.2
-11.845	81742.2
-11.840	81742.2
-11.835	81735.2
-11.830	81757.2
-11.825	81747.2
-11.820	81751.2
-11.815	81757.2
-11.810	81765.2
-11.805	81760.2
-11.800	81757.2
-11.795	81730.2
-11.790	81729.2
-11.785	81748.2
-11.780	81761.2
-11.775	81755.2
-11.770	81742.2
-11.765	81743.2
-11.760	81748.2
-11.755	81735.2
-11.750	81749.2
-11.745	81752.2
-11.740	81757.2
-11.735	81753.2
-11.730	81727.2
-11.725	81712.3
-11.720	81720.2
-11.715	81750.2
-11.710	81745.2
-11.705	81752.2
-11.700	81743.2
-11.695	81741.2
-11.690	81745.2
-11.685	81747.2
-11.680	81746.2
-11.675	81747.2
-11.670	81745.2
-11.665	81725.2
-11.660	81711.2
-11.655	81708.3
-11.650	81737.2
-11.645	81731.2
-11.640	81722.2
-11.635	81711.3
-11.630	81716.2
-11.625	81710.3
-11.620	81719.2
-11.615	81711.2
-11.610	81718.2
-11.605	81717.2
-11.600	81721.2
-11.595	81680.3
-11.590	81685.3
-11.585	81700.3
-11.580	81729.2
-11.575	81718.2
-11.570	81714.2
-11.565	81709.3
-11.560	81719.2
-11.555	81713.2
-11.550	81718.2
-11.545	81717.2
-11.540	81718.2
-11.535	81710.2
-11.530	81690.3
-11.525	81690.3
-11.520	81700.3
-11.515	81710.2
-11.510	81704.3
-11.505	81702.3
-11.500	81711.2
-11.495	81699.3
-11.490	81698.3
-11.485	81703.3
-11.480	81698.3
-11.475	81692.3
-11.470	81695.3
-11.465	81673.3
-11.460	81653.3
-11.455	81664.3
-11.450	81689.3
-11.445	81682.3
-11.440	81682.3
-11.435	81666.3
-11.430	81677.3
-11.425	81676.3
-11.420	81684.3
-11.415	81683.3
-11.410	81689.3
-11.405	81679.3
-11.400	81693.3
-11.395	81649.3
-11.390	81665.3
-11.385	81677.3
-11.380	81677.3
-11.375	81666.3
-11.370	81667.3
-11.365	81660.3
-11.360	81669.3
-11.355	81673.3
-11.350	81670.3
-11.345	81676.3
-11.340	81680.3
-11.335	81686.3
-11.330	81652.3
-11.325	81638.3
-11.320	81665.3
-11.315	81684.3
-11.310	81689.3
-11.305	81685.3
-11.300	81687.3
-11.295	81683.3
-11.290	81693.3
-11.285	81694.3
-11.280	81694.3
-11.275	81687.3
-11.270	81685.3
-11.265	81664.3
-11.260	81652.3
-11.255	81660.3
-11.250	81685.3
-11.245	81679.3
-11.240	81676.3
-11.235	81682.3
-11.230	81677.3
-11.225	81677.3
-11.220	81679.3
-11.215	81682.3
-11.210	81680.3
-11.205	81678.3
-11.200	81678.3
-11.195	81648.3
-11.190	81645.3
-11.185	81664.3
-11.180	81679.3
-11.175	81676.3
-11.170	81680.3
-11.165	81681.3
-11.160	81686.3
-11.155	81680.3
-11.150	81692.2
-11.145	81684.3
-11.140	81690.3
-11.135	81683.3
-11.130	81660.3
-11.125	81651.3
-11.120	81676.3
-11.115	81688.3
-11.110	81686.3
-11.105	81667.3
-11.100	81673.3
-11.095	81668.3
-11.090	81666.3
-11.085	81671.3
-11.080	81677.3
-11.075	81671.3
-11.070	81680.3
-11.065	81672.3
-11.060	81650.3
-11.055	81653.3
-11.050	81673.3
-11.045	81677.3
-11.040	81665.3
-11.035	81672.3
-11.030	81680.3
-11.025	81690.2
-11.020	81687.2
-11.015	81686.2
-11.010	81686.2
-11.005	81681.3
-11.000	81663.3
-10.995	81644.3
-10.990	81663.3
-10.985	81685.2
-10.980	81691.2
-10.975	81676.3
-10.970	81681.3
-10.965	81676.3
-10.960	81669.3
-10.955	81682.3
-10.950	81675.3
-10.945	81673.3
-10.940	81686.2
-10.935	81687.2
-10.930	81667.3
-10.925	81653.3
-10.920	81666.3
-10.915	81683.2
-10.910	81690.2
-10.905	81685.2
-10.900	81691.2
-10.895	81681.2
-10.890	81702.2
-10.885	81710.2
-10.880	81701.2
-10.875	81700.2
-10.870	81704.2
-10.865	81681.2
-10.860	81681.2
-10.855	81688.2
-10.850	81716.2
-10.845	81710.2
-10.840	81713.2
-10.835	81702.2
-10.830	81709.2
-10.825	81718.2
-10.820	81723.2
-10.815	81724.2
-10.810	81717.2
-10.805	81720.2
-10.800	81718.2
-10.795	81688.2
-10.790	81699.2
-10.785	81724.2
-10.780	81735.2
-10.775	81728.2
-10.770	81733.2
-10.765	81726.2
-10.760	81745.2
-10.755	81743.2
-10.750	81751.2
-10.745	81749.2
-10.740	81748.2
-10.735	81752.2
-10.730	81723.2
-10.725	81723.2
-10.720	81753.2
-10.715	81753.2
-10.710	81748.2
-10.705	81739.2
-10.700	81742.2
-10.695	81744.2
-10.690	81750.2
-10.685	81745.2
-10.680	81755.2
-10.675	81757.2
-10.670	81756.2
-10.665	81733.2
-10.660	81711.2
-10.655	81727.2
-10.650	81754.2
-10.645	81753.2
-10.640	81759.2
-10.635	81763.2
-10.630	81768.2
-10.625	81761.2
-10.620	81774.2
-10.615	81759.2
-10.610	81762.2
-10.605	81755.2
-10.600	81740.2
-10.595	81715.2
-10.590	81719.2
-10.585	81747.2
-10.580	81751.2
-10.575	81729.2
-10.570	81733.2
-10.565	81737.2
-10.560	81742.2
-10.555	81724.2
-10.550	81728.2
-10.545	81731.2
-10.540	81731.2
-10.535	81730.2
-10.530	81707.2
-10.525	81705.2
-10.520	81716.2
-10.515	81726.2
-10.510	81728.2
-10.505	81717.2
-10.500	81708.2
-10.495	81705.2
-10.490	81712.2
-10.485	81704.2
-10.480	81714.2
-10.475	81706.2
-10.470	81701.2
-10.465	81673.2
-10.460	81675.2
-10.455	81684.2
-10.450	81708.2
-10.445	81703.2
-10.440	81689.2
-10.435	81675.2
-10.430	81685.2
-10.425	81674.2
-10.420	81682.2
-10.415	81678.2
-10.410	81693.2
-10.405	81693.2
-10.400	81688.2
-10.395	81659.3
-10.390	81672.2
-10.385	81704.2
-10.380	81703.2
-10.375	81699.2
-10.370	81705.2
-10.365	81699.2
-10.360	81702.2
-10.355	81704.2
-10.350	81712.2
-10.345	81713.2
-10.340	81710.2
-10.335	81716.2
-10.330	81681.2
-10.325	81680.2
-10.320	81697.2
-10.315	81707.2
-10.310	81696.2
-10.305	81705.2
-10.300	81705.2
-10.295	81683.2
-10.290	81695.2
-10.285	81695.2
-10.280	81686.2
-10.275	81705.2
-10.270	81703.2
-10.265	81671.2
-10.260	81674.2
-10.255	81688.2
-10.250	81704.2
-10.245	81711.2
-10.240	81720.2
-10.235	81713.2
-10.230	81720.2
-10.225	81723.2
-10.220	81731.2
-10.215	81727.2
-10.210	81729.2
-10.205	81730.2
-10.200	81717.2
-10.195	81684.2
-10.190	81699.2
-10.185	81725.2
-10.180	81742.2
-10.175	81716.2
-10.170	81715.2
-10.165	81715.2
-10.160	81713.2
-10.155	81712.2
-10.150	81724.2
-10.145	81726.2
-10.140	81723.2
-10.135	81715.2
-10.130	81689.2
-10.125	81690.2
-10.120	81709.2
-10.115	81715.2
-10.110	81726.2
-10.105	81731.2
-10.100	81727.2
-10.095	81728.2
-10.090	81730.2
-10.085	81722.2
-10.080	81734.2
-10.075	81726.2
-10.070	81731.2
-10.065	81705.2
-10.060	81705.2
-10.055	81714.2
-10.050	81727.2
-10.045	81722.2
-10.040	81715.2
-10.035	81709.2
-10.030	81715.2
-10.025	81720.2
-10.020	81726.2
-10.015	81726.2
-10.010	81740.2
-10.005	81731.2
-10.000	81715.2
-9.995	81687.2
-9.990	81696.2
-9.985	81719.2
-9.980	81737.2
-9.975	81731.2
-9.970	81731.2
-9.965	81734.2
-9.960	81745.2
-9.955	81738.2
-9.950	81750.2
-9.945	81742.2
-9.940	81739.2
-9.935	81741.2
-9.930	81700.2
-9.925	81707.2
-9.920	81741.2
-9.915	81736.2
-9.910	81735.2
-9.905	81726.2
-9.900	81722.2
-9.895	81716.2
-9.890	81721.2
-9.885	81728.2
-9.880	81737.2
-9.875	81731.2
-9.870	81732.2
-9.865	81698.2
-9.860	81687.2
-9.855	81698.2
-9.850	81729.2
-9.845	81716.2
-9.840	81708.2
-9.835	81724.2
-9.830	81718.2
-9.825	81732.2
-9.820	81735.2
-9.815	81724.2
-9.810	81725.2
-9.805	81714.2
-9.800	81703.2
-9.795	81678.2
-9.790	81697.2
-9.785	81725.2
-9.780	81716.2
-9.775	81698.2
-9.770	81705.2
-9.765	81699.2
-9.760	81702.2
-9.755	81705.2
-9.750	81711.2
-9.745	81711.2
-9.740	81711.2
-9.735	81706.2
-9.730	81684.2
-9.725	81676.2
-9.720	81702.2
-9.715	81715.2
-9.710	81720.2
-9.705	81716.2
-9.700	81720.2
-9.695	81721.2
-9.690	81723.2
-9.685	81724.2
-9.680	81720.2
-9.675	81722.2
-9.670	81716.2
-9.665	81687.2
-9.660	81683.2
-9.655	81697.2
-9.650	81718.2
-9.645	81713.2
-9.640	81714.2
-9.635	81696.2
-9.630	81700.2
-9.625	81707.2
-9.620	81707.2
-9.615	81702.2
-9.610	81708.2
-9.605	81712.2
-9.600	81683.2
-9.595	81665.2
-9.590	81671.2
-9.585	81694.2
-9.580	81705.2
-9.575	81701.2
-9.570	81698.2
-9.565	81690.2
-9.560	81685.2
-9.555	81687.2
-9.550	81701.2
-9.545	81702.2
-9.540	81694.2
-9.535	81665.2
-9.530	81645.2
-9.525	81662.1
-9.520	81681.1
-9.515	81662.0
-9.510	81646.9
-9.505	81621.8
-9.500	81577.6
-9.495	81530.4
-9.490	81516.1
-9.485	81488.8
-9.480	81450.4
-9.475	81395.1
-9.470	81323.7
-9.465	81221.3
-9.460	81172.9
-9.455	81164.4
-9.450	81158.9
-9.445	81136.5
-9.440	81124.1
-9.435	81108.8
-9.430	81108.6
-9.425	81157.6
-9.420	81213.9
-9.415	81264.2
-9.410	81286.7
-9.405	81350.1
-9.400	81455.3
-9.395	81543.5
-9.390	81582.7
-9.385	81603.9
-9.380	81621.0
-9.375	81597.1
-9.370	81564.3
-9.365	81590.3
-9.360	81582.4
-9.355	81491.6
-9.350	81439.7
-9.345	81420.8
-9.340	81432.8
-9.335	81414.9
-9.330	81414.9
-9.325	81419.0
-9.320	81454.0
-9.315	81471.0
-9.310	81474.1
-9.305	81472.1
-9.300	81488.2
-9.295	81507.2
-9.290	81504.2
-9.285	81518.2
-9.280	81539.2
-9.275	81525.3
-9.270	81531.3
-9.265	81500.4
-9.260	81515.4
-9.255	81537.4
-9.250	81544.4
-9.245	81516.5
-9.240	81518.5
-9.235	81508.5
-9.230	81502.5
-9.225	81463.6
-9.220	81455.6
-9.215	81460.6
-9.210	81489.6
-9.205	81494.7
-9.200	81483.7
-9.195	81464.7
-9.190	81478.7
-9.185	81483.7
-9.180	81479.8
-9.175	81459.8
-9.170	81459.8
-9.165	81448.8
-9.160	81447.8
-9.155	81440.9
-9.150	81427.9
-9.145	81407.9
-9.140	81357.0
-9.135	81341.0
-9.130	81327.0
-9.125	81329.0
-9.120	81368.0
-9.115	81397.0
-9.110	81406.0
-9.105	81403.0
-9.100	81391.0
-9.095	81388.0
-9.090	81383.1
-9.085	81377.1
-9.080	81373.1
-9.075	81364.1
-9.070	81364.1
-9.065	81317.2
-9.060	81304.2
-9.055	81321.2
-9.050	81328.2
-9.045	81309.2
-9.040	81296.2
-9.035	81294.2
-9.030	81330.2
-9.025	81337.2
-9.020	81356.2
-9.015	81356.2
-9.010	81371.2
-9.005	81388.2
-9.000	81378.2
-8.995	81382.2
-8.990	81410.2
-8.985	81424.2
-8.980	81435.2
-8.975	81437.2
-8.970	81441.2
-8.965	81436.2
-8.960	81446.2
-8.955	81458.2
-8.950	81473.2
-8.945	81471.2
-8.940	81498.2
-8.935	81507.2
-8.930	81474.2
-8.925	81472.2
-8.920	81554.2
-8.915	81568.2
-8.910	81580.2
-8.905	81574.2
-8.900	81579.2
-8.895	81591.2
-8.890	81606.2
-8.885	81594.2
-8.880	81592.2
-8.875	81573.2
-8.870	81557.3
-8.865	81530.3
-8.860	81535.3
-8.855	81547.3
-8.850	81543.3
-8.845	81529.3
-8.840	81506.3
-8.835	81485.3
-8.830	81472.4
-8.825	81465.4
-8.820	81476.4
-8.815	81487.4
-8.810	81486.4
-8.805	81479.4
-8.800	81451.4
-8.795	81423.4
-8.790	81428.4
-8.785	81450.4
-8.780	81451.4
-8.775	81422.4
-8.770	81262.6
-8.765	80990.8
-8.760	80953.8
-8.755	81218.6
-8.750	81430.4
-8.745	81507.4
-8.740	81518.4
-8.735	81503.4
-8.730	81500.4
-8.725	81523.4
-8.720	81568.4
-8.715	81594.4
-8.710	81593.4
-8.705	81582.4
-8.700	81588.4
-8.695	81585.4
-8.690	81598.4
-8.685	81615.4
-8.680	81614.4
-8.675	81609.4
-8.670	81593.4
-8.665	81583.4
-8.660	81601.4
-8.655	81628.4
-8.650	81659.4
-8.645	81649.4
-8.640	81665.3
-8.635	81678.3
-8.630	81693.3
-8.625	81692.3
-8.620	81698.3
-8.615	81714.3
-8.610	81721.3
-8.605	81719.3
-8.600	81698.4
-8.595	81682.4
-8.590	81714.3
-8.585	81737.3
-8.580	81733.3
-8.575	81721.3
-8.570	81720.4
-8.565	81706.4
-8.560	81731.3
-8.555	81721.4
-8.550	81725.4
-8.545	81725.4
-8.540	81737.4
-8.535	81713.4
-8.530	81692.4
-8.525	81704.4
-8.520	81737.4
-8.515	81746.4
-8.510	81758.4
-8.505	81765.4
-8.500	81763.4
-8.495	81751.4
-8.490	81758.4
-8.485	81757.4
-8.480	81761.4
-8.475	81763.4
-8.470	81771.4
-8.465	81730.4
-8.460	81735.4
-8.455	81752.4
-8.450	81776.4
-8.445	81775.4
-8.440	81761.4
-8.435	81750.4
-8.430	81759.4
-8.425	81743.4
-8.420	81749.4
-8.415	81771.4
-8.410	81764.4
-8.405	81765.4
-8.400	81743.4
-8.395	81732.4
-8.390	81756.4
-8.385	81778.4
-8.380	81780.4
-8.375	81778.4
-8.370	81778.4
-8.365	81777.4
-8.360	81784.4
-8.355	81787.4
-8.350	81787.4
-8.345	81778.4
-8.340	81781.4
-8.335	81758.4
-8.330	81737.4
-8.325	81739.4
-8.320	81776.4
-8.315	81757.4
-8.310	81750.4
-8.305	81735.5
-8.300	81740.5
-8.295	81719.5
-8.290	81728.5
-8.285	81732.5
-8.280	81753.5
-8.275	81765.4
-8.270	81769.4
-8.265	81726.5
-8.260	81724.5
-8.255	81756.5
-8.250	81771.5
-8.245	81766.5
-8.240	81771.5
-8.235	81760.5
-8.230	81770.5
-8.225	81776.5
-8.220	81783.5
-8.215	81775.5
-8.210	81778.5
-8.205	81767.5
-8.200	81742.5
-8.195	81736.5
-8.190	81739.5
-8.185	81754.5
-8.180	81749.5
-8.175	81742.5
-8.170	81727.5
-8.165	81731.5
-8.160	81734.5
-8.155	81735.5
-8.150	81747.5
-8.145	81744.5
-8.140	81757.5
-8.135	81735.5
-8.130	81723.5
-8.125	81724.5
-8.120	81753.5
-8.115	81759.5
-8.110	81764.5
-8.105	81765.5
-8.100	81761.5
-8.095	81758.5
-8.090	81766.5
-8.085	81766.5
-8.080	81766.5
-8.075	81752.5
-8.070	81746.5
-8.065	81709.6
-8.060	81726.5
-8.055	81752.5
-8.050	81762.5
-8.045	81739.5
-8.040	81749.5
-8.035	81736.5
-8.030	81748.5
-8.025	81752.5
-8.020	81757.5
-8.015	81749.5
-8.010	81745.5
-8.005	81758.5
-8.000	81720.6
-7.995	81721.6
-7.990	81732.6
-7.985	81755.5
-7.980	81752.5
-7.975	81743.6
-7.970	81741.6
-7.965	81744.6
-7.960	81750.5
-7.955	81741.6
-7.950	81758.5
-7.945	81745.6
-7.940	81739.6
-7.935	81721.6
-7.930	81704.6
-7.925	81711.6
-7.920	81744.6
-7.915	81747.6
-7.910	81727.6
-7.905	81722.6
-7.900	81733.6
-7.895	81733.6
-7.890	81738.6
-7.885	81749.6
-7.880	81742.6
-7.875	81735.6
-7.870	81739.6
-7.865	81701.6
-7.860	81715.6
-7.855	81732.6
-7.850	81753.6
-7.845	81745.6
-7.840	81751.6
-7.835	81743.6
-7.830	81739.6
-7.825	81738.6
-7.820	81751.6
-7.815	81749.6
-7.810	81755.6
-7.805	81753.6
-7.800	81719.6
-7.795	81711.6
-7.790	81733.6
-7.785	81734.6
-7.780	81737.6
-7.775	81727.6
-7.770	81724.6
-7.765	81726.6
-7.760	81736.6
-7.755	81732.6
-7.750	81744.6
-7.745	81746.6
-7.740	81738.6
-7.735	81714.6
-7.730	81689.6
-7.725	81715.6
-7.720	81734.6
-7.715	81738.6
-7.710	81732.6
-7.705	81735.6
-7.700	81735.6
-7.695	81735.6
-7.690	81740.6
-7.685	81744.6
-7.680	81731.6
-7.675	81737.6
-7.670	81725.6
-7.665	81692.6
-7.660	81706.6
-7.655	81733.6
-7.650	81735.6
-7.645	81734.6
-7.640	81728.6
-7.635	81733.6
-7.630	81725.6
-7.625	81737.6
-7.620	81731.6
-7.615	81726.6
-7.610	81730.6
-7.605	81735.6
-7.600	81710.6
-7.595	81685.7
-7.590	81701.7
-7.585	81729.6
-7.580	81730.6
-7.575	81731.6
-7.570	81730.6
-7.565	81731.6
-7.560	81732.6
-7.555	81730.6
-7.550	81730.6
-7.545	81721.7
-7.540	81723.7
-7.535	81690.7
-7.530	81672.7
-7.525	81687.7
-7.520	81706.7
-7.515	81687.7
-7.510	81690.7
-7.505	81692.7
-7.500	81692.7
-7.495	81681.7
-7.490	81697.7
-7.485	81707.7
-7.480	81722.7
-7.475	81721.7
-7.470	81724.7
-7.465	81694.7
-7.460	81713.7
-7.455	81737.7
-7.450	81745.6
-7.445	81743.7
-7.440	81754.6
-7.435	81748.6
-7.430	81752.6
-7.425	81753.6
-7.420	81752.6
-7.415	81759.6
-7.410	81758.6
-7.405	81742.7
-7.400	81727.7
-7.395	81725.7
-7.390	81745.7
-7.385	81756.6
-7.380	81752.6
-7.375	81745.7
-7.370	81751.7
-7.365	81743.7
-7.360	81745.7
-7.355	81742.7
-7.350	81759.6
-7.345	81749.7
-7.340	81759.7
-7.335	81739.7
-7.330	81726.7
-7.325	81737.7
-7.320	81761.6
-7.315	81757.7
-7.310	81759.7
-7.305	81756.7
-7.300	81763.6
-7.295	81771.6
-7.290	81774.6
-7.285	81778.6
-7.280	81782.6
-7.275	81783.6
-7.270	81769.6
-7.265	81750.7
-7.260	81765.7
-7.255	81786.6
-7.250	81784.6
-7.245	81780.6
-7.240	81792.6
-7.235	81787.6
-7.230	81787.6
-7.225	81783.6
-7.220	81786.6
-7.215	81776.7
-7.210	81775.7
-7.205	81765.7
-7.200	81729.7
-7.195	81722.7
-7.190	81723.7
-7.185	81744.7
-7.180	81742.7
-7.175	81749.7
-7.170	81757.7
-7.165	81756.7
-7.160	81763.7
-7.155	81766.7
-7.150	81776.7
-7.145	81783.7
-7.140	81790.7
-7.135	81768.7
-7.130	81768.7
-7.125	81782.7
-7.120	81822.6
-7.115	81813.6
-7.110	81818.6
-7.105	81806.6
-7.100	81825.6
-7.095	81823.6
-7.090	81820.6
-7.085	81835.6
-7.080	81834.6
-7.075	81832.6
-7.070	81817.6
-7.065	81805.7
-7.060	81812.6
-7.055	81822.6
-7.050	81841.6
-7.045	81839.6
-7.040	81837.6
-7.035	81837.6
-7.030	81840.6
-7.025	81836.6
-7.020	81832.6
-7.015	81829.6
-7.010	81828.6
-7.005	81825.6
-7.000	81795.7
-6.995	81796.7
-6.990	81796.7
-6.985	81797.7
-6.980	81798.7
-6.975	81787.7
-6.970	81788.7
-6.965	81797.7
-6.960	81797.7
-6.955	81803.7
-6.950	81813.7
-6.945	81813.7
-6.940	81819.7
-6.935	81799.7
-6.930	81783.7
-6.925	81812.7
-6.920	81824.6
-6.915	81826.6
-6.910	81837.6
-6.905	81820.7
-6.900	81827.6
-6.895	81824.7
-6.890	81831.6
-6.885	81828.6
-6.880	81832.6
-6.875	81822.7
-6.870	81821.7
-6.865	81780.7
-6.860	81802.7
-6.855	81818.7
-6.850	81811.7
-6.845	81797.7
-6.840	81796.7
-6.835	81797.7
-6.830	81792.7
-6.825	81790.7
-6.820	81797.7
-6.815	81779.7
-6.810	81764.7
-6.805	81760.7
-6.800	81705.7
-6.795	81669.8
-6.790	81668.8
-6.785	81652.8
-6.780	81616.8
-6.775	81611.8
-6.770	81602.8
-6.765	81569.8
-6.760	81517.9
-6.755	81458.9
-6.750	81434.9
-6.745	81432.9
-6.740	81391.0
-6.735	81305.0
-6.730	81274.1
-6.725	81319.0
-6.720	81407.0
-6.715	81460.9
-6.710	81491.9
-6.705	81534.9
-6.700	81562.9
-6.695	81590.8
-6.690	81646.8
-6.685	81675.8
-6.680	81692.8
-6.675	81702.8
-6.670	81710.7
-6.665	81683.8
-6.660	81708.8
-6.655	81742.7
-6.650	81750.7
-6.645	81748.7
-6.640	81758.7
-6.635	81750.7
-6.630	81765.7
-6.625	81761.7
-6.620	81772.7
-6.615	81760.7
-6.610	81763.7
-6.605	81752.7
-6.600	81719.7
-6.595	81728.7
-6.590	81753.7
-6.585	81759.7
-6.580	81747.7
-6.575	81756.7
-6.570	81758.7
-6.565	81748.7
-6.560	81736.7
-6.555	81745.7
-6.550	81741.7
-6.545	81745.7
-6.540	81743.7
-6.535	81712.8
-6.530	81698.8
-6.525	81707.8
-6.520	81731.7
-6.515	81721.8
-6.510	81722.8
-6.505	81729.8
-6.500	81727.8
-6.495	81725.8
-6.490	81708.8
-6.485	81698.8
-6.480	81694.8
-6.475	81659.8
-6.470	81623.8
-6.465	81572.9
-6.460	81569.9
-6.455	81541.9
-6.450	81528.9
-6.445	81478.9
-6.440	81452.0
-6.435	81405.0
-6.430	81393.0
-6.425	81342.0
-6.420	81303.1
-6.415	81262.1
-6.410	81225.1
-6.405	81191.2
-6.400	81165.2
-6.395	81161.2
-6.390	81227.1
-6.385	81293.1
-6.380	81350.0
-6.375	81405.0
-6.370	81453.0
-6.365	81499.9
-6.360	81541.9
-6.355	81567.9
-6.350	81602.9
-6.345	81629.8
-6.340	81668.8
-6.335	81640.8
-6.330	81654.8
-6.325	81683.8
-6.320	81715.8
-6.315	81716.8
-6.310	81711.8
-6.305	81726.8
-6.300	81724.8
-6.295	81721.8
-6.290	81723.8
-6.285	81738.8
-6.280	81742.8
-6.275	81740.8
-6.270	81728.8
-6.265	81691.8
-6.260	81711.8
-6.255	81741.8
-6.250	81743.8
-6.245	81733.8
-6.240	81743.8
-6.235	81745.8
-6.230	81749.8
-6.225	81745.8
-6.220	81750.7
-6.215	81740.8
-6.210	81741.8
-6.205	81735.8
-6.200	81703.8
-6.195	81710.8
-6.190	81729.8
-6.185	81745.8
-6.180	81752.8
-6.175	81740.8
-6.170	81735.8
-6.165	81719.8
-6.160	81730.8
-6.155	81722.8
-6.150	81725.8
-6.145	81733.8
-6.140	81739.8
-6.135	81709.8
-6.130	81702.8
-6.125	81717.8
-6.120	81731.8
-6.115	81729.8
-6.110	81735.8
-6.105	81728.8
-6.100	81742.8
-6.095	81741.8
-6.090	81741.8
-6.085	81743.8
-6.080	81746.8
-6.075	81737.8
-6.070	81722.8
-6.065	81701.8
-6.060	81714.8
-6.055	81741.8
-6.050	81738.8
-6.045	81725.8
-6.040	81731.8
-6.035	81717.8
-6.030	81727.8
-6.025	81735.8
-6.020	81736.8
-6.015	81734.8
-6.010	81742.8
-6.005	81722.8
-6.000	81692.8
-5.995	81697.8
-5.990	81727.8
-5.985	81733.8
-5.980	81738.8
-5.975	81728.8
-5.970	81741.8
-5.965	81735.8
-5.960	81737.8
-5.955	81739.8
-5.950	81756.8
-5.945	81754.8
-5.940	81746.8
-5.935	81711.8
-5.930	81715.8
-5.925	81733.8
-5.920	81759.8
-5.915	81746.8
-5.910	81745.8
-5.905	81751.8
-5.900	81742.8
-5.895	81748.8
-5.890	81757.8
-5.885	81746.8
-5.880	81750.8
-5.875	81759.8
-5.870	81742.8
-5.865	81713.8
-5.860	81731.8
-5.855	81749.8
-5.850	81749.8
-5.845	81752.8
-5.840	81752.8
-5.835	81752.8
-5.830	81748.8
-5.825	81759.8
-5.820	81752.8
-5.815	81746.8
-5.810	81749.8
-5.805	81734.8
-5.800	81702.8
-5.795	81712.8
-5.790	81740.8
-5.785	81738.8
-5.780	81734.8
-5.775	81719.8
-5.770	81727.8
-5.765	81716.8
-5.760	81718.8
-5.755	81714.8
-5.750	81708.8
-5.745	81702.8
-5.740	81699.7
-5.735	81653.8
-5.730	81653.8
-5.725	81674.7
-5.720	81700.7
-5.715	81695.7
-5.710	81706.7
-5.705	81703.7
-5.700	81693.7
-5.695	81701.7
-5.690	81708.7
-5.685	81702.7
-5.680	81705.7
-5.675	81691.7
-5.670	81667.7
-5.665	81659.8
-5.660	81679.8
-5.655	81696.8
-5.650	81710.8
-5.645	81703.8
-5.640	81700.8
-5.635	81697.8
-5.630	81698.8
-5.625	81698.8
-5.620	81700.8
-5.615	81714.8
-5.610	81715.8
-5.605	81705.8
-5.600	81673.9
-5.595	81671.9
-5.590	81707.8
-5.585	81714.8
-5.580	81714.8
-5.575	81710.8
-5.570	81709.8
-5.565	81703.8
-5.560	81705.8
-5.555	81703.8
-5.550	81707.8
-5.545	81707.8
-5.540	81700.8
-5.535	81659.9
-5.530	81657.9
-5.525	81693.9
-5.520	81700.8
-5.515	81689.9
-5.510	81682.9
-5.505	81674.9
-5.500	81671.9
-5.495	81670.9
-5.490	81678.9
-5.485	81682.9
-5.480	81689.8
-5.475	81669.9
-5.470	81654.9
-5.465	81632.9
-5.460	81650.9
-5.455	81660.9
-5.450	81668.9
-5.445	81647.9
-5.440	81634.9
-5.435	81622.0
-5.430	81595.1
-5.425	81572.2
-5.420	81544.4
-5.415	81477.7
-5.410	81368.1
-5.405	81264.6
-5.400	81160.1
-5.395	81057.6
-5.390	80976.2
-5.385	80880.9
-5.380	80749.6
-5.375	80582.5
-5.370	80500.2
-5.365	80457.8
-5.360	80385.5
-5.355	80269.3
-5.350	80208.9
-5.345	80297.0
-5.340	80507.8
-5.335	80680.3
-5.330	80831.7
-5.325	80973.2
-5.320	81130.7
-5.315	81219.2
-5.310	81279.9
-5.305	81340.6
-5.300	81376.3
-5.295	81402.1
-5.290	81434.9
-5.285	81461.7
-5.280	81476.6
-5.275	81474.4
-5.270	81432.3
-5.265	81414.2
-5.260	81445.1
-5.255	81466.0
-5.250	81496.9
-5.245	81513.8
-5.240	81516.7
-5.235	81515.7
-5.230	81522.6
-5.225	81538.5
-5.220	81532.5
-5.215	81528.4
-5.210	81542.3
-5.205	81530.3
-5.200	81517.3
-5.195	81539.2
-5.190	81610.1
-5.185	81632.0
-5.180	81649.0
-5.175	81635.9
-5.170	81637.9
-5.165	81645.8
-5.160	81669.8
-5.155	81660.7
-5.150	81648.7
-5.145	81637.7
-5.140	81628.6
-5.135	81602.6
-5.130	81622.6
-5.125	81653.5
-5.120	81670.5
-5.115	81670.5
-5.110	81650.5
-5.105	81637.4
-5.100	81641.4
-5.095	81634.4
-5.090	81640.4
-5.085	81646.4
-5.080	81643.3
-5.075	81621.3
-5.070	81582.3
-5.065	81562.3
-5.060	81594.3
-5.055	81643.3
-5.050	81651.2
-5.045	81640.2
-5.040	81638.2
-5.035	81610.2
-5.030	81614.2
-5.025	81618.1
-5.020	81627.1
-5.015	81649.1
-5.010	81674.0
-5.005	81661.0
-5.000	81635.0
-4.995	81636.0
-4.990	81661.0
-4.985	81685.9
-4.980	81708.9
-4.975	81711.9
-4.970	81733.9
-4.965	81738.8
-4.960	81762.8
-4.955	81762.8
-4.950	81778.8
-4.945	81777.7
-4.940	81769.7
-4.935	81740.8
-4.930	81761.7
-4.925	81787.7
-4.920	81814.7
-4.915	81834.6
-4.910	81849.6
-4.905	81855.6
-4.900	81864.6
-4.895	81856.6
-4.890	81866.6
-4.885	81871.6
-4.880	81868.6
-4.875	81855.6
-4.870	81831.6
-4.865	81821.6
-4.860	81837.6
-4.855	81866.5
-4.850	81878.5
-4.845	81881.5
-4.840	81875.5
-4.835	81877.5
-4.830	81863.5
-4.825	81866.5
-4.820	81868.5
-4.815	81869.4
-4.810	81861.4
-4.805	81835.4
-4.800	81822.4
-4.795	81837.4
-4.790	81887.4
-4.785	81888.4
-4.780	81893.4
-4.775	81870.4
-4.770	81870.4
-4.765	81863.4
-4.760	81868.4
-4.755	81863.3
-4.750	81871.3
-4.745	81858.3
-4.740	81853.3
-4.735	81835.3
-4.730	81863.3
-4.725	81867.3
-4.720	81863.3
-4.715	81843.3
-4.710	81852.3
-4.705	81848.3
-4.700	81829.3
-4.695	81808.3
-4.690	81812.3
-4.685	81829.3
-4.680	81847.3
-4.675	81843.3
-4.670	81816.3
-4.665	81816.3
-4.660	81841.2
-4.655	81853.2
-4.650	81856.2
-4.645	81859.2
-4.640	81855.2
-4.635	81852.2
-4.630	81866.1
-4.625	81867.1
-4.620	81847.1
-4.615	81843.1
-4.610	81863.1
-4.605	81848.1
-4.600	81835.1
-4.595	81843.1
-4.590	81875.1
-4.585	81884.1
-4.580	81868.1
-4.575	81854.1
-4.570	81859.1
-4.565	81841.1
-4.560	81843.1
-4.555	81844.1
-4.550	81860.1
-4.545	81856.1
-4.540	81849.1
-4.535	81827.1
-4.530	81824.1
-4.525	81843.1
-4.520	81861.1
-4.515	81859.1
-4.510	81864.0
-4.505	81857.0
-4.500	81867.0
-4.495	81863.0
-4.490	81858.0
-4.485	81850.0
-4.480	81865.0
-4.475	81847.0
-4.470	81820.0
-4.465	81818.0
-4.460	81855.0
-4.455	81863.0
-4.450	81868.0
-4.445	81869.0
-4.440	81885.0
-4.435	81887.9
-4.430	81880.9
-4.425	81875.9
-4.420	81867.9
-4.415	81849.0
-4.410	81852.0
-4.405	81825.0
-4.400	81811.0
-4.395	81839.0
-4.390	81851.9
-4.385	81851.9
-4.380	81861.9
-4.375	81860.9
-4.370	81862.9
-4.365	81862.9
-4.360	81862.9
-4.355	81868.9
-4.350	81877.9
-4.345	81874.9
-4.340	81878.9
-4.335	81850.9
-4.330	81855.9
-4.325	81878.9
-4.320	81884.9
-4.315	81890.9
-4.310	81884.9
-4.305	81882.9
-4.300	81883.9
-4.295	81888.9
-4.290	81908.8
-4.285	81928.8
-4.280	81935.8
-4.275	81923.8
-4.270	81886.8
-4.265	81875.8
-4.260	81877.8
-4.255	81884.8
-4.250	81885.8
-4.245	81890.8
-4.240	81898.8
-4.235	81901.8
-4.230	81910.8
-4.225	81907.8
-4.220	81912.8
-4.215	81897.8
-4.210	81882.8
-4.205	81852.8
-4.200	81842.9
-4.195	81859.8
-4.190	81893.8
-4.185	81875.8
-4.180	81880.8
-4.175	81872.8
-4.170	81879.8
-4.165	81885.7
-4.160	81884.7
-4.155	81864.7
-4.150	81858.7
-4.145	81854.7
-4.140	81830.6
-4.135	81797.6
-4.130	81784.5
-4.125	81809.3
-4.120	81805.1
-4.115	81792.8
-4.110	81763.5
-4.105	81732.1
-4.100	81692.6
-4.095	81639.1
-4.090	81565.6
-4.085	81500.0
-4.080	81431.3
-4.075	81373.7
-4.070	81298.0
-4.065	81245.4
-4.060	81200.7
-4.055	81119.2
-4.050	81080.8
-4.045	81116.5
-4.040	81202.4
-4.035	81240.5
-4.030	81297.9
-4.025	81403.3
-4.020	81494.7
-4.015	81562.1
-4.010	81657.4
-4.005	81698.7
-4.000	81721.0
-3.995	81778.2
-3.990	81861.3
-3.985	81870.5
-3.980	81876.7
-3.975	81838.9
-3.970	81823.0
-3.965	81844.1
-3.960	81880.2
-3.955	81861.3
-3.950	81832.4
-3.945	81829.5
-3.940	81830.6
-3.935	81793.7
-3.930	81778.8
-3.925	81788.8
-3.920	81806.9
-3.915	81786.0
-3.910	81789.0
-3.905	81749.1
-3.900	81723.2
-3.895	81745.2
-3.890	81744.2
-3.885	81718.3
-3.880	81699.4
-3.875	81708.4
-3.870	81675.5
-3.865	81622.6
-3.860	81670.6
-3.855	81689.6
-3.850	81710.6
-3.845	81702.7
-3.840	81701.7
-3.835	81677.7
-3.830	81667.8
-3.825	81669.8
-3.820	81677.8
-3.815	81676.9
-3.810	81670.9
-3.805	81649.0
-3.800	81637.0
-3.795	81653.0
-3.790	81686.0
-3.785	81685.0
-3.780	81690.1
-3.775	81672.1
-3.770	81688.1
-3.765	81686.1
-3.760	81707.1
-3.755	81705.2
-3.750	81720.2
-3.745	81734.2
-3.740	81719.2
-3.735	81687.3
-3.730	81697.3
-3.725	81702.3
-3.720	81700.3
-3.715	81702.3
-3.710	81695.4
-3.705	81680.4
-3.700	81669.4
-3.695	81671.4
-3.690	81689.4
-3.685	81690.4
-3.680	81690.5
-3.675	81698.5
-3.670	81679.5
-3.665	81679.5
-3.660	81710.5
-3.655	81699.5
-3.650	81693.5
-3.645	81679.6
-3.640	81683.6
-3.635	81674.6
-3.630	81680.6
-3.625	81677.6
-3.620	81671.6
-3.615	81672.6
-3.610	81656.7
-3.605	81616.7
-3.600	81596.8
-3.595	81609.8
-3.590	81638.8
-3.585	81612.8
-3.580	81592.8
-3.575	81562.9
-3.570	81570.9
-3.565	81583.0
-3.560	81589.0
-3.555	81580.0
-3.550	81565.1
-3.545	81562.1
-3.540	81565.2
-3.535	81557.3
-3.530	81631.3
-3.525	81729.3
-3.520	81781.3
-3.515	81814.3
-3.510	81831.4
-3.505	81803.5
-3.500	81784.6
-3.495	81761.7
-3.490	81760.7
-3.485	81769.8
-3.480	81783.8
-3.475	81782.9
-3.470	81779.9
-3.465	81767.0
-3.460	81767.0
-3.455	81761.0
-3.450	81760.0
-3.445	81759.0
-3.440	81761.0
-3.435	81762.0
-3.430	81773.0
-3.425	81776.0
-3.420	81785.0
-3.415	81808.0
-3.410	81820.0
-3.405	81756.1
-3.400	81685.2
-3.395	81684.3
-3.390	81760.3
-3.385	81798.3
-3.380	81797.4
-3.375	81739.6
-3.370	81711.7
-3.365	81739.8
-3.360	81775.9
-3.355	81759.0
-3.350	81756.1
-3.345	81741.3
-3.340	81735.3
-3.335	81694.4
-3.330	81693.3
-3.325	81699.3
-3.320	81720.2
-3.315	81733.1
-3.310	81756.1
-3.305	81752.0
-3.300	81759.0
-3.295	81754.0
-3.290	81746.0
-3.285	81739.0
-3.280	81741.9
-3.275	81732.9
-3.270	81714.9
-3.265	81728.9
-3.260	81751.9
-3.255	81755.9
-3.250	81753.9
-3.245	81749.9
-3.240	81761.9
-3.235	81762.9
-3.230	81760.9
-3.225	81757.9
-3.220	81765.9
-3.215	81772.9
-3.210	81773.0
-3.205	81747.0
-3.200	81740.0
-3.195	81743.0
-3.190	81752.0
-3.185	81753.0
-3.180	81758.0
-3.175	81752.1
-3.170	81753.1
-3.165	81736.1
-3.160	81710.1
-3.155	81672.2
-3.150	81667.2
-3.145	81673.2
-3.140	81692.2
-3.135	81694.2
-3.130	81713.2
-3.125	81740.1
-3.120	81748.1
-3.115	81736.2
-3.110	81739.2
-3.105	81725.2
-3.100	81718.2
-3.095	81693.2
-3.090	81692.2
-3.085	81710.2
-3.080	81736.2
-3.075	81720.3
-3.070	81689.3
-3.065	81681.3
-3.060	81715.3
-3.055	81728.3
-3.050	81715.3
-3.045	81723.3
-3.040	81731.3
-3.035	81736.3
-3.030	81747.3
-3.025	81746.3
-3.020	81756.3
-3.015	81758.3
-3.010	81745.3
-3.005	81708.4
-3.000	81696.4
-2.995	81710.4
-2.990	81744.4
-2.985	81746.4
-2.980	81762.4
-2.975	81772.4
-2.970	81776.4
-2.965	81773.4
-2.960	81772.4
-2.955	81788.4
-2.950	81781.4
-2.945	81771.4
-2.940	81749.5
-2.935	81731.5
-2.930	81734.5
-2.925	81762.5
-2.920	81767.5
-2.915	81776.5
-2.910	81781.5
-2.905	81780.5
-2.900	81778.5
-2.895	81766.5
-2.890	81785.5
-2.885	81803.5
-2.880	81817.5
-2.875	81823.5
-2.870	81794.6
-2.865	81781.6
-2.860	81787.6
-2.855	81790.6
-2.850	81790.7
-2.845	81781.7
-2.840	81784.7
-2.835	81789.7
-2.830	81798.6
-2.825	81808.6
-2.820	81805.6
-2.815	81799.6
-2.810	81787.6
-2.805	81751.7
-2.800	81740.7
-2.795	81748.7
-2.790	81782.6
-2.785	81778.6
-2.780	81778.6
-2.775	81770.7
-2.770	81793.7
-2.765	81811.7
-2.760	81818.7
-2.755	81810.7
-2.750	81804.7
-2.745	81804.7
-2.740	81784.7
-2.735	81783.7
-2.730	81802.7
-2.725	81827.7
-2.720	81821.8
-2.715	81815.8
-2.710	81813.8
-2.705	81795.8
-2.700	81795.8
-2.695	81778.8
-2.690	81797.8
-2.685	81797.8
-2.680	81807.8
-2.675	81808.8
-2.670	81786.8
-2.665	81787.8
-2.660	81783.9
-2.655	81784.9
-2.650	81783.9
-2.645	81785.9
-2.640	81778.9
-2.635	81790.9
-2.630	81784.9
-2.625	81758.0
-2.620	81739.0
-2.615	81740.0
-2.610	81752.0
-2.605	81739.0
-2.600	81738.0
-2.595	81758.0
-2.590	81772.0
-2.585	81746.0
-2.580	81724.0
-2.575	81698.0
-2.570	81691.0
-2.565	81711.0
-2.560	81737.0
-2.555	81741.0
-2.550	81747.0
-2.545	81747.0
-2.540	81709.0
-2.535	81689.0
-2.530	81699.0
-2.525	81732.0
-2.520	81752.0
-2.515	81744.0
-2.510	81744.0
-2.505	81741.0
-2.500	81745.0
-2.495	81721.0
-2.490	81718.1
-2.485	81732.0
-2.480	81734.1
-2.475	81726.1
-2.470	81693.1
-2.465	81702.1
-2.460	81713.1
-2.455	81710.1
-2.450	81701.1
-2.445	81704.1
-2.440	81702.1
-2.435	81690.1
-2.430	81695.1
-2.425	81693.1
-2.420	81710.1
-2.415	81736.0
-2.410	81771.0
-2.405	81758.0
-2.400	81746.0
-2.395	81760.1
-2.390	81775.1
-2.385	81772.1
-2.380	81770.1
-2.375	81757.1
-2.370	81762.1
-2.365	81767.1
-2.360	81779.1
-2.355	81794.1
-2.350	81802.1
-2.345	81793.1
-2.340	81763.2
-2.335	81754.2
-2.330	81762.1
-2.325	81759.2
-2.320	81743.2
-2.315	81726.2
-2.310	81738.2
-2.305	81741.1
-2.300	81755.1
-2.295	81732.1
-2.290	81752.1
-2.285	81782.1
-2.280	81809.0
-2.275	81826.0
-2.270	81802.0
-2.265	81790.1
-2.260	81821.0
-2.255	81828.0
-2.250	81825.0
-2.245	81813.1
-2.240	81810.1
-2.235	81802.1
-2.230	81816.1
-2.225	81829.1
-2.220	81832.1
-2.215	81816.1
-2.210	81818.1
-2.205	81770.1
-2.200	81771.1
-2.195	81786.1
-2.190	81817.1
-2.185	81805.1
-2.180	81786.1
-2.175	81777.1
-2.170	81772.1
-2.165	81778.1
-2.160	81783.1
-2.155	81789.1
-2.150	81804.0
-2.145	81804.0
-2.140	81790.0
-2.135	81781.0
-2.130	81813.0
-2.125	81849.0
-2.120	81858.0
-2.115	81856.0
-2.110	81842.1
-2.105	81823.1
-2.100	81822.1
-2.095	81812.1
-2.090	81808.1
-2.085	81791.2
-2.080	81790.2
-2.075	81771.2
-2.070	81759.2
-2.065	81769.2
-2.060	81799.1
-2.055	81790.1
-2.050	81793.1
-2.045	81785.1
-2.040	81786.1
-2.035	81783.1
-2.030	81776.2
-2.025	81769.2
-2.020	81763.1
-2.015	81772.1
-2.010	81775.1
-2.005	81743.1
-2.000	81740.1
-1.995	81763.1
-1.990	81782.1
-1.985	81786.1
-1.980	81797.1
-1.975	81788.1
-1.970	81807.1
-1.965	81814.1
-1.960	81810.1
-1.955	81822.1
-1.950	81811.1
-1.945	81800.1
-1.940	81784.1
-1.935	81754.1
-1.930	81765.1
-1.925	81772.1
-1.920	81766.1
-1.915	81741.1
-1.910	81763.1
-1.905	81765.1
-1.900	81791.1
-1.895	81808.1
-1.890	81808.1
-1.885	81788.1
-1.880	81793.1
-1.875	81787.1
-1.870	81758.1
-1.865	81749.1
-1.860	81775.1
-1.855	81772.1
-1.850	81776.0
-1.845	81765.0
-1.840	81768.0
-1.835	81783.0
-1.830	81786.0
-1.825	81793.0
-1.820	81805.0
-1.815	81811.0
-1.810	81815.0
-1.805	81781.0
-1.800	81782.0
-1.795	81799.0
-1.790	81809.0
-1.785	81787.0
-1.780	81772.0
-1.775	81755.1
-1.770	81754.0
-1.765	81755.0
-1.760	81752.0
-1.755	81751.0
-1.750	81754.0
-1.745	81757.0
-1.740	81724.0
-1.735	81715.0
-1.730	81734.0
-1.725	81768.0
-1.720	81773.9
-1.715	81774.9
-1.710	81790.9
-1.705	81801.9
-1.700	81812.9
-1.695	81804.9
-1.690	81813.9
-1.685	81809.0
-1.680	81802.0
-1.675	81778.0
-1.670	81766.0
-1.665	81781.0
-1.660	81801.9
-1.655	81792.0
-1.650	81788.0
-1.645	81781.0
-1.640	81778.9
-1.635	81784.9
-1.630	81794.9
-1.625	81785.9
-1.620	81804.9
-1.615	81801.9
-1.610	81805.9
-1.605	81769.0
-1.600	81775.9
-1.595	81777.9
-1.590	81790.9
-1.585	81784.9
-1.580	81782.9
-1.575	81777.9
-1.570	81794.9
-1.565	81777.9
-1.560	81774.9
-1.555	81764.9
-1.550	81764.8
-1.545	81773.8
-1.540	81748.8
-1.535	81744.8
-1.530	81766.8
-1.525	81800.8
-1.520	81817.8
-1.515	81819.8
-1.510	81823.8
-1.505	81828.8
-1.500	81843.8
-1.495	81835.8
-1.490	81836.8
-1.485	81847.8
-1.480	81858.8
-1.475	81839.8
-1.470	81811.8
-1.465	81830.7
-1.460	81859.7
-1.455	81870.7
-1.450	81872.7
-1.445	81876.7
-1.440	81874.7
-1.435	81867.7
-1.430	81869.7
-1.425	81871.6
-1.420	81866.7
-1.415	81858.7
-1.410	81869.6
-1.405	81834.7
-1.400	81841.7
-1.395	81853.6
-1.390	81866.6
-1.385	81841.6
-1.380	81835.6
-1.375	81837.6
-1.370	81833.6
-1.365	81837.6
-1.360	81852.6
-1.355	81855.6
-1.350	81856.6
-1.345	81848.6
-1.340	81827.6
-1.335	81812.6
-1.330	81828.5
-1.325	81850.5
-1.320	81852.5
-1.315	81850.5
-1.310	81857.5
-1.305	81862.5
-1.300	81869.5
-1.295	81868.5
-1.290	81882.5
-1.285	81871.5
-1.280	81867.5
-1.275	81844.5
-1.270	81826.5
-1.265	81838.5
-1.260	81864.5
-1.255	81854.5
-1.250	81845.5
-1.245	81852.5
-1.240	81852.5
-1.235	81855.5
-1.230	81863.5
-1.225	81860.5
-1.220	81873.5
-1.215	81879.5
-1.210	81879.5
-1.205	81854.5
-1.200	81869.5
-1.195	81872.5
-1.190	81882.5
-1.185	81875.5
-1.180	81857.5
-1.175	81851.5
-1.170	81850.5
-1.165	81851.5
-1.160	81852.4
-1.155	81855.4
-1.150	81862.4
-1.145	81846.4
-1.140	81822.4
-1.135	81801.4
-1.130	81826.4
-1.125	81823.4
-1.120	81814.4
-1.115	81809.4
-1.110	81802.4
-1.105	81795.4
-1.100	81800.4
-1.095	81793.4
-1.090	81796.3
-1.085	81795.3
-1.080	81787.3
-1.075	81766.3
-1.070	81747.3
-1.065	81753.3
-1.060	81794.3
-1.055	81796.3
-1.050	81801.3
-1.045	81787.3
-1.040	81774.3
-1.035	81780.3
-1.030	81767.3
-1.025	81771.3
-1.020	81791.3
-1.015	81788.3
-1.010	81773.3
-1.005	81732.4
-1.000	81738.4
-0.995	81750.4
-0.990	81748.4
-0.985	81742.4
-0.980	81727.4
-0.975	81718.4
-0.970	81716.4
-0.965	81710.4
-0.960	81712.4
-0.955	81710.4
-0.950	81708.4
-0.945	81701.4
-0.940	81673.4
-0.935	81647.4
-0.930	81654.3
-0.925	81667.3
-0.920	81652.3
-0.915	81649.3
-0.910	81646.3
-0.905	81642.3
-0.900	81657.3
-0.895	81650.3
-0.890	81652.3
-0.885	81656.3
-0.880	81649.2
-0.875	81632.3
-0.870	81623.3
-0.865	81653.2
-0.860	81684.2
-0.855	81692.2
-0.850	81696.2
-0.845	81700.1
-0.840	81700.1
-0.835	81695.1
-0.830	81705.1
-0.825	81714.1
-0.820	81717.1
-0.815	81702.1
-0.810	81699.1
-0.805	81664.1
-0.800	81663.1
-0.795	81664.1
-0.790	81687.0
-0.785	81681.0
-0.780	81686.0
-0.775	81676.0
-0.770	81678.0
-0.765	81680.0
-0.760	81677.0
-0.755	81672.0
-0.750	81678.0
-0.745	81675.0
-0.740	81660.0
-0.735	81663.0
-0.730	81674.9
-0.725	81685.9
-0.720	81675.9
-0.715	81654.0
-0.710	81652.9
-0.705	81636.0
-0.700	81641.0
-0.695	81626.0
-0.690	81641.0
-0.685	81632.0
-0.680	81640.9
-0.675	81628.0
-0.670	81625.0
-0.665	81646.9
-0.660	81672.9
-0.655	81664.9
-0.650	81670.9
-0.645	81667.9
-0.640	81671.9
-0.635	81672.9
-0.630	81684.9
-0.625	81682.9
-0.620	81678.9
-0.615	81671.9
-0.610	81663.9
-0.605	81623.9
-0.600	81626.9
-0.595	81644.9
-0.590	81659.9
-0.585	81656.9
-0.580	81649.9
-0.575	81644.9
-0.570	81647.8
-0.565	81652.8
-0.560	81653.8
-0.555	81661.8
-0.550	81666.8
-0.545	81670.8
-0.540	81631.8
-0.535	81622.8
-0.530	81629.8
-0.525	81638.8
-0.520	81644.8
-0.515	81652.7
-0.510	81659.7
-0.505	81666.7
-0.500	81668.7
-0.495	81665.7
-0.490	81664.7
-0.485	81647.7
-0.480	81651.7
-0.475	81625.7
-0.470	81636.7
-0.465	81661.6
-0.460	81698.6
-0.455	81697.6
-0.450	81684.6
-0.445	81672.6
-0.440	81668.6
-0.435	81670.6
-0.430	81691.6
-0.425	81691.6
-0.420	81700.6
-0.415	81694.6
-0.410	81702.5
-0.405	81663.6
-0.400	81666.6
-0.395	81682.6
-0.390	81670.6
-0.385	81636.6
-0.380	81616.6
-0.375	81620.6
-0.370	81625.6
-0.365	81635.6
-0.360	81637.6
-0.355	81643.5
-0.350	81615.5
-0.345	81597.6
-0.340	81569.6
-0.335	81581.6
-0.330	81606.5
-0.325	81621.5
-0.320	81651.5
-0.315	81657.5
-0.310	81670.5
-0.305	81652.5
-0.300	81629.5
-0.295	81609.5
-0.290	81597.5
-0.285	81598.5
-0.280	81597.5
-0.275	81602.5
-0.270	81606.4
-0.265	81623.4
-0.260	81649.4
-0.255	81649.4
-0.250	81665.4
-0.245	81659.4
-0.240	81679.3
-0.235	81685.3
-0.230	81691.3
-0.225	81669.3
-0.220	81673.3
-0.215	81676.3
-0.210	81640.3
-0.205	81590.3
-0.200	81600.3
-0.195	81644.3
-0.190	81655.3
-0.185	81689.2
-0.180	81709.2
-0.175	81679.2
-0.170	81660.2
-0.165	81653.2
-0.160	81642.2
-0.155	81653.2
-0.150	81677.2
-0.145	81703.2
-0.140	81707.2
-0.135	81698.2
-0.130	81705.2
-0.125	81693.2
-0.120	81679.2
-0.115	81695.3
-0.110	81739.3
-0.105	81741.3
-0.100	81739.3
-0.095	81738.3
-0.090	81727.3
-0.085	81715.2
-0.080	81701.2
-0.075	81687.1
-0.070	81701.1
-0.065	81703.0
-0.060	81683.9
-0.055	81623.8
-0.050	81603.7
-0.045	81577.6
-0.040	81522.5
-0.035	81463.5
-0.030	81524.5
-0.025	81650.4
-0.020	81678.5
-0.015	81645.7
-0.010	81660.9
-0.005	81677.1
0.000	81659.3
0.005	81659.5
0.010	81702.6
0.015	81720.7
0.020	81706.7
0.025	81640.7
0.030	81609.6
0.035	81570.5
0.040	81549.4
0.045	81534.2
0.050	81554.0
0.055	81613.8
0.060	81624.7
0.065	81649.6
0.070	81654.5
0.075	81626.6
0.080	81595.6
0.085	81591.7
0.090	81614.7
0.095	81623.7
0.100	81627.8
0.105	81623.8
0.110	81603.9
0.115	81580.9
0.120	81570.9
0.125	81560.9
0.130	81565.9
0.135	81577.9
0.140	81596.9
0.145	81598.9
0.150	81601.8
0.155	81597.8
0.160	81575.9
0.165	81556.9
0.170	81540.9
0.175	81541.8
0.180	81554.8
0.185	81550.8
0.190	81538.8
0.195	81512.8
0.200	81526.8
0.205	81529.8
0.210	81517.8
0.215	81487.8
0.220	81469.8
0.225	81456.8
0.230	81448.8
0.235	81443.8
0.240	81438.8
0.245	81429.8
0.250	81459.8
0.255	81462.8
0.260	81454.8
0.265	81450.7
0.270	81480.7
0.275	81504.7
0.280	81520.7
0.285	81524.7
0.290	81502.7
0.295	81495.7
0.300	81503.7
0.305	81528.6
0.310	81544.6
0.315	81556.6
0.320	81562.6
0.325	81521.6
0.330	81502.6
0.335	81517.6
0.340	81519.6
0.345	81527.6
0.350	81542.5
0.355	81583.5
0.360	81614.5
0.365	81640.4
0.370	81668.4
0.375	81666.4
0.380	81657.4
0.385	81657.4
0.390	81648.4
0.395	81612.4
0.400	81628.4
0.405	81637.4
0.410	81629.4
0.415	81616.4
0.420	81610.4
0.425	81603.4
0.430	81606.4
0.435	81607.4
0.440	81618.4
0.445	81625.4
0.450	81632.4
0.455	81639.4
0.460	81599.4
0.465	81593.4
0.470	81615.4
0.475	81615.4
0.480	81618.4
0.485	81630.3
0.490	81637.3
0.495	81632.3
0.500	81642.3
0.505	81640.3
0.510	81647.3
0.515	81655.3
0.520	81660.3
0.525	81643.3
0.530	81663.2
0.535	81690.2
0.540	81724.2
0.545	81719.2
0.550	81732.2
0.555	81737.1
0.560	81738.1
0.565	81734.1
0.570	81726.1
0.575	81702.1
0.580	81704.1
0.585	81703.1
0.590	81666.2
0.595	81627.2
0.600	81627.2
0.605	81626.2
0.610	81617.2
0.615	81621.2
0.620	81607.2
0.625	81601.2
0.630	81590.2
0.635	81588.2
0.640	81596.2
0.645	81613.1
0.650	81614.1
0.655	81600.1
0.660	81564.2
0.665	81544.2
0.670	81575.1
0.675	81567.1
0.680	81569.1
0.685	81564.1
0.690	81546.2
0.695	81531.2
0.700	81529.2
0.705	81507.2
0.710	81505.2
0.715	81482.2
0.720	81484.2
0.725	81456.2
0.730	81453.2
0.735	81470.1
0.740	81489.1
0.745	81486.1
0.750	81476.1
0.755	81453.1
0.760	81435.1
0.765	81432.1
0.770	81432.1
0.775	81414.1
0.780	81404.1
0.785	81393.1
0.790	81366.1
0.795	81315.1
0.800	81319.1
0.805	81345.1
0.810	81335.1
0.815	81325.1
0.820	81318.1
0.825	81301.1
0.830	81276.1
0.835	81254.1
0.840	81225.1
0.845	81207.2
0.850	81189.2
0.855	81163.2
0.860	81135.2
0.865	81142.2
0.870	81168.2
0.875	81175.2
0.880	81179.2
0.885	81178.2
0.890	81200.1
0.895	81199.1
0.900	81223.1
0.905	81233.1
0.910	81248.0
0.915	81259.0
0.920	81273.0
0.925	81259.0
0.930	81284.0
0.935	81308.0
0.940	81332.9
0.945	81317.9
0.950	81314.9
0.955	81291.9
0.960	81290.9
0.965	81270.9
0.970	81267.9
0.975	81266.9
0.980	81250.9
0.985	81249.9
0.990	81229.9
0.995	81205.0
1.000	81214.9
1.005	81229.9
1.010	81219.9
1.015	81220.9
1.020	81239.9
1.025	81253.9
1.030	81263.9
1.035	81280.9
1.040	81307.8
1.045	81325.8
1.050	81363.8
1.055	81395.7
1.060	81402.7
1.065	81433.7
1.070	81480.6
1.075	81494.6
1.080	81507.6
1.085	81503.6
1.090	81507.6
1.095	81512.5
1.100	81516.5
1.105	81519.5
1.110	81509.5
1.115	81514.5
1.120	81527.5
1.125	81483.5
1.130	81485.6
1.135	81505.5
1.140	81521.6
1.145	81522.6
1.150	81527.6
1.155	81524.6
1.160	81532.6
1.165	81538.6
1.170	81542.6
1.175	81557.6
1.180	81568.6
1.185	81567.5
1.190	81561.5
1.195	81551.5
1.200	81571.5
1.205	81603.5
1.210	81591.5
1.215	81590.5
1.220	81603.4
1.225	81616.4
1.230	81654.4
1.235	81674.4
1.240	81711.4
1.245	81731.3
1.250	81759.3
1.255	81760.3
1.260	81736.3
1.265	81751.3
1.270	81785.3
1.275	81791.2
1.280	81785.2
1.285	81791.2
1.290	81794.2
1.295	81770.2
1.300	81777.2
1.305	81771.2
1.310	81758.2
1.315	81754.2
1.320	81761.2
1.325	81740.2
1.330	81744.2
1.335	81758.2
1.340	81790.1
1.345	81791.1
1.350	81793.1
1.355	81779.1
1.360	81767.1
1.365	81768.1
1.370	81756.1
1.375	81744.1
1.380	81751.1
1.385	81727.2
1.390	81701.2
1.395	81686.2
1.400	81715.2
1.405	81744.2
1.410	81757.2
1.415	81732.2
1.420	81711.2
1.425	81706.2
1.430	81717.2
1.435	81753.2
1.440	81763.2
1.445	81742.2
1.450	81688.2
1.455	81638.2
1.460	81615.2
1.465	81624.2
1.470	81682.1
1.475	81718.1
1.480	81746.1
1.485	81752.0
1.490	81742.0
1.495	81740.0
1.500	81728.0
1.505	81722.0
1.510	81743.0
1.515	81749.0
1.520	81755.0
1.525	81713.0
1.530	81710.0
1.535	81718.0
1.540	81728.0
1.545	81703.0
1.550	81712.0
1.555	81721.9
1.560	81710.9
1.565	81703.9
1.570	81703.9
1.575	81718.9
1.580	81760.9
1.585	81746.9
1.590	81706.9
1.595	81675.0
1.600	81663.0
1.605	81659.0
1.610	81646.0
1.615	81657.0
1.620	81698.0
1.625	81711.0
1.630	81731.0
1.635	81719.0
1.640	81703.0
1.645	81702.0
1.650	81709.0
1.655	81701.0
1.660	81681.0
1.665	81693.0
1.670	81725.9
1.675	81709.9
1.680	81693.9
1.685	81690.9
1.690	81689.9
1.695	81680.9
1.700	81680.9
1.705	81680.9
1.710	81719.9
1.715	81789.8
1.720	81901.7
1.725	81954.7
1.730	82030.7
1.735	82096.6
1.740	82111.6
1.745	82071.6
1.750	82017.6
1.755	81914.7
1.760	81807.8
1.765	81683.9
1.770	81618.9
1.775	81619.9
1.780	81644.9
1.785	81677.8
1.790	81709.8
1.795	81753.8
1.800	81774.8
1.805	81696.9
1.810	81568.1
1.815	81495.1
1.820	81535.1
1.825	81594.0
1.830	81638.0
1.835	81675.9
1.840	81720.9
1.845	81727.9
1.850	81713.9
1.855	81684.9
1.860	81665.9
1.865	81715.8
1.870	81827.8
1.875	81879.7
1.880	81896.7
1.885	81858.8
1.890	81800.8
1.895	81775.8
1.900	81746.8
1.905	81715.8
1.910	81702.8
1.915	81704.8
1.920	81705.8
1.925	81678.8
1.930	81705.8
1.935	81736.8
1.940	81763.7
1.945	81760.7
1.950	81767.7
1.955	81758.7
1.960	81743.7
1.965	81748.7
1.970	81774.7
1.975	81786.7
1.980	81764.7
1.985	81701.8
1.990	81604.9
1.995	81538.9
2.000	81539.9
2.005	81581.9
2.010	81590.9
2.015	81561.9
2.020	81566.9
2.025	81583.9
2.030	81601.9
2.035	81581.9
2.040	81592.9
2.045	81610.9
2.050	81631.8
2.055	81615.9
2.060	81571.9
2.065	81524.9
2.070	81544.9
2.075	81529.9
2.080	81531.9
2.085	81542.9
2.090	81550.9
2.095	81545.9
2.100	81512.9
2.105	81462.9
2.110	81410.0
2.115	81377.0
2.120	81426.0
2.125	81460.0
2.130	81480.0
2.135	81468.0
2.140	81438.0
2.145	81417.1
2.150	81463.0
2.155	81486.0
2.160	81476.0
2.165	81490.0
2.170	81506.0
2.175	81537.0
2.180	81546.9
2.185	81530.0
2.190	81506.0
2.195	81534.9
2.200	81568.9
2.205	81565.0
2.210	81526.0
2.215	81463.0
2.220	81417.0
2.225	81379.1
2.230	81362.1
2.235	81373.1
2.240	81402.1
2.245	81459.0
2.250	81513.0
2.255	81534.9
2.260	81542.9
2.265	81546.0
2.270	81570.9
2.275	81548.9
2.280	81502.9
2.285	81451.0
2.290	81454.0
2.295	81491.0
2.300	81544.9
2.305	81571.9
2.310	81571.9
2.315	81527.9
2.320	81451.9
2.325	81323.1
2.330	81264.1
2.335	81284.1
2.340	81319.1
2.345	81351.1
2.350	81393.1
2.355	81446.0
2.360	81476.0
2.365	81504.0
2.370	81513.0
2.375	81537.9
2.380	81564.9
2.385	81545.9
2.390	81500.0
2.395	81470.0
2.400	81441.0
2.405	81433.0
2.410	81376.1
2.415	81373.1
2.420	81387.1
2.425	81397.1
2.430	81401.1
2.435	81391.1
2.440	81416.1
2.445	81457.1
2.450	81490.1
2.455	81478.1
2.460	81483.1
2.465	81501.1
2.470	81536.1
2.475	81523.1
2.480	81521.1
2.485	81539.1
2.490	81562.0
2.495	81573.0
2.500	81588.0
2.505	81609.0
2.510	81620.0
2.515	81595.0
2.520	81586.0
2.525	81562.0
2.530	81606.0
2.535	81639.0
2.540	81649.0
2.545	81649.0
2.550	81653.0
2.555	81647.0
2.560	81649.0
2.565	81641.0
2.570	81646.0
2.575	81602.1
2.580	81585.1
2.585	81573.1
2.590	81551.1
2.595	81545.1
2.600	81536.1
2.605	81542.1
2.610	81546.1
2.615	81545.1
2.620	81562.1
2.625	81568.1
2.630	81559.1
2.635	81552.1
2.640	81555.1
2.645	81574.1
2.650	81591.1
2.655	81569.1
2.660	81556.1
2.665	81549.1
2.670	81574.1
2.675	81579.2
2.680	81589.2
2.685	81580.2
2.690	81572.2
2.695	81576.2
2.700	81566.2
2.705	81575.2
2.710	81581.2
2.715	81564.2
2.720	81526.3
2.725	81478.3
2.730	81479.4
2.735	81502.3
2.740	81548.3
2.745	81551.3
2.750	81558.3
2.755	81547.3
2.760	81568.3
2.765	81546.4
2.770	81543.4
2.775	81520.4
2.780	81538.4
2.785	81530.4
2.790	81517.4
2.795	81509.4
2.800	81575.4
2.805	81605.3
2.810	81602.3
2.815	81584.4
2.820	81567.4
2.825	81568.4
2.830	81595.3
2.835	81625.3
2.840	81663.3
2.845	81678.3
2.850	81667.3
2.855	81619.4
2.860	81561.4
2.865	81538.4
2.870	81524.5
2.875	81528.5
2.880	81556.5
2.885	81559.5
2.890	81575.5
2.895	81579.5
2.900	81588.5
2.905	81609.5
2.910	81587.5
2.915	81549.5
2.920	81512.6
2.925	81483.6
2.930	81500.6
2.935	81542.6
2.940	81594.6
2.945	81644.5
2.950	81674.5
2.955	81672.5
2.960	81665.6
2.965	81664.6
2.970	81654.6
2.975	81643.6
2.980	81638.6
2.985	81629.6
2.990	81615.6
2.995	81618.6
3.000	81629.6
3.005	81628.6
3.010	81629.7
3.015	81615.7
3.020	81632.7
3.025	81634.7
3.030	81644.7
3.035	81645.7
3.040	81642.7
3.045	81634.7
3.050	81644.7
3.055	81650.7
3.060	81631.8
3.065	81629.8
3.070	81670.7
3.075	81683.7
3.080	81703.7
3.085	81717.7
3.090	81736.7
3.095	81725.7
3.100	81695.8
3.105	81680.8
3.110	81675.8
3.115	81675.8
3.120	81671.8
3.125	81652.8
3.130	81678.8
3.135	81720.8
3.140	81712.8
3.145	81674.8
3.150	81646.9
3.155	81649.9
3.160	81641.9
3.165	81648.9
3.170	81667.9
3.175	81699.9
3.180	81723.9
3.185	81743.9
3.190	81703.9
3.195	81688.0
3.200	81702.0
3.205	81727.0
3.210	81717.0
3.215	81716.0
3.220	81728.0
3.225	81726.0
3.230	81721.0
3.235	81730.0
3.240	81749.0
3.245	81764.0
3.250	81765.0
3.255	81733.0
3.260	81713.0
3.265	81732.0
3.270	81749.0
3.275	81738.0
3.280	81730.9
3.285	81721.9
3.290	81721.9
3.295	81714.9
3.300	81724.8
3.305	81730.8
3.310	81756.8
3.315	81774.7
3.320	81768.7
3.325	81713.7
3.330	81682.8
3.335	81633.8
3.340	81599.9
3.345	81612.9
3.350	81678.9
3.355	81747.9
3.360	81762.0
3.365	81738.1
3.370	81720.3
3.375	81670.5
3.380	81634.7
3.385	81666.8
3.390	81717.9
3.395	81749.9
3.400	81763.9
3.405	81741.9
3.410	81718.9
3.415	81706.9
3.420	81716.9
3.425	81710.9
3.430	81719.9
3.435	81735.9
3.440	81733.9
3.445	81741.9
3.450	81752.9
3.455	81730.9
3.460	81715.0
3.465	81720.0
3.470	81745.0
3.475	81733.1
3.480	81734.1
3.485	81712.2
3.490	81677.3
3.495	81640.4
3.500	81642.5
3.505	81675.5
3.510	81728.6
3.515	81750.6
3.520	81744.7
3.525	81723.8
3.530	81756.8
3.535	81791.8
3.540	81799.9
3.545	81806.9
3.550	81813.0
3.555	81812.0
3.560	81824.1
3.565	81819.1
3.570	81808.1
3.575	81810.1
3.580	81829.1
3.585	81819.2
3.590	81763.2
3.595	81748.3
3.600	81760.3
3.605	81763.3
3.610	81751.3
3.615	81749.3
3.620	81752.3
3.625	81752.3
3.630	81755.4
3.635	81764.4
3.640	81762.4
3.645	81772.4
3.650	81767.4
3.655	81726.4
3.660	81723.5
3.665	81737.5
3.670	81753.5
3.675	81747.5
3.680	81746.5
3.685	81722.5
3.690	81712.6
3.695	81717.6
3.700	81723.6
3.705	81740.6
3.710	81756.6
3.715	81763.6
3.720	81745.6
3.725	81707.7
3.730	81728.7
3.735	81757.7
3.740	81756.7
3.745	81760.7
3.750	81767.7
3.755	81762.8
3.760	81779.8
3.765	81770.8
3.770	81763.8
3.775	81761.9
3.780	81766.9
3.785	81757.9
3.790	81737.0
3.795	81748.0
3.800	81781.0
3.805	81792.0
3.810	81794.0
3.815	81805.1
3.820	81804.1
3.825	81797.1
3.830	81807.2
3.835	81810.2
3.840	81813.2
3.845	81804.3
3.850	81802.3
3.855	81772.4
3.860	81745.5
3.865	81747.5
3.870	81764.5
3.875	81750.6
3.880	81728.6
3.885	81724.7
3.890	81716.7
3.895	81704.8
3.900	81695.9
3.905	81691.9
3.910	81685.0
3.915	81674.0
3.920	81655.1
3.925	81623.2
3.930	81644.3
3.935	81627.4
3.940	81580.5
3.945	81544.6
3.950	81537.7
3.955	81525.8
3.960	81552.9
3.965	81359.2
3.970	80861.7
3.975	80615.0
3.980	80863.0
3.985	81230.0
3.990	81408.1
3.995	81517.3
4.000	81493.6
4.005	81256.0
4.010	80999.5
4.015	80979.8
4.020	81124.0
4.025	81172.2
4.030	81117.4
4.035	81051.6
4.040	81015.7
4.045	80976.6
4.050	80931.5
4.055	80845.3
4.060	80813.9
4.065	80849.4
4.070	80937.6
4.075	81028.7
4.080	81129.8
4.085	81250.8
4.090	81357.8
4.095	81443.0
4.100	81520.4
4.105	81555.9
4.110	81565.7
4.115	81594.5
4.120	81587.4
4.125	81563.3
4.130	81576.3
4.135	81602.2
4.140	81601.2
4.145	81578.2
4.150	81574.2
4.155	81581.2
4.160	81588.1
4.165	81596.1
4.170	81602.1
4.175	81602.1
4.180	81599.1
4.185	81579.1
4.190	81535.1
4.195	81515.2
4.200	81539.1
4.205	81544.1
4.210	81557.1
4.215	81571.1
4.220	81587.1
4.225	81580.1
4.230	81588.1
4.235	81561.1
4.240	81539.1
4.245	81524.1
4.250	81531.1
4.255	81506.1
4.260	81493.1
4.265	81511.1
4.270	81549.1
4.275	81550.1
4.280	81551.1
4.285	81542.1
4.290	81540.1
4.295	81537.1
4.300	81543.1
4.305	81524.1
4.310	81516.1
4.315	81509.1
4.320	81497.1
4.325	81508.1
4.330	81531.1
4.335	81547.0
4.340	81536.0
4.345	81530.0
4.350	81531.1
4.355	81514.1
4.360	81499.1
4.365	81509.1
4.370	81530.0
4.375	81550.0
4.380	81569.0
4.385	81561.0
4.390	81529.0
4.395	81516.0
4.400	81521.0
4.405	81530.0
4.410	81549.0
4.415	81542.0
4.420	81552.0
4.425	81554.0
4.430	81561.0
4.435	81577.9
4.440	81591.9
4.445	81586.9
4.450	81580.9
4.455	81560.9
4.460	81578.9
4.465	81595.9
4.470	81603.9
4.475	81601.9
4.480	81616.9
4.485	81620.9
4.490	81654.8
4.495	81640.8
4.500	81638.8
4.505	81622.8
4.510	81649.8
4.515	81652.8
4.520	81627.8
4.525	81600.8
4.530	81606.8
4.535	81645.8
4.540	81650.8
4.545	81644.8
4.550	81645.8
4.555	81655.8
4.560	81664.8
4.565	81667.8
4.570	81675.7
4.575	81663.7
4.580	81658.8
4.585	81648.8
4.590	81700.8
4.595	81874.7
4.600	82142.5
4.605	82270.2
4.610	82109.2
4.615	81825.5
4.620	81685.7
4.625	81669.7
4.630	81665.7
4.635	81664.7
4.640	81657.7
4.645	81659.7
4.650	81660.7
4.655	81632.7
4.660	81628.7
4.665	81622.7
4.670	81659.6
4.675	81651.6
4.680	81658.6
4.685	81657.6
4.690	81669.6
4.695	81672.6
4.700	81680.6
4.705	81672.6
4.710	81665.6
4.715	81679.6
4.720	81648.6
4.725	81639.6
4.730	81642.6
4.735	81646.6
4.740	81640.6
4.745	81642.6
4.750	81645.6
4.755	81634.6
4.760	81644.5
4.765	81641.5
4.770	81643.5
4.775	81648.5
4.780	81661.5
4.785	81646.5
4.790	81617.5
4.795	81623.5
4.800	81641.5
4.805	81674.4
4.810	81667.4
4.815	81679.4
4.820	81668.4
4.825	81659.4
4.830	81643.4
4.835	81634.4
4.840	81634.4
4.845	81626.4
4.850	81641.4
4.855	81607.4
4.860	81619.4
4.865	81638.3
4.870	81654.3
4.875	81649.3
4.880	81621.4
4.885	81585.4
4.890	81545.4
4.895	81560.3
4.900	81585.3
4.905	81613.3
4.910	81625.3
4.915	81631.3
4.920	81641.3
4.925	81631.3
4.930	81651.2
4.935	81655.2
4.940	81673.2
4.945	81683.2
4.950	81682.1
4.955	81662.2
4.960	81635.1
4.965	81615.1
4.970	81617.1
4.975	81629.1
4.980	81651.1
4.985	81648.0
4.990	81644.0
4.995	81659.0
5.000	81672.0
5.005	81662.0
5.010	81635.0
5.015	81616.0
5.020	81615.0
5.025	81604.9
5.030	81606.9
5.035	81604.9
5.040	81625.9
5.045	81624.9
5.050	81609.8
5.055	81568.8
5.060	81561.8
5.065	81588.8
5.070	81629.7
5.075	81625.7
5.080	81618.7
5.085	81607.7
5.090	81591.7
5.095	81611.7
5.100	81638.6
5.105	81650.6
5.110	81689.5
5.115	81686.5
5.120	81631.5
5.125	81598.5
5.130	81627.5
5.135	81635.4
5.140	81632.4
5.145	81623.4
5.150	81611.3
5.155	81625.3
5.160	81664.2
5.165	81659.2
5.170	81648.1
5.175	81646.1
5.180	81677.0
5.185	81683.0
5.190	81652.9
5.195	81648.9
5.200	81680.8
5.205	81689.7
5.210	81690.7
5.215	81693.6
5.220	81716.5
5.225	81705.5
5.230	81698.4
5.235	81695.4
5.240	81682.3
5.245	81673.2
5.250	81655.1
5.255	81611.1
5.260	81625.0
5.265	81653.8
5.270	81650.7
5.275	81624.6
5.280	81599.5
5.285	81586.3
5.290	81563.2
5.295	81549.0
5.300	81508.7
5.305	81450.5
5.310	81406.2
5.315	81333.0
5.320	81216.8
5.325	81130.6
5.330	81048.5
5.335	80989.4
5.340	80898.4
5.345	80818.4
5.350	80788.6
5.355	80750.7
5.360	80726.0
5.365	80753.5
5.370	80807.0
5.375	80822.5
5.380	80842.2
5.385	80919.1
5.390	81068.0
5.395	81295.8
5.400	81515.3
5.405	81651.7
5.410	81718.9
5.415	81739.0
5.420	81758.0
5.425	81767.1
5.430	81776.1
5.435	81772.1
5.440	81775.1
5.445	81768.1
5.450	81781.1
5.455	81739.1
5.460	81737.1
5.465	81759.1
5.470	81773.1
5.475	81776.1
5.480	81778.1
5.485	81770.1
5.490	81769.1
5.495	81763.1
5.500	81772.1
5.505	81770.1
5.510	81769.1
5.515	81763.1
5.520	81748.1
5.525	81733.1
5.530	81749.1
5.535	81768.1
5.540	81763.1
5.545	81755.1
5.550	81751.1
5.555	81747.1
5.560	81745.1
5.565	81741.1
5.570	81745.1
5.575	81732.1
5.580	81745.1
5.585	81715.1
5.590	81694.1
5.595	81697.1
5.600	81731.1
5.605	81729.1
5.610	81734.1
5.615	81719.1
5.620	81732.1
5.625	81729.1
5.630	81738.1
5.635	81730.1
5.640	81721.1
5.645	81718.2
5.650	81717.2
5.655	81679.2
5.660	81686.2
5.665	81698.2
5.670	81708.2
5.675	81695.3
5.680	81683.3
5.685	81674.3
5.690	81660.3
5.695	81651.3
5.700	81648.3
5.705	81640.3
5.710	81644.3
5.715	81640.3
5.720	81613.3
5.725	81601.3
5.730	81622.3
5.735	81641.3
5.740	81636.3
5.745	81629.3
5.750	81630.2
5.755	81635.2
5.760	81643.2
5.765	81639.2
5.770	81648.2
5.775	81660.2
5.780	81652.2
5.785	81627.2
5.790	81610.2
5.795	81637.2
5.800	81659.2
5.805	81669.2
5.810	81681.2
5.815	81681.2
5.820	81682.2
5.825	81677.2
5.830	81681.2
5.835	81681.2
5.840	81688.1
5.845	81684.2
5.850	81687.1
5.855	81647.2
5.860	81657.2
5.865	81681.2
5.870	81697.1
5.875	81699.1
5.880	81684.2
5.885	81674.2
5.890	81671.2
5.895	81661.2
5.900	81656.2
5.905	81650.2
5.910	81618.2
5.915	81588.2
5.920	81524.3
5.925	81485.3
5.930	81492.3
5.935	81499.3
5.940	81481.3
5.945	81454.3
5.950	81454.3
5.955	81447.3
5.960	81455.3
5.965	81457.3
5.970	81468.3
5.975	81474.3
5.980	81482.3
5.985	81470.3
5.990	81467.3
5.995	81498.3
6.000	81538.3
6.005	81548.3
6.010	81577.3
6.015	81593.2
6.020	81616.2
6.025	81632.2
6.030	81641.2
6.035	81649.2
6.040	81660.2
6.045	81666.2
6.050	81664.2
6.055	81633.2
6.060	81641.2
6.065	81668.2
6.070	81667.2
6.075	81660.2
6.080	81656.2
6.085	81665.2
6.090	81667.2
6.095	81674.2
6.100	81673.2
6.105	81681.2
6.110	81685.2
6.115	81686.2
6.120	81655.2
6.125	81646.2
6.130	81656.2
6.135	81680.2
6.140	81686.2
6.145	81677.2
6.150	81675.2
6.155	81675.2
6.160	81673.2
6.165	81677.2
6.170	81678.2
6.175	81685.2
6.180	81671.2
6.185	81665.2
6.190	81638.2
6.195	81655.2
6.200	81679.2
6.205	81681.2
6.210	81668.2
6.215	81675.2
6.220	81667.2
6.225	81671.2
6.230	81671.2
6.235	81679.2
6.240	81672.2
6.245	81685.2
6.250	81676.2
6.255	81638.2
6.260	81635.2
6.265	81664.2
6.270	81678.2
6.275	81675.2
6.280	81681.2
6.285	81664.2
6.290	81667.2
6.295	81671.2
6.300	81681.2
6.305	81679.2
6.310	81686.2
6.315	81679.2
6.320	81641.2
6.325	81635.2
6.330	81664.2
6.335	81679.2
6.340	81679.2
6.345	81668.2
6.350	81662.2
6.355	81666.2
6.360	81667.2
6.365	81675.2
6.370	81683.2
6.375	81678.2
6.380	81678.2
6.385	81663.2
6.390	81637.2
6.395	81649.2
6.400	81667.2
6.405	81686.2
6.410	81683.2
6.415	81687.2
6.420	81682.2
6.425	81686.2
6.430	81688.2
6.435	81701.2
6.440	81685.2
6.445	81688.2
6.450	81692.2
6.455	81652.2
6.460	81665.2
6.465	81698.2
6.470	81704.2
6.475	81696.2
6.480	81699.2
6.485	81691.2
6.490	81694.2
6.495	81701.2
6.500	81704.2
6.505	81709.2
6.510	81712.2
6.515	81701.2
6.520	81672.2
6.525	81654.2
6.530	81682.2
6.535	81701.2
6.540	81704.2
6.545	81694.2
6.550	81686.2
6.555	81691.2
6.560	81705.2
6.565	81710.2
6.570	81705.2
6.575	81707.2
6.580	81718.2
6.585	81699.2
6.590	81686.2
6.595	81698.2
6.600	81736.2
6.605	81732.2
6.610	81733.2
6.615	81725.2
6.620	81729.2
6.625	81736.2
6.630	81734.2
6.635	81742.2
6.640	81750.2
6.645	81751.2
6.650	81755.2
6.655	81722.2
6.660	81739.2
6.665	81762.2
6.670	81773.2
6.675	81783.2
6.680	81781.2
6.685	81781.2
6.690	81781.2
6.695	81777.2
6.700	81784.2
6.705	81779.2
6.710	81790.2
6.715	81781.2
6.720	81748.2
6.725	81749.2
6.730	81770.2
6.735	81773.2
6.740	81769.2
6.745	81756.2
6.750	81756.2
6.755	81746.2
6.760	81744.2
6.765	81734.2
6.770	81748.2
6.775	81748.2
6.780	81747.2
6.785	81716.2
6.790	81706.2
6.795	81711.2
6.800	81743.2
6.805	81731.2
6.810	81738.2
6.815	81736.2
6.820	81739.2
6.825	81737.2
6.830	81744.2
6.835	81740.2
6.840	81744.2
6.845	81735.2
6.850	81724.2
6.855	81693.2
6.860	81713.2
6.865	81731.2
6.870	81735.2
6.875	81725.2
6.880	81724.2
6.885	81723.2
6.890	81736.2
6.895	81738.2
6.900	81750.2
6.905	81758.2
6.910	81766.2
6.915	81759.2
6.920	81734.2
6.925	81735.2
6.930	81756.2
6.935	81779.2
6.940	81789.2
6.945	81785.2
6.950	81789.2
6.955	81785.2
6.960	81794.2
6.965	81796.2
6.970	81793.2
6.975	81790.2
6.980	81799.2
6.985	81762.2
6.990	81762.2
6.995	81773.2
7.000	81791.2
7.005	81790.2
7.010	81794.2
7.015	81780.2
7.020	81783.2
7.025	81776.2
7.030	81779.2
7.035	81776.2
7.040	81788.2
7.045	81789.2
7.050	81775.2
7.055	81746.2
7.060	81753.2
7.065	81768.2
7.070	81779.2
7.075	81776.2
7.080	81782.2
7.085	81779.2
7.090	81777.2
7.095	81776.2
7.100	81784.2
7.105	81785.2
7.110	81778.2
7.115	81781.2
7.120	81738.2
7.125	81742.2
7.130	81759.2
7.135	81777.2
7.140	81766.2
7.145	81757.2
7.150	81752.2
7.155	81740.2
7.160	81748.2
7.165	81750.2
7.170	81751.2
7.175	81743.2
7.180	81742.2
7.185	81724.2
7.190	81702.2
7.195	81710.2
7.200	81733.2
7.205	81729.2
7.210	81729.2
7.215	81719.2
7.220	81720.2
7.225	81714.2
7.230	81716.2
7.235	81714.2
7.240	81713.2
7.245	81701.3
7.250	81687.3
7.255	81657.3
7.260	81680.3
7.265	81699.3
7.270	81697.3
7.275	81692.3
7.280	81677.3
7.285	81671.3
7.290	81676.3
7.295	81684.3
7.300	81685.3
7.305	81681.3
7.310	81679.3
7.315	81685.3
7.320	81648.3
7.325	81643.3
7.330	81658.3
7.335	81669.3
7.340	81685.3
7.345	81679.3
7.350	81676.3
7.355	81677.3
7.360	81673.3
7.365	81682.3
7.370	81677.3
7.375	81672.3
7.380	81669.3
7.385	81639.3
7.390	81628.3
7.395	81641.3
7.400	81660.3
7.405	81648.3
7.410	81648.3
7.415	81644.3
7.420	81646.3
7.425	81639.3
7.430	81647.3
7.435	81647.3
7.440	81643.3
7.445	81655.3
7.450	81625.3
7.455	81605.4
7.460	81625.3
7.465	81644.3
7.470	81647.3
7.475	81646.3
7.480	81642.3
7.485	81651.3
7.490	81646.3
7.495	81639.3
7.500	81651.3
7.505	81644.3
7.510	81647.3
7.515	81637.3
7.520	81613.4
7.525	81617.4
7.530	81640.3
7.535	81650.3
7.540	81630.4
7.545	81627.4
7.550	81618.4
7.555	81618.4
7.560	81605.4
7.565	81595.4
7.570	81598.4
7.575	81588.4
7.580	81587.4
7.585	81548.4
7.590	81533.4
7.595	81542.4
7.600	81555.4
7.605	81561.4
7.610	81565.4
7.615	81563.4
7.620	81577.4
7.625	81598.4
7.630	81612.4
7.635	81628.4
7.640	81651.4
7.645	81658.3
7.650	81651.4
7.655	81658.4
7.660	81682.3
7.665	81703.3
7.670	81712.3
7.675	81702.3
7.680	81710.3
7.685	81702.3
7.690	81707.3
7.695	81712.3
7.700	81717.3
7.705	81713.3
7.710	81721.3
7.715	81714.3
7.720	81683.3
7.725	81671.3
7.730	81689.3
7.735	81679.3
7.740	81676.3
7.745	81643.4
7.750	81640.4
7.755	81624.4
7.760	81611.4
7.765	81583.4
7.770	81564.4
7.775	81565.4
7.780	81580.4
7.785	81564.4
7.790	81591.4
7.795	81637.4
7.800	81675.4
7.805	81694.3
7.810	81717.3
7.815	81716.3
7.820	81727.3
7.825	81737.3
7.830	81733.3
7.835	81740.3
7.840	81744.3
7.845	81742.3
7.850	81731.3
7.855	81709.3
7.860	81711.3
7.865	81738.3
7.870	81746.3
7.875	81740.3
7.880	81748.3
7.885	81745.3
7.890	81742.3
7.895	81749.3
7.900	81751.3
7.905	81752.3
7.910	81743.3
7.915	81743.3
7.920	81721.4
7.925	81720.4
7.930	81760.3
7.935	81749.3
7.940	81751.3
7.945	81754.3
7.950	81749.3
7.955	81745.3
7.960	81760.3
7.965	81756.3
7.970	81765.3
7.975	81769.3
7.980	81773.3
7.985	81739.4
7.990	81742.4
7.995	81751.4
8.000	81776.3
8.005	81775.3
8.010	81787.3
8.015	81787.3
8.020	81779.3
8.025	81779.3
8.030	81792.3
8.035	81782.3
8.040	81788.3
8.045	81792.3
8.050	81766.4
8.055	81750.4
8.060	81765.4
8.065	81789.3
8.070	81792.3
8.075	81783.3
8.080	81783.3
8.085	81789.3
8.090	81783.4
8.095	81783.4
8.100	81784.4
8.105	81783.4
8.110	81788.4
8.115	81779.4
8.120	81758.4
8.125	81758.4
8.130	81784.4
8.135	81796.4
8.140	81797.4
8.145	81798.4
8.150	81805.4
8.155	81808.4
8.160	81805.4
8.165	81798.4
8.170	81811.4
8.175	81806.4
8.180	81803.4
8.185	81768.4
8.190	81769.4
8.195	81789.4
8.200	81802.4
8.205	81795.4
8.210	81796.4
8.215	81792.4
8.220	81792.4
8.225	81788.4
8.230	81800.4
8.235	81792.4
8.240	81805.4
8.245	81813.4
8.250	81781.4
8.255	81770.4
8.260	81781.4
8.265	81800.4
8.270	81803.4
8.275	81799.4
8.280	81788.4
8.285	81799.4
8.290	81796.4
8.295	81787.4
8.300	81784.4
8.305	81795.4
8.310	81788.4
8.315	81768.4
8.320	81744.5
8.325	81756.4
8.330	81771.4
8.335	81773.4
8.340	81772.4
8.345	81756.5
8.350	81755.5
8.355	81750.5
8.360	81748.5
8.365	81744.5
8.370	81752.5
8.375	81754.5
8.380	81755.5
8.385	81714.5
8.390	81717.5
8.395	81732.5
8.400	81742.5
8.405	81743.5
8.410	81750.5
8.415	81736.5
8.420	81736.5
8.425	81732.5
8.430	81725.5
8.435	81722.5
8.440	81738.5
8.445	81717.5
8.450	81693.5
8.455	81683.6
8.460	81712.5
8.465	81724.5
8.470	81717.5
8.475	81708.5
8.480	81689.6
8.485	81660.6
8.490	81629.6
8.495	81615.6
8.500	81575.7
8.505	81559.7
8.510	81568.7
8.515	81570.7
8.520	81565.7
8.525	81597.6
8.530	81633.6
8.535	81655.6
8.540	81667.6
8.545	81671.6
8.550	81669.6
8.555	81684.6
8.560	81683.6
8.565	81693.6
8.570	81700.6
8.575	81695.6
8.580	81684.6
8.585	81646.6
8.590	81648.6
8.595	81663.6
8.600	81684.6
8.605	81673.6
8.610	81669.6
8.615	81656.7
8.620	81650.7
8.625	81658.7
8.630	81662.7
8.635	81645.7
8.640	81661.7
8.645	81637.7
8.650	81625.7
8.655	81613.7
8.660	81620.7
8.665	81641.7
8.670	81636.7
8.675	81628.7
8.680	81629.7
8.685	81617.7
8.690	81622.7
8.695	81607.7
8.700	81614.7
8.705	81623.7
8.710	81641.7
8.715	81633.7
8.720	81607.8
8.725	81628.7
8.730	81665.7
8.735	81664.7
8.740	81646.7
8.745	81647.7
8.750	81637.8
8.755	81611.8
8.760	81604.8
8.765	81634.8
8.770	81644.8
8.775	81657.8
8.780	81655.8
8.785	81616.8
8.790	81614.8
8.795	81633.8
8.800	81654.8
8.805	81646.8
8.810	81652.8
8.815	81640.8
8.820	81631.8
8.825	81632.8
8.830	81620.8
8.835	81628.8
8.840	81627.8
8.845	81622.9
8.850	81602.9
8.855	81586.9
8.860	81600.9
8.865	81611.9
8.870	81603.9
8.875	81600.9
8.880	81617.9
8.885	81606.9
8.890	81602.9
8.895	81606.9
8.900	81616.9
8.905	81607.9
8.910	81604.9
8.915	81585.9
8.920	81539.0
8.925	81554.0
8.930	81600.0
8.935	81610.0
8.940	81611.0
8.945	81613.0
8.950	81607.0
8.955	81595.0
8.960	81594.0
8.965	81589.0
8.970	81594.0
8.975	81605.0
8.980	81579.0
8.985	81549.1
8.990	81572.0
8.995	81599.0
9.000	81591.1
9.005	81550.1
9.010	81510.1
9.015	81520.1
9.020	81575.1
9.025	81609.1
9.030	81614.1
9.035	81615.1
9.040	81620.1
9.045	81608.1
9.050	81590.1
9.055	81578.2
9.060	81596.1
9.065	81609.2
9.070	81612.2
9.075	81613.2
9.080	81598.2
9.085	81604.2
9.090	81616.2
9.095	81620.2
9.100	81627.2
9.105	81616.2
9.110	81608.2
9.115	81595.3
9.120	81591.3
9.125	81606.3
9.130	81646.3
9.135	81634.3
9.140	81632.3
9.145	81625.3
9.150	81628.3
9.155	81623.3
9.160	81629.4
9.165	81615.4
9.170	81622.4
9.175	81613.4
9.180	81611.4
9.185	81575.5
9.190	81569.5
9.195	81587.5
9.200	81596.5
9.205	81547.6
9.210	81520.6
9.215	81552.6
9.220	81594.6
9.225	81601.6
9.230	81622.6
9.235	81615.6
9.240	81603.7
9.245	81586.7
9.250	81564.7
9.255	81571.8
9.260	81580.8
9.265	81582.8
9.270	81571.8
9.275	81556.9
9.280	81546.9
9.285	81542.0
9.290	81539.0
9.295	81525.0
9.300	81533.1
9.305	81525.1
9.310	81524.2
9.315	81508.2
9.320	81480.3
9.325	81485.3
9.330	81546.3
9.335	81575.3
9.340	81596.4
9.345	81614.4
9.350	81616.5
9.355	81614.6
9.360	81609.6
9.365	81594.7
9.370	81576.8
9.375	81539.9
9.380	81444.1
9.385	81374.3
9.390	81301.5
9.395	81182.8
9.400	81250.0
9.405	81176.3
9.410	80793.8
9.415	80337.4
9.420	80124.8
9.425	80237.9
9.430	80489.9
9.435	80680.9
9.440	80770.9
9.445	80759.0
9.450	80667.9
9.455	80590.8
9.460	80604.6
9.465	80686.2
9.470	80763.7
9.475	80851.0
9.480	80976.2
9.485	81106.3
9.490	81237.5
9.495	81354.9
9.500	81442.4
9.505	81491.2
9.510	81526.0
9.515	81525.0
9.520	81521.9
9.525	81537.9
9.530	81567.9
9.535	81560.9
9.540	81565.9
9.545	81548.9
9.550	81554.9
9.555	81558.9
9.560	81556.9
9.565	81550.9
9.570	81567.9
9.575	81559.9
9.580	81556.9
9.585	81531.9
9.590	81527.9
9.595	81554.9
9.600	81563.9
9.605	81565.9
9.610	81570.9
9.615	81571.9
9.620	81576.9
9.625	81578.9
9.630	81575.9
9.635	81571.9
9.640	81577.9
9.645	81570.9
9.650	81536.9
9.655	81546.9
9.660	81575.9
9.665	81581.9
9.670	81580.9
9.675	81582.9
9.680	81576.9
9.685	81564.9
9.690	81580.9
9.695	81571.9
9.700	81564.9
9.705	81576.9
9.710	81578.9
9.715	81554.9
9.720	81547.9
9.725	81554.9
9.730	81576.9
9.735	81588.8
9.740	81591.8
9.745	81578.9
9.750	81571.9
9.755	81588.8
9.760	81586.8
9.765	81577.8
9.770	81586.8
9.775	81586.8
9.780	81577.9
9.785	81545.9
9.790	81563.9
9.795	81578.9
9.800	81576.8
9.805	81575.9
9.810	81572.9
9.815	81565.9
9.820	81572.9
9.825	81572.9
9.830	81571.9
9.835	81566.9
9.840	81574.9
9.845	81576.9
9.850	81543.9
9.855	81536.9
9.860	81557.9
9.865	81570.9
9.870	81560.9
9.875	81554.9
9.880	81559.9
9.885	81550.9
9.890	81552.9
9.895	81541.9
9.900	81556.9
9.905	81545.9
9.910	81530.9
9.915	81507.9
9.920	81490.9
9.925	81504.9
9.930	81528.9
9.935	81518.9
9.940	81509.9
9.945	81509.9
9.950	81501.9
9.955	81498.9
9.960	81497.9
9.965	81486.9
9.970	81486.9
9.975	81492.9
9.980	81485.9
9.985	81443.9
9.990	81448.9
9.995	81479.9
10.000	81478.9
10.005	81470.9
10.010	81464.9
10.015	81454.9
10.020	81449.9
10.025	81450.9
10.030	81457.9
10.035	81452.9
10.040	81455.9
10.045	81443.9
10.050	81426.0
10.055	81415.0
10.060	81432.0
10.065	81433.0
10.070	81423.0
10.075	81399.0
10.080	81399.0
10.085	81406.0
10.090	81405.0
10.095	81405.0
10.100	81408.0
10.105	81403.0
10.110	81398.0
10.115	81366.0
10.120	81361.0
10.125	81369.0
10.130	81405.0
10.135	81402.0
10.140	81399.0
10.145	81379.0
10.150	81380.0
10.155	81387.0
10.160	81384.0
10.165	81375.0
10.170	81373.0
10.175	81370.0
10.180	81355.0
10.185	81334.0
10.190	81346.0
10.195	81371.0
10.200	81356.0
10.205	81359.0
10.210	81355.0
10.215	81345.0
10.220	81342.0
10.225	81346.0
10.230	81346.0
10.235	81343.0
10.240	81351.0
10.245	81333.0
10.250	81303.1
10.255	81299.1
10.260	81334.0
10.265	81364.0
10.270	81360.0
10.275	81348.0
10.280	81352.0
10.285	81348.0
10.290	81358.0
10.295	81367.0
10.300	81371.0
10.305	81367.0
10.310	81370.0
10.315	81334.0
10.320	81343.0
10.325	81351.0
10.330	81388.0
10.335	81383.0
10.340	81387.0
10.345	81383.0
10.350	81383.0
10.355	81387.0
10.360	81404.0
10.365	81414.0
10.370	81426.9
10.375	81433.9
10.380	81410.0
10.385	81377.0
10.390	81393.0
10.395	81410.0
10.400	81416.0
10.405	81426.9
10.410	81423.0
10.415	81421.0
10.420	81428.9
10.425	81432.9
10.430	81442.9
10.435	81436.9
10.440	81432.9
10.445	81436.9
10.450	81418.0
10.455	81429.9
10.460	81455.9
10.465	81463.9
10.470	81465.9
10.475	81465.9
10.480	81458.9
10.485	81459.9
10.490	81467.9
10.495	81461.9
10.500	81463.9
10.505	81455.9
10.510	81466.9
10.515	81432.9
10.520	81413.0
10.525	81422.9
10.530	81463.9
10.535	81473.9
10.540	81473.9
10.545	81477.9
10.550	81485.9
10.555	81490.9
10.560	81500.9
10.565	81506.9
10.570	81513.9
10.575	81501.9
10.580	81490.9
10.585	81468.9
10.590	81488.9
10.595	81511.9
10.600	81516.9
10.605	81508.9
10.610	81498.9
10.615	81492.9
10.620	81499.9
10.625	81495.9
10.630	81511.9
10.635	81519.9
10.640	81511.9
10.645	81503.9
10.650	81480.9
10.655	81485.9
10.660	81508.9
10.665	81525.9
10.670	81521.9
10.675	81506.9
10.680	81517.9
10.685	81514.9
10.690	81503.9
10.695	81517.9
10.700	81522.9
10.705	81514.9
10.710	81522.9
10.715	81489.9
10.720	81493.9
10.725	81505.9
10.730	81524.9
10.735	81518.9
10.740	81503.9
10.745	81500.9
10.750	81509.9
10.755	81508.9
10.760	81506.9
10.765	81515.9
10.770	81521.9
10.775	81519.9
10.780	81506.9
10.785	81484.9
10.790	81494.9
10.795	81511.9
10.800	81513.9
10.805	81515.9
10.810	81527.9
10.815	81518.9
10.820	81521.9
10.825	81514.9
10.830	81524.9
10.835	81527.9
10.840	81536.8
10.845	81525.9
10.850	81488.9
10.855	81507.9
10.860	81523.9
10.865	81528.9
10.870	81526.9
10.875	81521.9
10.880	81516.9
10.885	81512.9
10.890	81518.9
10.895	81520.9
10.900	81517.9
10.905	81528.9
10.910	81531.8
10.915	81498.9
10.920	81498.9
10.925	81501.9
10.930	81521.9
10.935	81514.9
10.940	81509.9
10.945	81502.9
10.950	81505.9
10.955	81512.9
10.960	81512.9
10.965	81513.9
10.970	81521.9
10.975	81509.9
10.980	81496.9
10.985	81469.9
10.990	81480.9
10.995	81494.9
11.000	81495.9
11.005	81481.9
11.010	81488.9
11.015	81483.9
11.020	81476.9
11.025	81466.9
11.030	81469.9
11.035	81468.9
11.040	81473.9
11.045	81458.9
11.050	81438.9
11.055	81441.9
11.060	81468.9
11.065	81474.9
11.070	81479.9
11.075	81479.9
11.080	81480.9
11.085	81487.9
11.090	81488.9
11.095	81483.9
11.100	81480.9
11.105	81475.9
11.110	81477.9
11.115	81445.9
11.120	81444.9
11.125	81462.9
11.130	81473.9
11.135	81452.9
11.140	81445.9
11.145	81440.9
11.150	81445.9
11.155	81437.9
11.160	81439.9
11.165	81435.9
11.170	81441.9
11.175	81425.9
11.180	81406.9
11.185	81383.0
11.190	81394.9
11.195	81415.9
11.200	81402.9
11.205	81400.9
11.210	81396.9
11.215	81403.9
11.220	81412.9
11.225	81401.9
11.230	81414.9
11.235	81400.9
11.240	81414.9
11.245	81399.9
11.250	81372.0
11.255	81371.0
11.260	81401.9
11.265	81401.9
11.270	81396.9
11.275	81388.9
11.280	81381.0
11.285	81385.9
11.290	81381.9
11.295	81379.0
11.300	81390.9
11.305	81381.0
11.310	81379.9
11.315	81354.0
11.320	81338.0
11.325	81352.0
11.330	81380.9
11.335	81377.0
11.340	81384.9
11.345	81382.9
11.350	81390.9
11.355	81388.9
11.360	81391.9
11.365	81389.9
11.370	81380.9
11.375	81386.9
11.380	81365.0
11.385	81348.0
11.390	81356.0
11.395	81386.9
11.400	81380.9
11.405	81376.9
11.410	81372.0
11.415	81378.9
11.420	81384.9
11.425	81375.9
11.430	81377.9
11.435	81378.9
11.440	81389.9
11.445	81385.9
11.450	81361.0
11.455	81361.0
11.460	81379.9
11.465	81386.9
11.470	81397.9
11.475	81397.9
11.480	81397.9
11.485	81399.9
11.490	81402.9
11.495	81394.9
11.500	81399.9
11.505	81398.9
11.510	81413.9
11.515	81365.0
11.520	81375.9
11.525	81397.9
11.530	81423.9
11.535	81408.9
11.540	81408.9
11.545	81406.9
11.550	81416.9
11.555	81411.9
11.560	81412.9
11.565	81400.9
11.570	81411.9
11.575	81399.9
11.580	81382.9
11.585	81367.0
11.590	81386.9
11.595	81404.9
11.600	81412.9
11.605	81404.9
11.610	81406.9
11.615	81401.9
11.620	81410.9
11.625	81414.9
11.630	81416.9
11.635	81413.9
11.640	81410.9
11.645	81400.9
11.650	81376.9
11.655	81379.9
11.660	81413.9
11.665	81412.9
11.670	81407.9
11.675	81394.9
11.680	81409.9
11.685	81402.9
11.690	81406.9
11.695	81406.9
11.700	81422.9
11.705	81423.9
11.710	81414.9
11.715	81388.9
11.720	81386.9
11.725	81400.9
11.730	81413.9
11.735	81412.9
11.740	81424.9
11.745	81405.9
11.750	81410.9
11.755	81408.9
11.760	81414.9
11.765	81397.9
11.770	81399.9
11.775	81392.9
11.780	81387.9
11.785	81382.9
11.790	81403.9
11.795	81422.9
11.800	81419.9
11.805	81410.9
11.810	81402.9
11.815	81395.9
11.820	81391.9
11.825	81387.9
11.830	81389.9
11.835	81376.9
11.840	81385.9
11.845	81377.9
11.850	81357.9
11.855	81350.0
11.860	81380.9
11.865	81391.9
11.870	81397.9
11.875	81389.9
11.880	81388.9
11.885	81396.9
11.890	81394.9
11.895	81392.9
11.900	81388.9
11.905	81389.9
11.910	81387.9
11.915	81351.0
11.920	81353.0
11.925	81374.9
11.930	81399.9
11.935	81391.9
11.940	81383.9
11.945	81380.9
11.950	81384.9
11.955	81374.9
11.960	81376.9
11.965	81373.9
11.970	81387.9
11.975	81386.9
11.980	81355.9
11.985	81342.0
11.990	81366.9
11.995	81389.9
12.000	81388.9
12.005	81378.9
12.010	81379.9
12.015	81378.9
12.020	81386.9
12.025	81383.9
12.030	81388.9
12.035	81382.9
12.040	81377.9
12.045	81358.9
12.050	81338.0
12.055	81342.0
12.060	81378.9
12.065	81372.9
12.070	81373.9
12.075	81375.9
12.080	81365.9
12.085	81353.9
12.090	81353.9
12.095	81358.9
12.100	81358.9
12.105	81362.9
12.110	81361.9
12.115	81333.0
12.120	81337.0
12.125	81353.9
12.130	81368.9
12.135	81376.9
12.140	81369.9
12.145	81370.9
12.150	81378.9
12.155	81377.9
12.160	81387.9
12.165	81390.9
12.170	81394.9
12.175	81379.9
12.180	81361.9
12.185	81347.9
12.190	81365.9
12.195	81395.9
12.200	81391.9
12.205	81389.9
12.210	81391.9
12.215	81387.9
12.220	81392.9
12.225	81381.9
12.230	81399.9
12.235	81392.9
12.240	81397.9
12.245	81379.9
12.250	81363.9
12.255	81372.9
12.260	81398.9
12.265	81393.9
12.270	81401.9
12.275	81405.9
12.280	81411.9
12.285	81408.9
12.290	81420.9
12.295	81415.9
12.300	81412.9
12.305	81424.9
12.310	81422.9
12.315	81402.9
12.320	81417.9
12.325	81424.9
12.330	81446.9
12.335	81438.9
12.340	81440.9
12.345	81439.9
12.350	81443.9
12.355	81444.9
12.360	81456.9
12.365	81447.9
12.370	81448.9
12.375	81461.9
12.380	81433.9
12.385	81429.9
12.390	81451.9
12.395	81483.8
12.400	81480.8
12.405	81484.8
12.410	81491.8
12.415	81478.8
12.420	81492.8
12.425	81492.8
12.430	81498.8
12.435	81495.8
12.440	81506.8
12.445	81485.8
12.450	81473.8
12.455	81487.8
12.460	81517.8
12.465	81512.8
12.470	81507.8
12.475	81512.8
12.480	81521.8
12.485	81517.8
12.490	81527.8
12.495	81519.8
12.500	81527.8
12.505	81531.8
12.510	81533.8
12.515	81502.8
12.520	81514.8
12.525	81526.8
12.530	81555.8
12.535	81559.8
12.540	81567.8
12.545	81564.8
12.550	81571.8
12.555	81573.8
12.560	81581.8
12.565	81575.8
12.570	81576.8
12.575	81574.8
12.580	81549.8
12.585	81551.8
12.590	81571.8
12.595	81596.7
12.600	81595.7
12.605	81589.7
12.610	81586.7
12.615	81593.7
12.620	81595.7
12.625	81594.7
12.630	81610.7
12.635	81609.7
12.640	81623.7
12.645	81606.7
12.650	81582.7
12.655	81590.7
12.660	81617.7
12.665	81623.7
12.670	81632.7
12.675	81632.7
12.680	81630.7
12.685	81629.7
12.690	81639.7
12.695	81632.7
12.700	81637.7
12.705	81638.7
12.710	81636.7
12.715	81605.7
12.720	81618.7
12.725	81647.7
12.730	81653.7
12.735	81650.7
12.740	81648.7
12.745	81645.7
12.750	81648.7
12.755	81645.7
12.760	81659.7
12.765	81651.7
12.770	81659.7
12.775	81656.7
12.780	81638.7
12.785	81629.7
12.790	81639.7
12.795	81669.7
12.800	81678.7
12.805	81672.7
12.810	81673.7
12.815	81670.7
12.820	81673.7
12.825	81686.7
12.830	81688.7
12.835	81677.7
12.840	81676.7
12.845	81658.7
12.850	81660.7
12.855	81669.7
12.860	81705.6
12.865	81698.7
12.870	81697.6
12.875	81689.7
12.880	81688.7
12.885	81702.6
12.890	81700.6
12.895	81698.6
12.900	81697.6
12.905	81701.6
12.910	81709.6
12.915	81665.7
12.920	81678.7
12.925	81703.6
12.930	81719.6
12.935	81706.6
12.940	81719.6
12.945	81713.6
12.950	81714.6
12.955	81712.6
12.960	81718.6
12.965	81707.6
12.970	81709.6
12.975	81707.6
12.980	81685.7
12.985	81678.7
12.990	81709.6
12.995	81725.6
13.000	81715.6
13.005	81706.6
13.010	81719.6
13.015	81717.6
13.020	81722.6
13.025	81721.6
13.030	81726.6
13.035	81727.6
13.040	81730.6
13.045	81710.6
13.050	81693.6
13.055	81702.6
13.060	81737.6
13.065	81730.6
13.070	81737.6
13.075	81735.6
13.080	81739.6
13.085	81747.6
13.090	81741.6
13.095	81746.6
13.100	81757.6
13.105	81749.6
13.110	81745.6
13.115	81703.6
13.120	81717.6
13.125	81744.6
13.130	81753.6
13.135	81732.6
13.140	81728.6
13.145	81728.6
13.150	81739.6
13.155	81729.6
13.160	81738.6
13.165	81731.6
13.170	81736.6
13.175	81731.6
13.180	81698.6
13.185	81701.6
13.190	81723.6
13.195	81734.6
13.200	81725.6
13.205	81731.6
13.210	81733.6
13.215	81728.6
13.220	81729.6
13.225	81735.6
13.230	81736.6
13.235	81725.6
13.240	81725.6
13.245	81703.6
13.250	81696.6
13.255	81711.6
13.260	81724.6
13.265	81729.6
13.270	81718.6
13.275	81707.6
13.280	81700.6
13.285	81700.6
13.290	81694.6
13.295	81689.6
13.300	81699.6
13.305	81682.6
13.310	81683.6
13.315	81650.7
13.320	81663.7
13.325	81682.6
13.330	81687.6
13.335	81680.6
13.340	81672.6
13.345	81671.7
13.350	81674.6
13.355	81672.6
13.360	81672.7
13.365	81673.7
13.370	81663.7
13.375	81661.7
13.380	81637.7
13.385	81622.7
13.390	81647.7
13.395	81650.7
13.400	81651.7
13.405	81644.7
13.410	81636.7
13.415	81621.7
13.420	81634.7
13.425	81629.7
13.430	81630.7
13.435	81615.7
13.440	81627.7
13.445	81600.7
13.450	81592.7
13.455	81596.7
13.460	81626.7
13.465	81617.7
13.470	81631.7
13.475	81626.7
13.480	81621.7
13.485	81613.7
13.490	81618.7
13.495	81613.7
13.500	81608.7
13.505	81610.7
13.510	81605.7
13.515	81587.7
13.520	81599.7
13.525	81612.7
13.530	81614.7
13.535	81607.7
13.540	81607.7
13.545	81605.7
13.550	81608.7
13.555	81595.7
13.560	81596.7
13.565	81601.7
13.570	81601.7
13.575	81597.7
13.580	81560.7
13.585	81560.7
13.590	81583.7
13.595	81600.7
13.600	81604.7
13.605	81591.7
13.610	81601.7
13.615	81584.7
13.620	81608.7
13.625	81605.7
13.630	81610.7
13.635	81596.7
13.640	81596.7
13.645	81565.7
13.650	81574.7
13.655	81581.7
13.660	81608.7
13.665	81599.7
13.670	81599.7
13.675	81594.7
13.680	81591.7
13.685	81587.7
13.690	81602.7
13.695	81599.7
13.700	81601.7
13.705	81598.7
13.710	81594.7
13.715	81570.7
13.720	81571.7
13.725	81595.7
13.730	81616.7
13.735	81610.7
13.740	81611.7
13.745	81609.7
13.750	81621.7
13.755	81619.7
13.760	81625.7
13.765	81623.7
13.770	81628.7
13.775	81624.7
13.780	81596.7
13.785	81602.7
13.790	81628.7
13.795	81639.7
13.800	81635.7
13.805	81635.7
13.810	81638.7
13.815	81639.7
13.820	81641.7
13.825	81632.7
13.830	81650.6
13.835	81641.6
13.840	81653.6
13.845	81618.7
13.850	81615.7
13.855	81636.7
13.860	81666.6
13.865	81666.6
13.870	81663.6
13.875	81669.6
13.880	81684.6
13.885	81677.6
13.890	81683.6
13.895	81675.6
13.900	81683.6
13.905	81683.6
13.910	81663.6
13.915	81638.7
13.920	81658.6
13.925	81684.6
13.930	81687.6
13.935	81678.6
13.940	81684.6
13.945	81667.6
13.950	81682.6
13.955	81689.6
13.960	81692.6
13.965	81692.6
13.970	81698.6
13.975	81684.6
13.980	81654.6
13.985	81664.6
13.990	81692.6
13.995	81698.6
14.000	81703.6
14.005	81702.6
14.010	81703.6
14.015	81711.6
14.020	81706.6
14.025	81707.6
14.030	81709.6
14.035	81706.6
14.040	81706.6
14.045	81668.6
14.050	81672.6
14.055	81694.6
14.060	81715.6
14.065	81699.6
14.070	81696.6
14.075	81694.6
14.080	81684.6
14.085	81687.6
14.090	81700.6
14.095	81695.6
14.100	81703.6
14.105	81689.6
14.110	81685.6
14.115	81658.6
14.120	81674.6
14.125	81706.6
14.130	81712.6
14.135	81709.6
14.140	81707.6
14.145	81710.6
14.150	81721.6
14.155	81703.6
14.160	81707.6
14.165	81713.6
14.170	81709.6
14.175	81704.6
14.180	81671.6
14.185	81679.6
14.190	81706.6
14.195	81704.6
14.200	81701.6
14.205	81700.6
14.210	81706.6
14.215	81696.6
14.220	81704.6
14.225	81703.6
14.230	81700.6
14.235	81710.6
14.240	81708.6
14.245	81682.6
14.250	81669.6
14.255	81690.6
14.260	81715.6
14.265	81713.6
14.270	81713.6
14.275	81719.6
14.280	81719.6
14.285	81713.6
14.290	81708.6
14.295	81702.6
14.300	81708.6
14.305	81709.6
14.310	81693.6
14.315	81674.6
14.320	81683.6
14.325	81714.6
14.330	81727.6
14.335	81716.6
14.340	81704.6
14.345	81700.6
14.350	81698.6
14.355	81696.6
14.360	81693.6
14.365	81695.6
14.370	81695.6
14.375	81698.6
14.380	81678.6
14.385	81662.6
14.390	81691.6
14.395	81701.6
14.400	81711.6
14.405	81701.6
14.410	81708.6
14.415	81712.6
14.420	81707.6
14.425	81708.6
14.430	81709.6
14.435	81707.6
14.440	81706.6
14.445	81668.6
14.450	81666.6
14.455	81686.6
14.460	81719.6
14.465	81697.6
14.470	81691.6
14.475	81695.6
14.480	81693.6
14.485	81685.6
14.490	81693.6
14.495	81694.6
14.500	81691.6
14.505	81698.6
14.510	81677.6
14.515	81648.6
14.520	81661.6
14.525	81686.6
14.530	81701.6
14.535	81697.6
14.540	81688.6
14.545	81683.6
14.550	81690.6
14.555	81679.6
14.560	81692.6
14.565	81692.6
14.570	81698.6
14.575	81677.6
14.580	81651.6
14.585	81665.6
14.590	81695.6
14.595	81693.6
14.600	81687.6
14.605	81672.6
14.610	81678.6
14.615	81672.6
14.620	81687.6
14.625	81674.6
14.630	81674.6
14.635	81674.6
14.640	81669.6
14.645	81652.6
14.650	81644.6
14.655	81658.6
14.660	81675.6
14.665	81668.6
14.670	81669.6
14.675	81658.6
14.680	81666.6
14.685	81664.6
14.690	81672.6
14.695	81672.6
14.700	81665.6
14.705	81668.6
14.710	81651.6
14.715	81627.6
14.720	81653.6
14.725	81670.6
14.730	81667.6
14.735	81643.6
14.740	81648.6
14.745	81651.6
14.750	81648.6
14.755	81643.6
14.760	81649.6
14.765	81633.6
14.770	81633.6
14.775	81634.6
14.780	81608.6
14.785	81599.6
14.790	81628.6
14.795	81632.6
14.800	81633.6
14.805	81623.6
14.810	81619.6
14.815	81619.6
14.820	81620.6
14.825	81619.6
14.830	81614.6
14.835	81600.6
14.840	81607.6
14.845	81565.7
14.850	81572.6
14.855	81584.6
14.860	81594.6
14.865	81583.6
14.870	81588.6
14.875	81592.6
14.880	81582.6
14.885	81559.7
14.890	81568.7
14.895	81556.7
14.900	81566.7
14.905	81558.7
14.910	81540.7
14.915	81521.7
14.920	81522.7
14.925	81546.7
14.930	81544.7
14.935	81543.7
14.940	81555.7
14.945	81547.7
14.950	81541.7
14.955	81549.7
14.960	81552.7
14.965	81541.7
14.970	81540.7
14.975	81527.7
14.980	81514.7
14.985	81526.7
14.990	81549.7
14.995	81547.7
15.000	81546.7
15.005	81532.7
15.010	81537.7
15.015	81543.7
15.020	81547.7
15.025	81538.7
15.030	81547.7
15.035	81557.7
15.040	81565.6
15.045	81527.7
15.050	81542.7
15.055	81548.7
15.060	81564.6
15.065	81563.6
15.070	81575.6
15.075	81573.6
15.080	81583.6
15.085	81578.6
15.090	81572.6
15.095	81578.6
15.100	81581.6
15.105	81579.6
15.110	81550.7
15.115	81544.7
15.120	81569.6
15.125	81594.6
15.130	81589.6
15.135	81576.6
15.140	81573.6
15.145	81570.6
15.150	81578.6
15.155	81579.6
15.160	81579.6
15.165	81583.6
15.170	81581.6
15.175	81570.6
15.180	81551.6
15.185	81556.6
15.190	81583.6
15.195	81601.6
15.200	81588.6
15.205	81584.6
15.210	81578.6
15.215	81581.6
15.220	81585.6
15.225	81584.6
15.230	81584.6
15.235	81575.6
15.240	81581.6
15.245	81541.7
15.250	81544.6
15.255	81560.6
15.260	81562.6
15.265	81553.6
15.270	81553.6
15.275	81544.6
15.280	81541.7
15.285	81537.7
15.290	81551.6
15.295	81549.6
15.300	81534.7
15.305	81539.6
15.310	81515.7
15.315	81504.7
15.320	81514.7
15.325	81536.7
15.330	81534.7
15.335	81535.7
15.340	81528.7
15.345	81514.7
15.350	81522.7
15.355	81524.7
15.360	81520.7
15.365	81516.7
15.370	81510.7
15.375	81498.7
15.380	81476.7
15.385	81478.7
15.390	81508.7
15.395	81499.7
15.400	81493.7
15.405	81487.7
15.410	81480.7
15.415	81472.7
15.420	81474.7
15.425	81471.7
15.430	81467.7
15.435	81464.7
15.440	81470.7
15.445	81426.7
15.450	81422.7
15.455	81448.7
15.460	81472.7
15.465	81463.7
15.470	81460.7
15.475	81450.7
15.480	81456.7
15.485	81461.7
15.490	81461.7
15.495	81457.7
15.500	81452.7
15.505	81442.7
15.510	81422.7
15.515	81419.7
15.520	81435.7
15.525	81446.7
15.530	81441.7
15.535	81430.7
15.540	81428.7
15.545	81427.7
15.550	81438.7
15.555	81444.7
15.560	81452.7
15.565	81444.7
15.570	81445.7
15.575	81427.7
15.580	81404.7
15.585	81407.7
15.590	81439.7
15.595	81443.7
15.600	81449.7
15.605	81445.7
15.610	81450.7
15.615	81448.7
15.620	81448.7
15.625	81452.7
15.630	81450.7
15.635	81441.7
15.640	81440.7
15.645	81411.7
15.650	81431.7
15.655	81451.7
15.660	81459.7
15.665	81452.7
15.670	81455.7
15.675	81455.7
15.680	81442.7
15.685	81449.7
15.690	81455.7
15.695	81452.7
15.700	81452.7
15.705	81450.7
15.710	81438.7
15.715	81426.7
15.720	81441.7
15.725	81462.7
15.730	81477.7
15.735	81479.7
15.740	81473.7
15.745	81473.7
15.750	81482.7
15.755	81481.7
15.760	81499.7
15.765	81492.7
15.770	81486.7
15.775	81468.7
15.780	81456.7
15.785	81479.7
15.790	81513.6
15.795	81493.7
15.800	81488.7
15.805	81478.7
15.810	81484.7
15.815	81480.7
15.820	81495.7
15.825	81488.7
15.830	81483.7
15.835	81487.7
15.840	81491.7
15.845	81453.7
15.850	81461.7
15.855	81484.7
15.860	81502.6
15.865	81500.6
15.870	81506.6
15.875	81505.6
15.880	81509.6
15.885	81516.6
15.890	81515.6
15.895	81504.6
15.900	81508.6
15.905	81502.6
15.910	81478.7
15.915	81468.7
15.920	81503.6
15.925	81518.6
15.930	81521.6
15.935	81513.6
15.940	81509.6
15.945	81514.6
15.950	81524.6
15.955	81526.6
15.960	81520.6
15.965	81515.6
15.970	81521.6
15.975	81495.6
15.980	81476.7
15.985	81479.7
15.990	81520.6
15.995	81511.6
16.000	81519.6
16.005	81512.6
16.010	81509.6
16.015	81522.6
16.020	81526.6
16.025	81506.6
16.030	81522.6
16.035	81523.6
16.040	81528.6
16.045	81476.6
16.050	81485.6
16.055	81513.6
16.060	81525.6
16.065	81519.6
16.070	81518.6
16.075	81500.6
16.080	81510.6
16.085	81507.6
16.090	81515.6
16.095	81502.6
16.100	81502.6
16.105	81502.6
16.110	81476.6
16.115	81470.7
16.120	81485.6
16.125	81503.6
16.130	81512.6
16.135	81510.6
16.140	81497.6
16.145	81498.6
16.150	81493.6
16.155	81495.6
16.160	81498.6
16.165	81496.6
16.170	81499.6
16.175	81476.6
16.180	81462.7
16.185	81474.6
16.190	81492.6
16.195	81491.6
16.200	81483.6
16.205	81477.6
16.210	81480.6
16.215	81490.6
16.220	81489.6
16.225	81482.6
16.230	81488.6
16.235	81486.6
16.240	81488.6
16.245	81462.6
16.250	81472.6
16.255	81480.6
16.260	81499.6
16.265	81498.6
16.270	81502.6
16.275	81497.6
16.280	81495.6
16.285	81489.6
16.290	81492.6
16.295	81492.6
16.300	81496.6
16.305	81488.6
16.310	81453.6
16.315	81458.6
16.320	81472.6
16.325	81483.6
16.330	81480.6
16.335	81474.6
16.340	81471.6
16.345	81457.6
16.350	81461.6
16.355	81457.6
16.360	81467.6
16.365	81467.6
16.370	81466.6
16.375	81453.6
16.380	81423.7
16.385	81424.7
16.390	81456.6
16.395	81454.6
16.400	81453.6
16.405	81458.6
16.410	81453.6
16.415	81454.6
16.420	81457.6
16.425	81456.6
16.430	81455.6
16.435	81442.6
16.440	81427.7
16.445	81409.7
16.450	81415.7
16.455	81434.7
16.460	81441.6
16.465	81430.6
16.470	81433.7
16.475	81420.7
16.480	81422.7
16.485	81420.7
16.490	81427.7
16.495	81427.7
16.500	81436.6
16.505	81439.6
16.510	81417.7
16.515	81404.7
16.520	81424.7
16.525	81441.6
16.530	81443.6
16.535	81441.6
16.540	81439.6
16.545	81437.6
16.550	81455.6
16.555	81444.6
16.560	81454.6
16.565	81452.6
16.570	81458.6
16.575	81435.6
16.580	81424.6
16.585	81437.6
16.590	81468.6
16.595	81464.6
16.600	81461.6
16.605	81447.6
16.610	81451.6
16.615	81460.6
16.620	81463.6
16.625	81464.6
16.630	81458.6
16.635	81469.6
16.640	81454.6
16.645	81428.6
16.650	81440.6
16.655	81456.6
16.660	81467.6
16.665	81468.6
16.670	81473.6
16.675	81458.6
16.680	81469.6
16.685	81468.6
16.690	81478.6
16.695	81467.6
16.700	81462.6
16.705	81449.6
16.710	81417.6
16.715	81418.6
16.720	81439.6
16.725	81447.6
16.730	81440.6
16.735	81426.6
16.740	81431.6
16.745	81421.6
16.750	81427.6
16.755	81418.6
16.760	81417.6
16.765	81410.6
16.770	81412.6
16.775	81397.7
16.780	81391.7
16.785	81398.6
16.790	81427.6
16.795	81405.6
16.800	81408.6
16.805	81404.6
16.810	81401.6
16.815	81395.7
16.820	81402.6
16.825	81388.7
16.830	81389.7
16.835	81373.7
16.840	81351.7
16.845	81316.7
16.850	81322.7
16.855	81335.7
16.860	81348.7
16.865	81340.7
16.870	81335.7
16.875	81328.7
16.880	81313.7
16.885	81296.7
16.890	81302.7
16.895	81299.7
16.900	81302.7
16.905	81293.7
16.910	81264.7
16.915	81246.8
16.920	81266.7
16.925	81282.7
16.930	81266.7
16.935	81246.8
16.940	81236.8
16.945	81222.8
16.950	81223.8
16.955	81211.8
16.960	81216.8
16.965	81198.8
16.970	81195.8
16.975	81173.8
16.980	81170.8
16.985	81203.8
16.990	81215.8
16.995	81199.8
17.000	81197.8
17.005	81201.8
17.010	81192.8
17.015	81179.8
17.020	81169.8
17.025	81169.8
17.030	81193.8
17.035	81201.8
17.040	81196.8
17.045	81179.8
17.050	81199.8
17.055	81232.8
17.060	81232.8
17.065	81218.8
17.070	81215.8
17.075	81222.8
17.080	81227.8
17.085	81228.8
17.090	81240.7
17.095	81251.7
17.100	81244.7
17.105	81237.7
17.110	81209.8
17.115	81231.7
17.120	81271.7
17.125	81284.7
17.130	81284.7
17.135	81275.7
17.140	81274.7
17.145	81283.7
17.150	81286.7
17.155	81283.7
17.160	81282.7
17.165	81281.7
17.170	81283.7
17.175	81264.7
17.180	81252.7
17.185	81249.7
17.190	81280.7
17.195	81290.7
17.200	81307.7
17.205	81307.7
17.210	81314.7
17.215	81303.7
17.220	81304.7
17.225	81292.7
17.230	81303.7
17.235	81302.7
17.240	81300.7
17.245	81282.7
17.250	81297.7
17.255	81324.7
17.260	81324.7
17.265	81313.7
17.270	81318.7
17.275	81317.7
17.280	81316.7
17.285	81298.7
17.290	81304.7
17.295	81324.7
17.300	81315.7
17.305	81306.7
17.310	81268.7
17.315	81273.7
17.320	81298.7
17.325	81310.7
17.330	81305.7
17.335	81308.7
17.340	81309.7
17.345	81305.7
17.350	81305.7
17.355	81308.7
17.360	81307.7
17.365	81310.7
17.370	81310.7
17.375	81280.7
17.380	81282.7
17.385	81288.7
17.390	81308.7
17.395	81293.7
17.400	81292.7
17.405	81292.7
17.410	81280.7
17.415	81279.7
17.420	81277.7
17.425	81276.7
17.430	81283.7
17.435	81274.7
17.440	81264.7
17.445	81236.7
17.450	81254.7
17.455	81273.7
17.460	81284.7
17.465	81275.7
17.470	81279.7
17.475	81284.7
17.480	81299.7
17.485	81289.7
17.490	81296.7
17.495	81287.7
17.500	81293.7
17.505	81294.7
17.510	81266.7
17.515	81273.7
17.520	81301.7
17.525	81303.6
17.530	81310.6
17.535	81301.7
17.540	81302.6
17.545	81296.7
17.550	81304.6
17.555	81314.6
17.560	81309.6
17.565	81311.6
17.570	81318.6
17.575	81292.7
17.580	81291.7
17.585	81296.7
17.590	81328.6
17.595	81316.6
17.600	81320.6
17.605	81330.6
17.610	81324.6
17.615	81320.6
17.620	81320.6
17.625	81306.6
17.630	81309.6
17.635	81306.6
17.640	81295.6
17.645	81272.7
17.650	81291.6
17.655	81306.6
17.660	81308.6
17.665	81316.6
17.670	81311.6
17.675	81307.6
17.680	81311.6
17.685	81309.6
17.690	81314.6
17.695	81324.6
17.700	81325.6
17.705	81310.6
17.710	81283.6
17.715	81284.6
17.720	81312.6
17.725	81327.6
17.730	81340.6
17.735	81318.6
17.740	81322.6
17.745	81328.6
17.750	81339.6
17.755	81348.6
17.760	81362.6
17.765	81353.6
17.770	81354.6
17.775	81325.6
17.780	81318.6
17.785	81333.6
17.790	81364.6
17.795	81371.6
17.800	81379.6
17.805	81362.6
17.810	81360.6
17.815	81362.6
17.820	81369.6
17.825	81384.6
17.830	81393.5
17.835	81396.5
17.840	81385.6
17.845	81363.6
17.850	81371.6
17.855	81401.5
17.860	81412.5
17.865	81420.5
17.870	81424.5
17.875	81431.5
17.880	81436.5
17.885	81438.5
17.890	81455.5
17.895	81458.5
17.900	81465.5
17.905	81462.5
17.910	81434.5
17.915	81443.5
17.920	81473.5
17.925	81483.5
17.930	81486.5
17.935	81482.5
17.940	81481.5
17.945	81478.5
17.950	81492.5
17.955	81504.4
17.960	81514.4
17.965	81510.4
17.970	81517.4
17.975	81484.5
17.980	81484.5
17.985	81507.4
17.990	81542.4
17.995	81525.4
18.000	81520.4
18.005	81524.4
18.010	81522.4
18.015	81540.4
18.020	81545.4
18.025	81517.4
18.030	81512.4
18.035	81507.4
18.040	81503.4
18.045	81484.4
18.050	81496.4
18.055	81495.4
18.060	81500.4
18.065	81499.4
18.070	81505.4
18.075	81491.4
18.080	81490.4
18.085	81489.4
18.090	81489.4
18.095	81499.4
18.100	81494.4
18.105	81472.5
18.110	81442.5
18.115	81455.5
18.120	81474.4
18.125	81479.4
18.130	81472.4
18.135	81469.4
18.140	81467.4
18.145	81467.4
18.150	81469.5
18.155	81445.5
18.160	81435.5
18.165	81404.5
18.170	81398.5
18.175	81360.5
18.180	81356.5
18.185	81382.5
18.190	81425.5
18.195	81446.5
18.200	81451.5
18.205	81454.5
18.210	81457.4
18.215	81455.5
18.220	81457.4
18.225	81462.4
18.230	81460.4
18.235	81457.4
18.240	81437.5
18.245	81410.5
18.250	81420.5
18.255	81454.4
18.260	81461.4
18.265	81458.4
18.270	81444.5
18.275	81434.5
18.280	81438.5
18.285	81455.4
18.290	81450.4
18.295	81459.4
18.300	81440.4
18.305	81409.5
18.310	81381.5
18.315	81408.5
18.320	81437.4
18.325	81429.5
18.330	81418.5
18.335	81416.5
18.340	81404.5
18.345	81394.5
18.350	81411.5
18.355	81411.5
18.360	81421.4
18.365	81421.5
18.370	81428.4
18.375	81394.5
18.380	81384.5
18.385	81391.5
18.390	81404.5
18.395	81410.5
18.400	81411.5
18.405	81409.5
18.410	81417.4
18.415	81424.4
18.420	81428.4
18.425	81417.4
18.430	81419.4
18.435	81412.4
18.440	81393.5
18.445	81381.5
18.450	81395.5
18.455	81414.4
18.460	81404.4
18.465	81405.4
18.470	81400.4
18.475	81388.5
18.480	81371.5
18.485	81384.5
18.490	81389.5
18.495	81381.5
18.500	81384.5
18.505	81350.5
18.510	81319.5
18.515	81332.5
18.520	81360.5
18.525	81345.5
18.530	81345.5
18.535	81342.5
18.540	81334.5
18.545	81321.5
18.550	81320.5
18.555	81322.5
18.560	81307.5
18.565	81293.5
18.570	81285.5
18.575	81263.5
18.580	81265.5
18.585	81283.5
18.590	81302.5
18.595	81281.5
18.600	81273.5
18.605	81250.5
18.610	81250.5
18.615	81254.5
18.620	81256.5
18.625	81263.5
18.630	81256.5
18.635	81255.5
18.640	81239.6
18.645	81216.6
18.650	81224.6
18.655	81253.5
18.660	81252.5
18.665	81249.5
18.670	81254.5
18.675	81264.5
18.680	81273.5
18.685	81263.5
18.690	81267.5
18.695	81263.5
18.700	81250.5
18.705	81233.5
18.710	81207.6
18.715	81216.6
18.720	81239.5
18.725	81241.5
18.730	81238.5
18.735	81231.5
18.740	81233.5
18.745	81208.6
18.750	81205.6
18.755	81200.6
18.760	81213.5
18.765	81223.5
18.770	81226.5
18.775	81172.6
18.780	81163.6
18.785	81186.6
18.790	81215.5
18.795	81215.5
18.800	81212.5
18.805	81203.5
18.810	81202.5
18.815	81217.5
18.820	81209.5
18.825	81206.5
18.830	81211.5
18.835	81211.5
18.840	81187.5
18.845	81167.6
18.850	81195.5
18.855	81199.5
18.860	81205.5
18.865	81193.5
18.870	81193.5
18.875	81182.5
18.880	81185.5
18.885	81172.6
18.890	81155.6
18.895	81150.6
18.900	81161.6
18.905	81148.6
18.910	81137.6
18.915	81134.6
18.920	81163.6
18.925	81155.6
18.930	81147.6
18.935	81129.6
18.940	81126.6
18.945	81108.6
18.950	81094.6
18.955	81080.6
18.960	81070.6
18.965	81068.6
18.970	81055.6
18.975	81010.7
18.980	81002.7
18.985	81028.6
18.990	81039.6
18.995	81011.7
19.000	81001.7
19.005	81012.7
19.010	81043.6
19.015	81059.6
19.020	81062.6
19.025	81030.6
19.030	81035.6
19.035	81022.6
19.040	80989.7
19.045	80983.7
19.050	81019.6
19.055	81078.6
19.060	81102.6
19.065	81101.6
19.070	81120.6
19.075	81131.5
19.080	81157.5
19.085	81158.5
19.090	81167.5
19.095	81149.5
19.100	81148.5
19.105	81141.5
19.110	81134.5
19.115	81147.5
19.120	81186.5
19.125	81189.5
19.130	81180.5
19.135	81160.5
19.140	81169.5
19.145	81169.5
19.150	81176.5
19.155	81183.5
19.160	81193.5
19.165	81200.5
19.170	81207.5
19.175	81158.5
19.180	81160.5
19.185	81170.5
19.190	81188.5
19.195	81180.5
19.200	81180.5
19.205	81181.5
19.210	81185.5
19.215	81185.5
19.220	81180.5
19.225	81174.5
19.230	81175.5
19.235	81175.5
19.240	81146.5
19.245	81156.5
19.250	81160.5
19.255	81172.5
19.260	81170.5
19.265	81145.5
19.270	81129.5
19.275	81107.5
19.280	81097.5
19.285	81082.5
19.290	81070.5
19.295	81055.5
19.300	81031.6
19.305	81011.6
19.310	80985.6
19.315	80978.6
19.320	80993.6
19.325	80980.6
19.330	80980.6
19.335	80973.6
19.340	80985.6
19.345	80980.6
19.350	80988.6
19.355	80983.6
19.360	80993.6
19.365	80993.6
19.370	80990.6
19.375	80958.6
19.380	80977.6
19.385	81002.6
19.390	81020.6
19.395	81011.6
19.400	81027.5
19.405	81023.5
19.410	81025.5
19.415	81037.5
19.420	81051.5
19.425	81076.5
19.430	81089.5
19.435	81099.5
19.440	81088.5
19.445	81094.5
19.450	81115.5
19.455	81131.5
19.460	81134.4
19.465	81140.4
19.470	81147.4
19.475	81136.4
19.480	81140.4
19.485	81140.4
19.490	81131.4
19.495	81141.4
19.500	81141.4
19.505	81119.4
19.510	81114.5
19.515	81128.4
19.520	81159.4
19.525	81153.4
19.530	81156.4
19.535	81149.4
19.540	81140.4
19.545	81126.4
19.550	81131.4
19.555	81126.4
19.560	81121.4
19.565	81121.4
19.570	81127.4
19.575	81081.5
19.580	81087.5
19.585	81085.4
19.590	81101.4
19.595	81091.4
19.600	81079.4
19.605	81064.5
19.610	81069.5
19.615	81052.5
19.620	81068.5
19.625	81054.5
19.630	81050.5
19.635	81050.5
19.640	81017.5
19.645	81006.5
19.650	81017.5
19.655	81026.5
19.660	81015.5
19.665	80989.5
19.670	80981.5
19.675	80973.5
19.680	80995.5
19.685	80983.5
19.690	80979.5
19.695	80972.5
19.700	80968.5
19.705	80951.5
19.710	80950.5
19.715	80971.5
19.720	80994.5
19.725	81001.5
19.730	80988.5
19.735	80950.5
19.740	80939.5
19.745	80936.5
19.750	80932.5
19.755	80908.5
19.760	80913.5
19.765	80915.5
19.770	80900.5
19.775	80831.6
19.780	80840.6
19.785	80859.6
19.790	80860.6
19.795	80847.6
19.800	80837.6
19.805	80837.6
19.810	80830.6
19.815	80841.6
19.820	80844.6
19.825	80837.6
19.830	80824.6
19.835	80797.6
19.840	80783.6
19.845	80798.6
19.850	80821.6
19.855	80827.6
19.860	80816.6
19.865	80765.6
19.870	80756.6
19.875	80758.6
19.880	80763.6
19.885	80752.6
19.890	80758.6
19.895	80748.6
19.900	80727.6
19.905	80701.6
19.910	80695.6
19.915	80714.6
19.920	80738.6
19.925	80731.6
19.930	80716.6
19.935	80703.6
19.940	80713.6
19.945	80722.6
19.950	80742.6
19.955	80759.6
19.960	80780.5
19.965	80793.5
19.970	80816.5
19.975	80803.5
19.980	80814.5
19.985	80859.5
19.990	80877.5
19.995	80901.4
20.000	80923.4
20.005	80932.4
20.010	80936.4
20.015	80953.4
20.020	80948.4
20.025	80949.4
20.030	80952.4
20.035	80948.4
20.040	80926.4
20.045	80939.4
20.050	80964.4
20.055	80981.3
20.060	80978.3
20.065	80977.3
20.070	80976.3
20.075	80988.3
20.080	81000.3
20.085	80993.3
20.090	80989.3
20.095	80975.3
20.100	80978.3
20.105	80947.3
20.110	80930.4
20.115	80931.4
20.120	80963.3
20.125	80954.3
20.130	80941.3
20.135	80938.3
20.140	80946.3
20.145	80940.3
20.150	80925.3
20.155	80919.3
20.160	80919.3
20.165	80901.4
20.170	80882.4
20.175	80873.4
20.180	80885.4
20.185	80902.3
20.190	80908.3
20.195	80887.3
20.200	80871.4
20.205	80860.4
20.210	80855.4
20.215	80859.4
20.220	80870.3
20.225	80867.3
20.230	80850.4
20.235	80838.4
20.240	80798.4
20.245	80787.4
20.250	80790.4
20.255	80797.4
20.260	80787.4
20.265	80770.4
20.270	80756.4
20.275	80730.4
20.280	80722.4
20.285	80717.4
20.290	80694.4
20.295	80673.5
20.300	80637.5
20.305	80592.5
20.310	80574.5
20.315	80590.5
20.320	80588.5
20.325	80561.5
20.330	80559.5
20.335	80565.5
20.340	80582.5
20.345	80586.5
20.350	80609.5
20.355	80606.5
20.360	80609.5
20.365	80598.5
20.370	80595.5
20.375	80578.5
20.380	80579.5
20.385	80582.5
20.390	80579.5
20.395	80568.5
20.400	80559.5
20.405	80529.5
20.410	80513.5
20.415	80525.5
20.420	80523.5
20.425	80510.5
20.430	80466.5
20.435	80425.5
20.440	80341.6
20.445	80304.6
20.450	80311.6
20.455	80282.6
20.460	80266.7
20.465	80219.7
20.470	80196.7
20.475	80169.7
20.480	80170.7
20.485	80190.7
20.490	80206.7
20.495	80216.7
20.500	80241.6
20.505	80213.7
20.510	80211.7
20.515	80236.6
20.520	80281.6
20.525	80295.6
20.530	80325.5
20.535	80342.5
20.540	80343.5
20.545	80325.5
20.550	80297.5
20.555	80290.5
20.560	80295.5
20.565	80269.5
20.570	80227.6
20.575	80185.6
20.580	80201.6
20.585	80232.6
20.590	80234.6
20.595	80189.6
20.600	80163.6
20.605	80137.6
20.610	80078.7
20.615	79992.7
20.620	79950.7
20.625	79904.8
20.630	79881.8
20.635	79858.8
20.640	79828.8
20.645	79809.8
20.650	79814.8
20.655	79827.8
20.660	79805.8
20.665	79762.9
20.670	79724.9
20.675	79691.9
20.680	79710.9
20.685	79770.8
20.690	79817.8
20.695	79827.8
20.700	79840.8
20.705	79835.7
20.710	79844.7
20.715	79889.7
20.720	79912.7
20.725	79897.7
20.730	79862.7
20.735	79808.7
20.740	79759.8
20.745	79717.8
20.750	79673.8
20.755	79619.8
20.760	79579.9
20.765	79513.9
20.770	79448.0
20.775	79347.0
20.780	79299.1
20.785	79323.0
20.790	79339.0
20.795	79326.0
20.800	79319.0
20.805	79286.0
20.810	79231.1
20.815	79161.1
20.820	79068.2
20.825	79000.2
20.830	79008.2
20.835	79052.2
20.840	79059.2
20.845	79098.1
20.850	79173.0
20.855	79200.0
20.860	79216.0
20.865	79233.0
20.870	79269.9
20.875	79266.9
20.880	79281.9
20.885	79285.9
20.890	79281.9
20.895	79283.9
20.900	79301.9
20.905	79292.8
20.910	79287.8
20.915	79264.8
20.920	79264.8
20.925	79253.8
20.930	79240.8
20.935	79220.8
20.940	79204.8
20.945	79137.9
20.950	79037.9
20.955	78933.0
20.960	78812.1
20.965	78688.2
20.970	78591.2
20.975	78508.3
20.980	78429.4
20.985	78394.4
20.990	78404.4
20.995	78394.4
21.000	78410.3
21.005	78506.2
21.010	78670.1
21.015	78851.9
21.020	78973.8
21.025	78943.8
21.030	78861.9
21.035	78756.0
21.040	78581.1
21.045	78325.3
21.050	78118.4
21.055	77978.5
21.060	77943.5
21.065	78059.4
21.070	78385.2
21.075	78622.0
21.080	78694.9
21.085	78816.8
21.090	78996.6
21.095	79243.4
21.100	79413.2
21.105	79427.2
21.110	79408.2
21.115	79318.2
21.120	79187.3
21.125	79002.5
21.130	78991.4
21.135	79083.3
21.140	79217.2
21.145	79320.1
21.150	79373.0
21.155	79277.1
21.160	79087.2
21.165	78981.3
21.170	78950.3
21.175	78945.2
21.180	78944.2
21.185	78687.4
21.190	78085.8
21.195	77601.2
21.200	77080.5
21.205	76503.0
21.210	76491.9
21.215	76876.6
21.220	76920.5
21.225	76618.7
21.230	76829.6
21.235	77917.7
21.240	78493.1
21.245	78140.4
21.250	77970.4
21.255	77999.4
21.260	77822.4
21.265	77601.6
21.270	77647.5
21.275	77724.3
21.280	77094.8
21.285	75031.4
21.290	72523.3
21.295	72399.3
21.300	73878.0
21.305	74014.8
21.310	73209.4
21.315	73754.9
21.320	76188.7
21.325	77250.8
21.330	76769.1
21.335	76108.5
21.340	75638.8
21.345	75200.0
21.350	74839.3
21.355	74456.6
21.360	74112.9
21.365	74176.9
21.370	74560.7
21.375	74786.6
21.380	74775.9
21.385	74789.2
21.390	75041.3
21.395	75652.2
21.400	76492.0
21.405	77370.7
21.410	78221.4
21.415	79072.3
21.420	79957.1
21.425	80792.8
21.430	81480.6
21.435	81974.5
21.440	82289.4
21.445	82479.3
21.450	82610.3
21.455	82670.2
21.460	82693.2
21.465	82701.2
21.470	82727.2
21.475	82719.2
21.480	82721.2
21.485	82726.2
21.490	82736.2
21.495	82727.2
21.500	82732.2
21.505	82702.2
21.510	82701.2
21.515	82720.2
21.520	82752.2
21.525	82739.2
21.530	82737.2
21.535	82731.2
21.540	82738.2
21.545	82723.2
21.550	82731.2
21.555	82735.2
21.560	82739.2
21.565	82733.2
21.570	82711.2
21.575	82697.2
21.580	82713.2
21.585	82729.2
21.590	82745.2
21.595	82741.2
21.600	82744.2
21.605	82741.2
21.610	82738.2
21.615	82743.2
21.620	82745.2
21.625	82751.2
21.630	82753.2
21.635	82734.2
21.640	82713.2
21.645	82719.2
21.650	82749.2
21.655	82750.2
21.660	82747.2
21.665	82740.2
21.670	82744.2
21.675	82731.2
21.680	82737.2
21.685	82734.2
21.690	82743.2
21.695	82737.2
21.700	82741.2
21.705	82713.2
21.710	82706.2
21.715	82724.2
21.720	82757.2
21.725	82745.2
21.730	82753.2
21.735	82751.2
21.740	82748.2
21.745	82741.2
21.750	82749.2
21.755	82746.2
21.760	82757.2
21.765	82746.2
21.770	82733.2
21.775	82718.2
21.780	82740.2
21.785	82753.2
21.790	82747.2
21.795	82738.2
21.800	82745.2
21.805	82729.2
21.810	82738.2
21.815	82733.2
21.820	82750.2
21.825	82744.2
21.830	82751.2
21.835	82743.2
21.840	82721.2
21.845	82716.2
21.850	82746.2
21.855	82756.2
21.860	82753.2
21.865	82749.2
21.870	82748.2
21.875	82739.2
21.880	82754.2
21.885	82752.2
21.890	82754.2
21.895	82760.2
21.900	82755.2
21.905	82712.2
21.910	82730.2
21.915	82735.2
21.920	82750.2
21.925	82750.2
21.930	82742.2
21.935	82744.2
21.940	82740.2
21.945	82747.2
21.950	82740.2
21.955	82743.2
21.960	82756.2
21.965	82744.2
21.970	82735.2
21.975	82708.2
21.980	82718.2
21.985	82750.2
21.990	82751.2
21.995	82755.2
22.000	82753.2
22.005	82757.2
22.010	82757.2
22.015	82756.2
22.020	82756.2
22.025	82758.2
22.030	82755.2
22.035	82741.2
22.040	82725.2
22.045	82721.2
22.050	82759.2
22.055	82753.2
22.060	82760.2
22.065	82745.2
22.070	82753.2
22.075	82739.2
22.080	82745.2
22.085	82742.2
22.090	82744.2
22.095	82751.2
22.100	82753.2
22.105	82719.2
22.110	82718.2
22.115	82728.2
22.120	82753.2
22.125	82754.2
22.130	82751.2
22.135	82752.2
22.140	82747.2
22.145	82753.2
22.150	82759.2
22.155	82765.2
22.160	82765.2
22.165	82752.2
22.170	82734.2
22.175	82726.2
22.180	82749.2
22.185	82762.2
22.190	82756.2
22.195	82750.2
22.200	82753.2
22.205	82743.2
22.210	82746.2
22.215	82745.2
22.220	82751.2
22.225	82750.2
22.230	82765.2
22.235	82736.2
22.240	82714.2
22.245	82719.2
22.250	82759.2
22.255	82752.2
22.260	82764.2
22.265	82751.2
22.270	82752.2
22.275	82745.2
22.280	82757.2
22.285	82761.2
22.290	82756.2
22.295	82754.2
22.300	82764.2
22.305	82724.2
22.310	82732.2
22.315	82745.2
22.320	82766.2
22.325	82755.2
22.330	82750.2
22.335	82737.2
22.340	82748.2
22.345	82747.2
22.350	82759.2
22.355	82753.2
22.360	82754.2
22.365	82751.2
22.370	82728.2
22.375	82719.2
22.380	82735.2
22.385	82766.2
22.390	82757.2
22.395	82752.2
22.400	82756.2
22.405	82756.2
22.410	82764.2
22.415	82759.2
22.420	82765.2
22.425	82754.2
22.430	82759.2
22.435	82740.2
22.440	82727.2
22.445	82737.2
22.450	82769.2
22.455	82765.2
22.460	82756.2
22.465	82752.2
22.470	82760.2
22.475	82753.2
22.480	82755.2
22.485	82764.2
22.490	82761.2
22.495	82757.2
22.500	82755.2
22.505	82720.2
22.510	82725.2
22.515	82739.2
22.520	82766.2
22.525	82761.2
22.530	82768.2
22.535	82760.2
22.540	82763.2
22.545	82759.2
22.550	82770.2
22.555	82765.2
22.560	82768.2
22.565	82758.2
22.570	82736.2
22.575	82729.2
22.580	82764.2
22.585	82772.2
22.590	82777.2
22.595	82763.2
22.600	82758.2
22.605	82759.2
22.610	82760.2
22.615	82766.2
22.620	82762.2
22.625	82757.2
22.630	82765.2
22.635	82748.2
22.640	82729.2
22.645	82741.2
22.650	82769.2
22.655	82771.2
22.660	82772.2
22.665	82765.2
22.670	82770.2
22.675	82765.2
22.680	82775.2
22.685	82770.2
22.690	82777.2
22.695	82768.2
22.700	82768.2
22.705	82735.2
22.710	82739.2
22.715	82758.2
22.720	82773.2
22.725	82762.2
22.730	82755.2
22.735	82765.2
22.740	82771.2
22.745	82763.2
22.750	82762.2
22.755	82764.2
22.760	82773.2
22.765	82758.2
22.770	82748.2
22.775	82732.2
22.780	82753.2
22.785	82772.2
22.790	82773.2
22.795	82774.2
22.800	82773.2
22.805	82773.2
22.810	82773.2
22.815	82779.2
22.820	82773.2
22.825	82768.2
22.830	82776.2
22.835	82749.2
22.840	82736.2
22.845	82751.2
22.850	82782.2
22.855	82773.2
22.860	82772.2
22.865	82757.2
22.870	82762.2
22.875	82760.2
22.880	82770.2
22.885	82763.2
22.890	82765.2
22.895	82759.2
22.900	82762.2
22.905	82733.2
22.910	82734.2
22.915	82746.2
22.920	82768.2
22.925	82763.2
22.930	82773.2
22.935	82769.2
22.940	82769.2
22.945	82765.2
22.950	82772.2
22.955	82771.2
22.960	82777.2
22.965	82765.2
22.970	82747.2
22.975	82733.2
22.980	82757.2
22.985	82767.2
22.990	82772.2
22.995	82761.2
23.000	82759.2
23.005	82765.2
23.010	82767.2
23.015	82763.2
23.020	82764.2
23.025	82769.2
23.030	82773.2
23.035	82755.2
23.040	82737.2
23.045	82734.2
23.050	82774.2
23.055	82765.2
23.060	82762.2
23.065	82766.2
23.070	82771.2
23.075	82763.2
23.080	82777.2
23.085	82772.2
23.090	82770.2
23.095	82770.2
23.100	82763.2
23.105	82732.2
23.110	82750.2
23.115	82766.2
23.120	82776.2
23.125	82767.2
23.130	82765.2
23.135	82759.2
23.140	82764.2
23.145	82760.2
23.150	82764.2
23.155	82765.2
23.160	82765.2
23.165	82756.2
23.170	82731.2
23.175	82726.2
23.180	82739.2
23.185	82770.2
23.190	82769.2
23.195	82770.2
23.200	82767.2
23.205	82766.2
23.210	82772.2
23.215	82772.2
23.220	82772.2
23.225	82772.2
23.230	82770.2
23.235	82742.2
23.240	82730.2
23.245	82758.2
23.250	82783.2
23.255	82766.2
23.260	82767.2
23.265	82763.2
23.270	82753.2
23.275	82762.2
23.280	82761.2
23.285	82763.2
23.290	82759.2
23.295	82762.2
23.300	82764.2
23.305	82731.2
23.310	82738.2
23.315	82765.2
23.320	82771.2
23.325	82762.2
23.330	82768.2
23.335	82770.2
23.340	82776.2
23.345	82774.2
23.350	82779.2
23.355	82770.2
23.360	82769.2
23.365	82770.2
23.370	82729.2
23.375	82738.2
23.380	82760.2
23.385	82774.2
23.390	82771.2
23.395	82757.2
23.400	82765.2
23.405	82759.2
23.410	82769.2
23.415	82764.2
23.420	82764.2
23.425	82761.2
23.430	82756.2
23.435	82740.2
23.440	82733.2
23.445	82734.2
23.450	82764.2
23.455	82768.2
23.460	82770.2
23.465	82770.2
23.470	82772.2
23.475	82775.2
23.480	82777.2
23.485	82762.2
23.490	82772.2
23.495	82770.2
23.500	82759.2
23.505	82723.2
23.510	82751.2
23.515	82772.2
23.520	82780.2
23.525	82762.2
23.530	82759.2
23.535	82764.2
23.540	82770.2
23.545	82765.2
23.550	82768.2
23.555	82764.2
23.560	82758.2
23.565	82761.2
23.570	82733.2
23.575	82735.2
23.580	82757.2
23.585	82771.2
23.590	82772.2
23.595	82771.2
23.600	82771.2
23.605	82764.2
23.610	82770.2
23.615	82770.2
23.620	82778.2
23.625	82769.2
23.630	82765.2
23.635	82747.2
23.640	82737.2
23.645	82745.2
23.650	82782.2
23.655	82773.2
23.660	82769.2
23.665	82764.2
23.670	82765.2
23.675	82762.2
23.680	82763.2
23.685	82762.2
23.690	82767.2
23.695	82768.2
23.700	82765.2
23.705	82726.2
23.710	82739.2
23.715	82757.2
23.720	82772.2
23.725	82762.2
23.730	82769.2
23.735	82762.2
23.740	82770.2
23.745	82769.2
23.750	82773.2
23.755	82772.2
23.760	82772.2
23.765	82772.2
23.770	82740.2
23.775	82739.2
23.780	82759.2
23.785	82773.2
23.790	82772.2
23.795	82769.2
23.800	82762.2
23.805	82754.2
23.810	82751.2
23.815	82749.2
23.820	82758.2
23.825	82760.2
23.830	82762.2
23.835	82736.2
23.840	82724.2
23.845	82736.2
23.850	82762.2
23.855	82767.2
23.860	82772.2
23.865	82767.2
23.870	82761.2
23.875	82765.2
23.880	82766.2
23.885	82767.2
23.890	82765.2
23.895	82763.2
23.900	82750.2
23.905	82718.2
23.910	82737.2
23.915	82762.2
23.920	82762.2
23.925	82753.2
23.930	82753.2
23.935	82751.2
23.940	82749.2
23.945	82754.2
23.950	82765.2
23.955	82753.2
23.960	82752.2
23.965	82764.2
23.970	82720.2
23.975	82721.2
23.980	82740.2
23.985	82764.2
23.990	82764.2
23.995	82758.2
24.000	82765.2
24.005	82760.2
24.010	82761.2
24.015	82756.2
24.020	82763.2
24.025	82756.2
24.030	82761.2
24.035	82737.2
24.040	82726.2
24.045	82743.2
24.050	82766.2
24.055	82768.2
24.060	82761.2
24.065	82753.2
24.070	82752.2
24.075	82752.2
24.080	82747.2
24.085	82745.2
24.090	82761.2
24.095	82756.2
24.100	82743.2
24.105	82716.2
24.110	82729.2
24.115	82749.2
24.120	82758.2
24.125	82762.2
24.130	82759.2
24.135	82749.2
24.140	82760.2
24.145	82754.2
24.150	82761.2
24.155	82751.2
24.160	82757.2
24.165	82757.2
24.170	82722.2
24.175	82728.2
24.180	82751.2
24.185	82764.2
24.190	82761.2
24.195	82746.2
24.200	82751.2
24.205	82742.2
24.210	82745.2
24.215	82744.2
24.220	82747.2
24.225	82751.2
24.230	82746.2
24.235	82719.2
24.240	82716.2
24.245	82728.2
24.250	82756.2
24.255	82751.2
24.260	82760.2
24.265	82752.2
24.270	82751.2
24.275	82758.2
24.280	82759.2
24.285	82758.2
24.290	82753.2
24.295	82742.2
24.300	82733.2
24.305	82715.2
24.310	82730.2
24.315	82754.2
24.320	82755.2
24.325	82756.2
24.330	82740.2
24.335	82740.2
24.340	82744.2
24.345	82739.2
24.350	82745.2
24.355	82738.2
24.360	82751.2
24.365	82746.2
24.370	82720.2
24.375	82706.2
24.380	82738.2
24.385	82753.2
24.390	82747.2
24.395	82743.2
24.400	82746.2
24.405	82743.2
24.410	82751.2
24.415	82754.2
24.420	82756.2
24.425	82752.2
24.430	82762.2
24.435	82718.2
24.440	82718.2
24.445	82735.2
24.450	82755.2
24.455	82747.2
24.460	82741.2
24.465	82741.2
24.470	82740.2
24.475	82738.2
24.480	82731.2
24.485	82743.2
24.490	82745.2
24.495	82739.2
24.500	82735.2
24.505	82695.2
24.510	82721.2
24.515	82748.2
24.520	82745.2
24.525	82746.2
24.530	82743.2
24.535	82740.2
24.540	82741.2
24.545	82745.2
24.550	82747.2
24.555	82754.2
24.560	82748.2
24.565	82745.2
24.570	82716.2
24.575	82719.2
24.580	82740.2
24.585	82745.2
24.590	82754.2
24.595	82735.2
24.600	82736.2
24.605	82732.2
24.610	82728.2
24.615	82736.2
24.620	82740.2
24.625	82742.2
24.630	82742.2
24.635	82714.2
24.640	82709.2
24.645	82722.2
24.650	82748.2
24.655	82744.2
24.660	82752.2
24.665	82743.2
24.670	82747.2
24.675	82747.2
24.680	82750.2
24.685	82747.2
24.690	82748.2
24.695	82749.2
24.700	82730.2
24.705	82706.2
24.710	82729.2
24.715	82752.2
24.720	82743.2
24.725	82740.2
24.730	82747.2
24.735	82741.2
24.740	82735.2
24.745	82741.2
24.750	82744.2
24.755	82730.2
24.760	82746.2
24.765	82742.2
24.770	82713.2
24.775	82720.2
24.780	82741.2
24.785	82744.2
24.790	82745.2
24.795	82757.2
24.800	82757.2
24.805	82745.2
24.810	82751.2
24.815	82753.2
24.820	82752.2
24.825	82744.2
24.830	82756.2
24.835	82721.2
24.840	82727.2
24.845	82741.2
24.850	82763.2
24.855	82744.2
24.860	82744.2
24.865	82740.2
24.870	82750.2
24.875	82743.2
24.880	82740.2
24.885	82754.2
24.890	82748.2
24.895	82742.2
24.900	82734.2
24.905	82716.2
24.910	82724.2
24.915	82750.2
24.920	82759.2
24.925	82750.2
24.930	82757.2
24.935	82750.2
24.940	82742.2
24.945	82755.2
24.950	82751.2
24.955	82752.2
24.960	82751.2
24.965	82745.2
24.970	82713.2
24.975	82726.2
24.980	82743.2
24.985	82750.2
24.990	82739.2
24.995	82746.2
25.000	82743.2
25.005	82740.2
25.010	82745.2
25.015	82737.2
25.020	82739.2
25.025	82744.2
25.030	82755.2
25.035	82720.2
25.040	82715.2
25.045	82726.2
25.050	82756.2
25.055	82746.2
25.060	82750.2
25.065	82746.2
25.070	82753.2
25.075	82758.2
25.080	82758.2
25.085	82751.2
25.090	82758.2
25.095	82744.2
25.100	82727.2
25.105	82715.2
25.110	82733.2
25.115	82749.2
25.120	82760.2
25.125	82739.2
25.130	82739.2
25.135	82736.2
25.140	82741.2
25.145	82739.2
25.150	82743.2
25.155	82745.2
25.160	82743.2
25.165	82745.2
25.170	82717.2
25.175	82715.2
25.180	82738.2
25.185	82748.2
25.190	82746.2
25.195	82744.2
25.200	82741.2
25.205	82748.2
25.210	82753.2
25.215	82757.2
25.220	82754.2
25.225	82760.2
25.230	82755.2
25.235	82717.2
25.240	82721.2
25.245	82742.2
25.250	82750.2
25.255	82751.2
25.260	82751.2
25.265	82742.2
25.270	82739.2
25.275	82742.2
25.280	82752.2
25.285	82737.2
25.290	82754.2
25.295	82746.2
25.300	82728.2
25.305	82702.2
25.310	82723.2
25.315	82754.2
25.320	82751.2
25.325	82747.2
25.330	82746.2
25.335	82748.2
25.340	82754.2
25.345	82755.2
25.350	82755.2
25.355	82755.2
25.360	82748.2
25.365	82742.2
25.370	82714.2
25.375	82729.2
25.380	82750.2
25.385	82750.2
25.390	82753.2
25.395	82736.2
25.400	82746.2
25.405	82748.2
25.410	82746.2
25.415	82744.2
25.420	82746.2
25.425	82744.2
25.430	82749.2
25.435	82720.2
25.440	82714.2
25.445	82734.2
25.450	82751.2
25.455	82751.2
25.460	82755.2
25.465	82754.2
25.470	82754.2
25.475	82752.2
25.480	82762.2
25.485	82758.2
25.490	82753.2
25.495	82755.2
25.500	82726.2
25.505	82716.2
25.510	82740.2
25.515	82754.2
25.520	82756.2
25.525	82740.2
25.530	82745.2
25.535	82744.2
25.540	82738.2
25.545	82737.2
25.550	82749.2
25.555	82749.2
25.560	82756.2
25.565	82745.2
25.570	82710.2
25.575	82717.2
25.580	82752.2
25.585	82748.2
25.590	82760.2
25.595	82759.2
25.600	82747.2
25.605	82756.2
25.610	82753.2
25.615	82755.2
25.620	82754.2
25.625	82753.2
25.630	82753.2
25.635	82722.2
25.640	82725.2
25.645	82750.2
25.650	82758.2
25.655	82755.2
25.660	82751.2
25.665	82743.2
25.670	82748.2
25.675	82741.2
25.680	82747.2
25.685	82750.2
25.690	82758.2
25.695	82752.2
25.700	82739.2
25.705	82719.2
25.710	82737.2
25.715	82756.2
25.720	82757.2
25.725	82756.2
25.730	82761.2
25.735	82753.2
25.740	82757.2
25.745	82761.2
25.750	82760.2
25.755	82759.2
25.760	82759.2
25.765	82744.2
25.770	82728.2
25.775	82731.2
25.780	82762.2
25.785	82759.2
25.790	82757.2
25.795	82748.2
25.800	82748.2
25.805	82748.2
25.810	82754.2
25.815	82746.2
25.820	82756.2
25.825	82758.2
25.830	82758.2
25.835	82721.2
25.840	82725.2
25.845	82747.2
25.850	82754.2
25.855	82761.2
25.860	82764.2
25.865	82751.2
25.870	82753.2
25.875	82757.2
25.880	82767.2
25.885	82754.2
25.890	82758.2
25.895	82757.2
25.900	82732.2
25.905	82716.2
25.910	82742.2
25.915	82758.2
25.920	82765.2
25.925	82748.2
25.930	82755.2
25.935	82747.2
25.940	82743.2
25.945	82745.2
25.950	82748.2
25.955	82753.2
25.960	82758.2
25.965	82734.2
25.970	82714.2
25.975	82719.2
25.980	82747.2
25.985	82758.2
25.990	82759.2
25.995	82764.2
26.000	82754.2
26.005	82754.2
26.010	82759.2
26.015	82767.2
26.020	82768.2
26.025	82756.2
26.030	82763.2
26.035	82726.2
26.040	82730.2
26.045	82749.2
26.050	82767.2
26.055	82755.2
26.060	82757.2
26.065	82754.2
26.070	82751.2
26.075	82748.2
26.080	82756.2
26.085	82747.2
26.090	82751.2
26.095	82751.2
26.100	82723.2
26.105	82711.2
26.110	82736.2
26.115	82763.2
26.120	82755.2
26.125	82759.2
26.130	82761.2
26.135	82755.2
26.140	82761.2
26.145	82756.2
26.150	82758.2
26.155	82760.2
26.160	82758.2
26.165	82734.2
26.170	82725.2
26.175	82724.2
26.180	82755.2
26.185	82759.2
26.190	82760.2
26.195	82754.2
26.200	82743.2
26.205	82747.2
26.210	82745.2
26.215	82745.2
26.220	82749.2
26.225	82753.2
26.230	82748.2
26.235	82707.2
26.240	82721.2
26.245	82737.2
26.250	82760.2
26.255	82761.2
26.260	82754.2
26.265	82750.2
26.270	82759.2
26.275	82743.2
26.280	82760.2
26.285	82769.2
26.290	82752.2
26.295	82752.2
26.300	82722.2
26.305	82721.2
26.310	82732.2
26.315	82759.2
26.320	82756.2
26.325	82753.2
26.330	82743.2
26.335	82755.2
26.340	82744.2
26.345	82748.2
26.350	82751.2
26.355	82749.2
26.360	82745.2
26.365	82727.2
26.370	82718.2
26.375	82725.2
26.380	82748.2
26.385	82755.2
26.390	82762.2
26.395	82755.2
26.400	82752.2
